Data from hue_270_FLMS001491_00066.txt Node
Date: Tue Feb 07 15:57:33 GMT 2017
User: dcchb
Spectrometer: FLMS00149
Trigger mode: 0
Integration Time (sec): 2.000000E-2
Scans to average: 10
Electric dark correction enabled: true
Nonlinearity correction enabled: false
Boxcar width: 0
XAxis mode: Wavelengths
Number of Pixels in Spectrum: 2048
>>>>>Begin Spectral Data<<<<<
341.393	-7.15
341.776	-7.15
342.16	-7.15
342.543	-40.82
342.927	-74.49
343.31	-71.1
343.693	-69.74
344.077	-56.64
344.46	-37.65
344.843	-54.38
345.226	-45.34
345.61	-27.49
345.993	-26.36
346.376	-7.15
346.759	15.9
347.142	23.36
347.525	41.21
347.908	62.23
348.291	71.5
348.674	76.69
349.057	104.94
349.44	117.6
349.823	148.33
350.206	153.08
350.588	176.13
350.971	207.08
351.354	212.51
351.737	229.46
352.119	249.8
352.502	256.35
352.884	260.19
353.267	250.7
353.65	273.3
354.032	297.48
354.414	291.38
354.797	318.72
355.179	329.79
355.562	312.62
355.944	320.75
356.326	332.73
356.709	323.24
357.091	324.6
357.473	328.21
357.855	337.03
358.238	327.31
358.62	352.62
359.002	344.03
359.384	335.67
359.766	327.31
360.148	337.93
360.53	330.92
360.912	318.95
361.294	325.27
361.676	313.97
362.057	303.81
362.439	338.61
362.821	314.43
363.203	314.65
363.584	344.48
363.966	331.6
364.348	308.78
364.729	316.01
365.111	318.72
365.493	304.71
365.874	302.68
366.256	299.74
366.637	326.63
367.019	311.71
367.4	311.94
367.781	319.17
368.163	305.39
368.544	296.57
368.925	329.12
369.306	305.16
369.688	309
370.069	292.05
370.45	317.36
370.831	304.26
371.212	307.65
371.593	320.75
371.974	294.54
372.355	321.66
372.736	288.66
373.117	322.56
373.498	286.18
373.879	318.04
374.26	329.57
374.641	304.94
375.021	316.91
375.402	307.2
375.783	323.01
376.163	321.43
376.544	321.66
376.925	321.21
377.305	328.89
377.686	325.95
378.066	313.3
378.447	334.77
378.827	350.13
379.208	329.57
379.588	338.61
379.968	316.91
380.349	327.76
380.729	320.3
381.109	323.47
381.489	313.52
381.87	325.95
382.25	327.99
382.63	331.38
383.01	329.57
383.39	337.7
383.77	342.22
384.15	330.7
384.53	349.68
384.91	344.71
385.29	338.83
385.67	328.21
386.049	352.62
386.429	351.71
386.809	346.06
387.189	366.63
387.568	362.34
387.948	349
388.328	343.58
388.707	340.64
389.087	366.63
389.466	367.98
389.846	367.08
390.225	355.78
390.605	357.82
390.984	368.89
391.363	367.31
391.743	365.27
392.122	360.53
392.501	341.77
392.881	381.54
393.26	376.57
393.639	380.87
394.018	382
394.397	382.45
394.776	389.23
395.155	392.39
395.534	400.75
395.913	391.49
396.292	388.78
396.671	391.71
397.05	417.93
397.429	386.29
397.808	396.68
398.186	395.55
398.565	393.97
398.944	410.02
399.323	421.09
399.701	394.65
400.08	398.27
400.458	438.49
400.837	437.14
401.215	419.28
401.594	405.05
401.972	415.89
402.351	412.5
402.729	429.68
403.107	429.9
403.486	451.82
403.864	431.71
404.242	439.17
404.62	439.17
404.999	459.96
405.377	441.2
405.755	457.47
406.133	435.1
406.511	472.39
406.889	468.1
407.267	461.54
407.645	481.88
408.023	477.81
408.401	480.75
408.779	490.47
409.156	492.5
409.534	492.28
409.912	506.96
410.29	525.04
410.667	517.81
411.045	516.68
411.422	510.13
411.8	533.63
412.178	546.96
412.555	542.9
412.933	557.58
413.31	570.01
413.687	571.37
414.065	574.08
414.442	568.88
414.819	590.13
415.197	597.13
415.574	555.55
415.951	605.94
416.328	617.47
416.705	616.57
417.082	610.46
417.46	631.48
417.837	612.05
418.214	616.57
418.591	648.88
418.967	635.55
419.344	626.96
419.721	666.51
420.098	669.67
420.475	637.13
420.852	691.59
421.228	665.15
421.605	690.91
421.982	738.82
422.358	738.6
422.735	729.11
423.111	728.2
423.488	755.09
423.864	765.26
424.241	750.12
424.617	761.42
424.994	779.5
425.37	786.28
425.746	798.48
426.123	807.07
426.499	818.14
426.875	839.38
427.251	845.94
427.627	851.81
428.003	875.32
428.379	900.4
428.756	863.79
429.132	901.3
429.507	909.21
429.883	914.19
430.259	925.26
430.635	910.8
431.011	911.25
431.387	944.69
431.763	971.81
432.138	989.66
432.514	964.58
432.89	987.86
433.265	1040.06
433.641	1049.32
434.016	1065.14
434.392	1083.67
434.767	1069.44
435.143	1090.23
435.518	1076.89
435.894	1123.22
436.269	1141.3
436.644	1159.38
437.02	1162.54
437.395	1154.4
437.77	1213.61
438.145	1217.23
438.52	1242.76
438.895	1245.7
439.271	1247.51
439.646	1297.45
440.021	1307.4
440.395	1314.85
440.77	1287.96
441.145	1315.3
441.52	1340.61
441.895	1335.64
442.27	1369.31
442.645	1382.65
443.019	1418.8
443.394	1398.92
443.769	1398.24
444.143	1381.07
444.518	1399.6
444.892	1432.82
445.267	1438.92
445.641	1466.49
446.016	1448.41
446.39	1473.72
446.764	1493.38
447.139	1504
447.513	1484.57
447.887	1496.32
448.262	1539.48
448.636	1517.11
449.01	1557.33
449.384	1584.68
449.758	1569.54
450.132	1569.76
450.506	1577.44
450.88	1617.44
451.254	1596.65
451.628	1606.82
452.002	1628.97
452.376	1639.36
452.75	1682.75
453.123	1685.01
453.497	1680.72
453.871	1693.37
454.244	1726.59
454.618	1724.11
454.992	1728.85
455.365	1748.51
455.739	1772.47
456.112	1792.13
456.486	1812.92
456.859	1830.77
457.232	1855.63
457.606	1832.13
457.979	1871.9
458.352	1869.41
458.725	1946.47
459.099	1884.1
459.472	1958.45
459.845	1954.16
460.218	1966.59
460.591	1990.54
460.964	1985.8
461.337	2003.42
461.71	2063.31
462.083	2077.32
462.456	2117.77
462.829	2108.73
463.201	2138.79
463.574	2149.63
463.947	2144.44
464.32	2185.11
464.692	2223.3
465.065	2225.34
465.438	2236.41
465.81	2283.41
466.183	2278.22
466.555	2337.65
466.928	2310.76
467.3	2317.09
467.672	2375.84
468.045	2404.77
468.417	2446.57
468.789	2404.32
469.161	2466.69
469.534	2515.27
469.906	2549.4
470.278	2540.58
470.65	2586.01
471.022	2629.17
471.394	2657.87
471.766	2645.44
472.138	2683.63
472.51	2752.55
472.882	2780.35
473.253	2774.93
473.625	2810.86
473.997	2890.63
474.369	2865.32
474.74	2896.05
475.112	2946
475.484	2992.77
475.855	3013.79
476.227	3096.73
476.598	3123.17
476.97	3127.46
477.341	3211.07
477.713	3237.29
478.084	3224.18
478.455	3283.16
478.827	3342.37
479.198	3404.74
479.569	3396.61
479.94	3501.46
480.311	3463.04
480.682	3555.25
481.053	3633.89
481.424	3633.21
481.795	3673.89
482.166	3712.76
482.537	3762.02
482.908	3826.42
483.279	3860.32
483.65	3902.13
484.021	3964.73
484.391	3988.23
484.762	3997.72
485.133	4066.42
485.503	4098.73
485.874	4177.6
486.244	4240.65
486.615	4275.23
486.985	4347.09
487.356	4333.53
487.726	4348.67
488.097	4436.8
488.467	4458.5
488.837	4553.86
489.207	4561.09
489.578	4609.23
489.948	4656.69
490.318	4713.18
490.688	4734.65
491.058	4740.75
491.428	4887.19
491.798	4870.24
492.168	4969.67
492.538	4946.17
492.908	5007.86
493.278	5038.37
493.648	5053.06
494.017	5087.18
494.387	5099.61
494.757	5204.92
495.126	5192.04
495.496	5172.38
495.866	5231.59
496.235	5253.73
496.605	5281.75
496.974	5318.14
497.344	5369.66
497.713	5341.41
498.082	5426.38
498.452	5401.98
498.821	5440.85
499.19	5468.64
499.559	5516.55
499.928	5557.23
500.298	5572.37
500.667	5600.84
501.036	5612.59
501.405	5622.76
501.774	5625.7
502.143	5651.91
502.512	5748.18
502.88	5695.98
503.249	5702.31
503.618	5734.85
503.987	5740.27
504.356	5731.91
504.724	5787.28
505.093	5798.8
505.462	5850.33
505.83	5836.99
506.199	5894.62
506.567	5917.67
506.936	5885.81
507.304	6012.58
507.672	5974.62
508.041	6030.21
508.409	6034.28
508.777	6051
509.145	6106.14
509.514	6085.35
509.882	6087.83
510.25	6087.83
510.618	6057.33
510.986	6087.61
511.354	6191.11
511.722	6164.44
512.09	6222.52
512.458	6194.72
512.826	6259.13
513.193	6235.4
513.561	6317.43
513.929	6327.38
514.297	6319.24
514.664	6311.11
515.032	6345.45
515.4	6347.71
515.767	6367.6
516.135	6381.84
516.502	6328.73
516.869	6447.6
517.237	6481.04
517.604	6402.85
517.972	6532.79
518.339	6483.98
518.706	6443.53
519.073	6516.98
519.44	6460.03
519.808	6511.78
520.175	6541.38
520.542	6597.2
520.909	6582.06
521.276	6570.76
521.643	6590.19
522.009	6638.33
522.376	6628.16
522.743	6616.63
523.11	6708.38
523.477	6709.29
523.843	6735.95
524.21	6753.81
524.577	6811.88
524.943	6811.88
525.31	6813.46
525.676	6899.11
526.043	6930.98
526.409	6921.48
526.776	6966
527.142	6970.97
527.508	6972.33
527.874	7056.4
528.241	7029.28
528.607	7048.49
528.973	7053.01
529.339	7040.58
529.705	7053.46
530.071	7096.85
530.437	7059.11
530.803	7221.14
531.169	7155.83
531.535	7194.92
531.901	7149.95
532.267	7212.55
532.632	7201.93
532.998	7278.76
533.364	7220.91
533.73	7225.88
534.095	7350.4
534.461	7260.23
534.826	7390.4
535.192	7260.01
535.557	7415.03
535.923	7336.62
536.288	7404.86
536.653	7364.86
537.019	7344.07
537.384	7401.7
537.749	7339.78
538.114	7374.58
538.479	7390.85
538.845	7414.81
539.21	7418.19
539.575	7438.53
539.94	7399.21
540.305	7417.29
540.67	7475.59
541.034	7462.71
541.399	7488.25
541.764	7500.23
542.129	7490.96
542.494	7534.58
542.858	7477.63
543.223	7570.28
543.587	7582.71
543.952	7542.71
544.316	7579.09
544.681	7592.88
545.045	7650.51
545.41	7544.52
545.774	7575.03
546.138	7629.26
546.503	7595.14
546.867	7592.43
547.231	7575.03
547.595	7638.3
547.959	7670.84
548.324	7626.32
548.688	7582.94
549.052	7652.31
549.416	7691.86
549.779	7664.06
550.143	7627
550.507	7736.38
550.871	7694.12
551.235	7652.31
551.599	7727.79
551.962	7714.01
552.326	7775.25
552.689	7803.27
553.053	7784.29
553.417	7690.28
553.78	7822.7
554.143	7776.38
554.507	7859.54
554.87	7832.2
555.234	7854.12
555.597	7824.51
555.96	7869.71
556.323	7930.72
556.686	7848.01
557.05	7946.32
557.413	7944.51
557.776	7969.59
558.139	7935.92
558.502	7965.07
558.865	7970.04
559.228	7957.16
559.59	8049.82
559.953	8095.92
560.316	8179.98
560.679	8115.8
561.041	8173.88
561.404	8226.54
561.767	8279.42
562.129	8204.61
562.492	8297.27
562.854	8257.27
563.217	8311.05
563.579	8278.29
563.941	8378.85
564.304	8365.97
564.666	8429.92
565.028	8460.43
565.39	8459.07
565.753	8462.46
566.115	8539.75
566.477	8486.64
566.839	8520.76
567.201	8537.94
567.563	8616.36
567.925	8662.91
568.287	8646.86
568.648	8747.65
569.01	8763.24
569.372	8819.51
569.734	8786.52
570.095	8873.3
570.457	8863.13
570.819	8850.7
571.18	8922.79
571.542	8923.92
571.903	8934.31
572.265	8932.73
572.626	8994.65
572.987	9024.48
573.349	9093.4
573.71	9015.21
574.071	9125.27
574.432	9105.61
574.794	9231.71
575.155	9185.15
575.516	9162.56
575.877	9223.8
576.238	9230.35
576.599	9285.26
576.96	9270.58
577.32	9354.19
577.681	9426.05
578.042	9424.02
578.403	9447.07
578.763	9440.06
579.124	9481.87
579.485	9452.04
579.845	9554.41
580.206	9570.68
580.566	9584.92
580.927	9623.33
581.287	9730.45
581.648	9640.51
582.008	9729.77
582.368	9699.94
582.728	9772.71
583.089	9762.54
583.449	9807.96
583.809	9797.79
584.169	9806.61
584.529	9861.52
584.889	9908.52
585.249	9921.41
585.609	9922.99
585.969	9992.14
586.329	10023.78
586.688	9967.05
587.048	10030.33
587.408	10073.27
587.768	10099.93
588.127	10075.75
588.487	10140.16
588.846	10221.74
589.206	10165.24
589.565	10253.15
589.925	10300.38
590.284	10261.51
590.643	10308.97
591.003	10362.3
591.362	10349.87
591.721	10424.22
592.08	10341.96
592.44	10427.83
592.799	10435.29
593.158	10465.12
593.517	10440.26
593.876	10508.06
594.235	10483.42
594.593	10541.73
594.952	10579.24
595.311	10584.21
595.67	10509.41
596.029	10687.26
596.387	10657.66
596.746	10680.03
597.104	10717.32
597.463	10655.4
597.822	10750.76
598.18	10749.86
598.538	10695.85
598.897	10727.26
599.255	10701.72
599.613	10894.04
599.972	10870.08
600.33	10788.95
600.688	10791.21
601.046	10912.79
601.404	10904.66
601.762	10791.89
602.12	10913.7
602.478	10984.65
602.836	10995.5
603.194	10905.79
603.552	10973.81
603.91	10900.36
604.268	10974.26
604.625	10882.06
604.983	10998.21
605.341	11019.23
605.698	11020.81
606.056	11024.65
606.413	10996.86
606.771	11013.35
607.128	11001.83
607.485	11028.5
607.843	10971.77
608.2	11101.94
608.557	11086.8
608.914	11129.74
609.272	11124.09
609.629	11157.31
609.986	11187.81
610.343	11083.86
610.7	11278.43
611.057	11176.74
611.414	11240.24
611.771	11230.98
612.127	11371.09
612.484	11206.8
612.841	11238.21
613.198	11207.93
613.554	11282.27
613.911	11372.89
614.267	11388.26
614.624	11327.7
614.98	11344.42
615.337	11338.77
615.693	11395.72
616.05	11364.76
616.406	11440.91
616.762	11379.22
617.118	11322.05
617.475	11397.98
617.831	11444.76
618.187	11440.91
618.543	11420.12
618.899	11509.84
619.255	11451.76
619.611	11458.54
619.967	11466.68
620.323	11542.61
620.678	11493.79
621.034	11458.99
621.39	11397.98
621.746	11425.55
622.101	11578.76
622.457	11506.67
622.812	11500.57
623.168	11533.34
623.523	11546.9
623.879	11555.71
624.234	11519.1
624.589	11482.72
624.945	11515.26
625.3	11576.05
625.655	11496.51
626.01	11497.41
626.365	11493.79
626.72	11491.53
627.075	11537.63
627.43	11558.88
627.785	11495.38
628.14	11550.29
628.495	11528.6
628.85	11526.34
629.205	11483.85
629.559	11575.15
629.914	11488.37
630.269	11393.68
630.623	11426.45
630.978	11438.88
631.332	11532.21
631.687	11438.2
632.041	11444.76
632.396	11471.65
632.75	11356.62
633.104	11421.48
633.459	11369.28
633.813	11319.56
634.167	11346.91
634.521	11282.73
634.875	11322.05
635.229	11258.32
635.583	11292.44
635.937	11321.14
636.291	11232.56
636.645	11253.57
636.999	11207.25
637.352	11253.35
637.706	11181.03
638.06	11183.07
638.413	11207.7
638.767	11180.81
639.121	11210.19
639.474	11158.89
639.828	11119.11
640.181	11235.72
640.534	11222.39
640.888	11105.78
641.241	11141.49
641.594	11049.06
641.947	11085.67
642.301	11102.62
642.654	11127.48
643.007	11147.59
643.36	11043.41
643.713	11046.8
644.066	10980.36
644.419	11036.86
644.771	10893.58
645.124	10870.08
645.477	10812.91
645.83	10803.87
646.182	10612.91
646.535	10657.43
646.888	10727.71
647.24	10631.9
647.593	10693.59
647.945	10685
648.298	10627.15
648.65	10636.19
649.002	10591.9
649.355	10632.57
649.707	10651.1
650.059	10660.82
650.411	10812
650.763	10860.14
651.115	10943.3
651.467	10864.88
651.819	10859.69
652.171	10893.81
652.523	10837.99
652.875	10921.15
653.227	10780.37
653.578	10887.93
653.93	10767.03
654.282	10835.28
654.633	10764.1
654.985	10783.76
655.337	10815.85
655.688	10775.39
656.039	10845.9
656.391	10735.85
656.742	10815.85
657.094	10790.54
657.445	10889.52
657.796	10830.08
658.147	10833.02
658.498	10779.46
658.849	10875.51
659.2	10814.04
659.551	10805
659.902	10854.94
660.253	10827.37
660.604	10844.77
660.955	10787.82
661.306	10884.32
661.656	10750.31
662.007	10819.69
662.358	10881.38
662.708	10792.8
663.059	10866.92
663.409	10826.24
663.76	10842.74
664.11	10802.74
664.461	10832.79
664.811	10838.67
665.161	10788.73
665.511	10777.2
665.862	10798.22
666.212	10824.21
666.562	10797.99
666.912	10859.23
667.262	10865.34
667.612	10761.84
667.962	10849.07
668.312	10851.1
668.662	10932.23
669.011	10818.56
669.361	10780.59
669.711	10805.68
670.06	10819.69
670.41	10795.96
670.76	10783.98
671.109	10830.76
671.459	10794.38
671.808	10760.71
672.157	10857.2
672.507	10748.05
672.856	10681.16
673.205	10750.76
673.554	10689.07
673.904	10729.75
674.253	10689.3
674.602	10682.52
674.951	10555.51
675.3	10506.7
675.649	10688.62
675.998	10649.75
676.346	10701.05
676.695	10736.53
677.044	10624.66
677.393	10586.7
677.741	10652.01
678.09	10649.52
678.438	10608.39
678.787	10567.94
679.135	10591.9
679.484	10467.61
679.832	10521.84
680.181	10527.72
680.529	10535.17
680.877	10494.72
681.225	10447.72
681.573	10529.98
681.922	10439.81
682.27	10332.47
682.618	10416.08
682.966	10312.36
683.314	10413.37
683.661	10337.44
684.009	10287.5
684.357	10312.81
684.705	10258.35
685.053	10312.36
685.4	10277.1
685.748	10132.02
686.095	10188.52
686.443	10216.99
686.79	10116.88
687.138	10170.21
687.485	10172.25
687.832	10093.15
688.18	10118.69
688.527	10054.74
688.874	10040.27
689.221	9993.49
689.568	9973.16
689.915	10014.06
690.262	9885.7
690.609	9917.79
690.956	9870.79
691.303	9834.18
691.65	9788.98
691.997	9766.61
692.344	9670.56
692.69	9721.64
693.037	9759.6
693.383	9681.19
693.73	9732.03
694.077	9509.67
694.423	9526.16
694.769	9528.42
695.116	9558.03
695.462	9480.06
695.808	9470.8
696.155	9505.6
696.501	9366.84
696.847	9396.67
697.193	9285.72
697.539	9351.48
697.885	9242.33
698.231	9276.23
698.577	9259.28
698.923	9208.2
699.269	9182.44
699.614	9115.33
699.96	9091.6
700.306	9066.74
700.651	9094.53
700.997	9083.69
701.342	9035.55
701.688	8958.27
702.033	8925.27
702.379	8957.59
702.724	8869.23
703.069	8906.29
703.415	8805.28
703.76	8868.33
704.105	8730.7
704.45	8730.48
704.795	8707.65
705.14	8648.22
705.485	8693.64
705.83	8666.3
706.175	8656.81
706.52	8540.43
706.865	8562.57
707.209	8599.18
707.554	8512.63
707.899	8514.89
708.243	8459.75
708.588	8436.93
708.932	8421.78
709.277	8393.99
709.621	8400.77
709.966	8351.5
710.31	8351.73
710.654	8270.83
710.998	8316.93
711.342	8307.89
711.687	8239.42
712.031	8274.67
712.375	8140.44
712.719	8183.37
713.063	8228.57
713.407	8203.71
713.75	8142.47
714.094	8144.28
714.438	8090.27
714.782	8126.42
715.125	8070.38
715.469	8095.69
715.812	8055.92
716.156	8043.26
716.499	8048.91
716.843	8055.92
717.186	7967.56
717.53	8012.08
717.873	8012.98
718.216	7964.62
718.559	7970.04
718.902	7929.59
719.246	7905.41
719.589	7880.56
719.932	7831.74
720.275	7878.97
720.617	7861.35
720.96	7838.75
721.303	7841.23
721.646	7837.17
721.989	7805.76
722.331	7875.13
722.674	7868.8
723.016	7859.54
723.359	7838.75
723.701	7837.84
724.044	7794.68
724.386	7772.76
724.729	7758.98
725.071	7731.41
725.413	7813.89
725.755	7781.12
726.097	7700.45
726.439	7633.33
726.782	7740.22
727.124	7738.86
727.465	7710.62
727.807	7727.79
728.149	7747.68
728.491	7701.58
728.833	7703.84
729.175	7631.07
729.516	7674.23
729.858	7628.58
730.199	7709.49
730.541	7635.36
730.882	7633.78
731.224	7647.79
731.565	7597.17
731.906	7585.65
732.248	7642.82
732.589	7589.72
732.93	7579.77
733.271	7606.44
733.612	7567.34
733.953	7652.31
734.294	7668.58
734.635	7627.68
734.976	7629.94
735.317	7614.8
735.658	7620.68
735.999	7578.87
736.339	7575.7
736.68	7560.79
737.021	7589.49
737.361	7590.39
737.702	7664.52
738.042	7644.86
738.383	7636.95
738.723	7608.47
739.063	7627.91
739.404	7687.57
739.744	7655.7
740.084	7648.7
740.424	7685.53
740.764	7661.8
741.104	7657.74
741.444	7670.84
741.784	7669.04
742.124	7673.56
742.464	7731.86
742.804	7713.1
743.143	7751.75
743.483	7756.04
743.823	7715.14
744.162	7750.84
744.502	7758.98
744.841	7778.86
745.181	7817.73
745.52	7831.29
745.86	7880.33
746.199	7827
746.538	7951.97
746.877	7945.86
747.216	8026.54
747.556	8019.08
747.895	8056.37
748.234	8042.36
748.573	8094.11
748.911	8142.24
749.25	8197.16
749.589	8231.05
749.928	8259.98
750.267	8371.39
750.605	8432.18
750.944	8431.5
751.283	8518.73
751.621	8570.03
751.96	8649.8
752.298	8769.8
752.636	8851.6
752.975	8920.75
753.313	8969.79
753.651	9128.88
753.989	9132.73
754.327	9270.12
754.666	9315.09
755.004	9435.77
755.342	9555.99
755.679	9609.55
756.017	9696.78
756.355	9813.84
756.693	9913.5
757.031	10034.85
757.368	10212.25
757.706	10313.03
758.044	10452.92
758.381	10638.45
758.719	10663.53
759.056	10908.5
759.394	11029.17
759.731	11131.09
760.068	11206.8
760.405	11334.93
760.743	11557.75
761.08	11682.94
761.417	11807.01
761.754	11941.92
762.091	12145.08
762.428	12213.55
762.765	12348.23
763.102	12572.41
763.438	12719.3
763.775	12853.53
