Data from hue_180_FLMS001491_00074.txt Node
Date: Tue Feb 07 16:47:27 GMT 2017
User: dcchb
Spectrometer: FLMS00149
Trigger mode: 0
Integration Time (sec): 2.000000E-2
Scans to average: 10
Electric dark correction enabled: true
Nonlinearity correction enabled: false
Boxcar width: 0
XAxis mode: Wavelengths
Number of Pixels in Spectrum: 2048
>>>>>Begin Spectral Data<<<<<
341.393	-14.84
341.776	-14.84
342.16	-14.84
342.543	-71.79
342.927	-55.75
343.31	-63.66
343.693	-52.36
344.077	-56.43
344.46	-72.47
344.843	-37.22
345.226	-48.52
345.61	-39.7
345.993	-33.83
346.376	10.47
346.759	5.72
347.142	7.3
347.525	50.46
347.908	67.19
348.291	72.84
348.674	83.68
349.057	106.51
349.44	120.97
349.823	129.78
350.206	150.12
350.588	183.57
350.971	218.82
351.354	198.26
351.737	219.5
352.119	253.62
352.502	251.59
352.884	258.37
353.267	255.66
353.65	281.42
354.032	298.59
354.414	300.85
354.797	299.05
355.179	297.69
355.562	303.79
355.944	313.51
356.326	331.36
356.709	334.07
357.091	336.11
357.473	339.04
357.855	316.22
358.238	330.01
358.62	350.57
359.002	340.63
359.384	329.55
359.766	313.51
360.148	333.85
360.53	332.27
360.912	347.63
361.294	327.75
361.676	316.67
362.057	336.33
362.439	322.77
362.821	309.67
363.203	325.03
363.584	317.35
363.966	310.34
364.348	319.16
364.729	309.44
365.111	306.96
365.493	306.5
365.874	304.7
366.256	311.25
366.637	291.81
367.019	286.84
367.4	305.15
367.781	302.44
368.163	320.97
368.544	305.6
368.925	310.12
369.306	323
369.688	290.46
370.069	306.73
370.45	307.86
370.831	291.14
371.212	307.18
371.593	287.52
371.974	310.12
372.355	282.78
372.736	293.85
373.117	290.46
373.498	278.71
373.879	316.9
374.26	331.59
374.641	325.71
375.021	291.36
375.402	331.59
375.783	304.92
376.163	310.34
376.544	302.21
376.925	313.28
377.305	305.6
377.686	333.4
378.066	342.89
378.447	317.12
378.827	312.6
379.208	313.96
379.588	329.1
379.968	327.29
380.349	330.91
380.729	337.69
381.109	334.07
381.489	341.08
381.87	320.51
382.25	334.07
382.63	323.23
383.01	324.13
383.39	318.93
383.77	329.1
384.15	344.47
384.53	315.09
384.91	343.11
385.29	352.38
385.67	355.09
386.049	341.76
386.429	335.66
386.809	343.34
387.189	344.92
387.568	357.58
387.948	331.59
388.328	353.73
388.707	372.26
389.087	330.91
389.466	341.76
389.846	347.86
390.225	348.99
390.605	357.58
390.984	361.87
391.363	382.89
391.743	356.45
392.122	350.8
392.501	367.97
392.881	370.91
393.26	376.11
393.639	355.09
394.018	360.97
394.397	380.17
394.776	366.61
395.155	374.3
395.534	387.41
395.913	383.56
396.292	371.59
396.671	372.26
397.05	375.88
397.429	373.17
397.808	390.34
398.186	381.98
398.565	395.54
398.944	380.17
399.323	409.1
399.701	401.87
400.08	408.42
400.458	414.3
400.837	392.38
401.215	405.03
401.594	419.49
401.972	412.49
402.351	390.12
402.729	406.84
403.107	404.81
403.486	420.17
403.864	415.88
404.242	420.62
404.62	435.31
404.999	440.96
405.377	424.47
405.755	431.47
406.133	437.57
406.511	433.28
406.889	439.16
407.267	462.21
407.645	475.99
408.023	443.45
408.401	456.33
408.779	441.87
409.156	484.58
409.534	473.5
409.912	484.35
410.29	488.42
410.667	528.87
411.045	513.05
411.422	519.83
411.8	527.29
412.178	526.61
412.555	527.51
412.933	531.36
413.31	558.93
413.687	545.37
414.065	535.88
414.442	577
414.819	571.58
415.197	578.59
415.574	578.36
415.951	598.25
416.328	592.37
416.705	622.43
417.082	616.33
417.46	598.02
417.837	642.77
418.214	637.34
418.591	637.57
418.967	639.83
419.344	658.81
419.721	635.76
420.098	662.88
420.475	688.41
420.852	658.13
421.228	681.63
421.605	696.78
421.982	693.61
422.358	733.61
422.735	749.88
423.111	734.06
423.488	732.03
423.864	749.43
424.241	781.07
424.617	793.95
424.994	789.88
425.37	782.42
425.746	802.54
426.123	817.22
426.499	845.92
426.875	832.82
427.251	849.99
427.627	846.38
428.003	864.68
428.379	877.79
428.756	872.59
429.132	927.73
429.507	920.05
429.883	911.91
430.259	941.74
430.635	927.5
431.011	916.88
431.387	964.79
431.763	989.2
432.138	975.41
432.514	990.78
432.89	1002.08
433.265	1041.63
433.641	1053.6
434.016	1054.96
434.392	1085.47
434.767	1089.53
435.143	1111.45
435.518	1138.8
435.894	1135.86
436.269	1159.14
436.644	1170.89
437.02	1180.15
437.395	1214.28
437.77	1209.3
438.145	1232.58
438.52	1236.65
438.895	1289.3
439.271	1280.04
439.646	1309.41
440.021	1317.32
440.395	1326.82
440.77	1351.67
441.145	1354.84
441.52	1387.83
441.895	1359.58
442.27	1414.27
442.645	1416.53
443.019	1445.68
443.394	1449.52
443.769	1463.53
444.143	1485
444.518	1484.55
444.892	1497.43
445.267	1481.61
445.641	1546.24
446.016	1529.97
446.39	1544.44
446.764	1549.18
447.139	1586.47
447.513	1571.55
447.887	1608.16
448.262	1609.07
448.636	1641.38
449.01	1639.58
449.384	1642.97
449.758	1652.46
450.132	1683.42
450.506	1663.53
450.88	1714.6
451.254	1722.74
451.628	1755.96
452.002	1740.59
452.376	1744.66
452.75	1745.79
453.123	1783.53
453.497	1835.28
453.871	1839.34
454.244	1863.52
454.618	1867.59
454.992	1884.54
455.365	1949.85
455.739	1991.88
456.112	2010.19
456.486	2028.94
456.859	2003.86
457.232	2075.72
457.606	2088.6
457.979	2086.57
458.352	2138.32
458.725	2175.15
459.099	2143.52
459.472	2231.88
459.845	2226.23
460.218	2250.18
460.591	2305.77
460.964	2301.25
461.337	2350.29
461.71	2402.49
462.083	2413.11
462.456	2437.97
462.829	2447.24
463.201	2491.76
463.574	2509.38
463.947	2553.68
464.32	2606.56
464.692	2625.54
465.065	2626.67
465.438	2703.28
465.81	2733.11
466.183	2778.3
466.555	2816.04
466.928	2841.8
467.3	2862.82
467.672	2903.05
468.045	2957.28
468.417	3002.93
468.789	3003.16
469.161	3097.84
469.534	3102.59
469.906	3195.47
470.278	3241.79
470.65	3276.37
471.022	3308.01
471.394	3388
471.766	3426.42
472.138	3484.5
472.51	3541.67
472.882	3618.05
473.253	3657.15
473.625	3757.26
473.997	3820.99
474.369	3827.09
474.74	3881.78
475.112	3997.03
475.484	4099.85
475.855	4120.41
476.227	4159.74
476.598	4333.97
476.97	4335.1
477.341	4453.29
477.713	4569.22
478.084	4604.92
478.455	4694.86
478.827	4801.07
479.198	4906.16
479.569	4938.47
479.94	5048.98
480.311	5176.21
480.682	5272.7
481.053	5382.53
481.424	5485.58
481.795	5555.18
482.166	5662.75
482.537	5751.33
482.908	5905.68
483.279	5967.6
483.65	6085.11
484.021	6232.68
484.391	6308.61
484.762	6394.03
485.133	6447.36
485.503	6574.59
485.874	6685.77
486.244	6771.87
486.615	6958.76
486.985	6994.24
487.356	7120.11
487.726	7277.17
488.097	7417.05
488.467	7476.71
488.837	7586.09
489.207	7693.88
489.578	7848.23
489.948	7884.61
490.318	8038.28
490.688	8110.59
491.058	8227.88
491.428	8365.27
491.798	8372.96
492.168	8613.4
492.538	8653.63
492.908	8725.49
493.278	8849.1
493.648	8934.3
494.017	8997.12
494.387	9085.93
494.757	9154.18
495.126	9306.27
495.496	9279.15
495.866	9414.74
496.235	9421.07
496.605	9622.87
496.974	9649.31
497.344	9759.14
497.713	9764.79
498.082	9856.31
498.452	9994.84
498.821	10018.56
499.19	9960.26
499.559	10096.75
499.928	10177.66
500.298	10215.85
500.667	10308.05
501.036	10256.98
501.405	10395.5
501.774	10340.59
502.143	10436.41
502.512	10473.02
502.88	10570.41
503.249	10563.86
503.618	10612.45
503.987	10639.11
504.356	10773.57
504.724	10753.91
505.093	10827.36
505.462	10909.16
505.83	10915.94
506.199	11005.43
506.567	11120.46
506.936	10999.33
507.304	11172.66
507.672	11167.46
508.041	11279.77
508.409	11227.57
508.777	11369.94
509.145	11338.76
509.514	11357.29
509.882	11340.34
510.25	11385.53
510.618	11421.01
510.986	11352.77
511.354	11577.62
511.722	11470.28
512.09	11678.41
512.458	11605.64
512.826	11631.86
513.193	11641.57
513.561	11749.37
513.929	11732.87
514.297	11772.87
514.664	11820.1
515.032	11840.89
515.4	11896.71
515.767	11859.19
516.135	11875.24
516.502	11801.57
516.869	11963.6
517.237	12052.86
517.604	11896.71
517.972	11972.41
518.339	12061.45
518.706	11964.05
519.073	12077.72
519.44	11974.9
519.808	12132.63
520.175	12049.25
520.542	12167.89
520.909	12166.76
521.276	12185.29
521.643	12251.5
522.009	12305.51
522.376	12287.43
522.743	12292.85
523.11	12337.83
523.477	12440.42
523.843	12396.81
524.21	12505.05
524.577	12503.47
524.943	12476.13
525.31	12475.67
525.676	12533.3
526.043	12550.48
526.409	12483.81
526.776	12609.91
527.142	12536.69
527.508	12515.67
527.874	12591.83
528.241	12609
528.607	12622.11
528.973	12615.11
529.339	12551.15
529.705	12601.32
530.071	12585.95
530.437	12596.8
530.803	12572.17
531.169	12623.24
531.535	12532.4
531.901	12532.17
532.267	12456.69
532.632	12485.39
532.998	12448.33
533.364	12463.92
533.73	12439.52
534.095	12500.76
534.461	12477.93
534.826	12439.29
535.192	12431.16
535.557	12405.39
535.923	12322.46
536.288	12304.83
536.653	12299.63
537.019	12285.17
537.384	12181.45
537.749	12112.75
538.114	12188.9
538.479	12060.32
538.845	12051.96
539.21	11946.2
539.575	11994.11
539.94	11935.35
540.305	11967.89
540.67	11954.11
541.034	11873.43
541.399	11834.79
541.764	11815.58
542.129	11724.51
542.494	11649.48
542.858	11696.71
543.223	11701.46
543.587	11628.92
543.952	11501.01
544.316	11508.69
544.681	11501.69
545.045	11392.09
545.41	11390.51
545.774	11330.62
546.138	11371.52
546.503	11323.16
546.867	11157.97
547.231	11243.16
547.595	11209.49
547.959	11159.1
548.324	11084.98
548.688	11048.14
549.052	10954.81
549.416	10960.91
549.779	10901.25
550.143	10864.19
550.507	10858.09
550.871	10912.78
551.235	10780.8
551.599	10811.76
551.962	10637.53
552.326	10722.73
552.689	10701.03
553.053	10578.78
553.417	10564.54
553.78	10662.62
554.143	10482.28
554.507	10480.7
554.87	10516.86
555.234	10460.81
555.597	10372.45
555.96	10437.54
556.323	10435.05
556.686	10407.93
557.05	10382.62
557.413	10305.56
557.776	10299.46
558.139	10282.51
558.502	10230.08
558.865	10256.3
559.228	10317.77
559.59	10177.66
559.953	10202.29
560.316	10329.06
560.679	10163.87
561.041	10170.2
561.404	10210.88
561.767	10152.12
562.129	10120.71
562.492	10233.7
562.854	10122.97
563.217	10147.83
563.579	10158.67
563.941	10164.55
564.304	10175.17
564.666	10187.6
565.028	10171.33
565.39	10125.23
565.753	10200.93
566.115	10223.3
566.477	10191.89
566.839	10138.79
567.201	10213.59
567.563	10209.52
567.925	10173.14
568.287	10181.95
568.648	10213.36
569.01	10186.02
569.372	10202.97
569.734	10148.96
570.095	10174.49
570.457	10247.71
570.819	10205.23
571.18	10148.05
571.542	10214.94
571.903	10265.11
572.265	10175.85
572.626	10231.21
572.987	10171.55
573.349	10231.44
573.71	10186.7
574.071	10224.43
574.432	10206.58
574.794	10273.92
575.155	10287.48
575.516	10240.71
575.877	10214.94
576.238	10225.79
576.599	10203.42
576.96	10221.95
577.32	10231.89
577.681	10220.59
578.042	10240.48
578.403	10219.01
578.763	10261.72
579.124	10204.77
579.485	10229.18
579.845	10240.48
580.206	10203.42
580.566	10185.57
580.927	10229.41
581.287	10210.88
581.648	10230.08
582.008	10204.55
582.368	10146.24
582.728	10190.99
583.089	10164.1
583.449	10211.55
583.809	10132.01
584.169	10183.98
584.529	10061.05
584.889	10157.77
585.249	10082.29
585.609	10093.36
585.969	10082.97
586.329	10094.49
586.688	10074.38
587.048	10056.3
587.408	10025.8
587.768	10077.09
588.127	10042.74
588.487	9972.92
588.846	10079.58
589.206	9917.78
589.565	10003.65
589.925	10069.86
590.284	9966.36
590.643	10015.4
591.003	10018.56
591.362	10019.92
591.721	9949.41
592.08	9877.33
592.44	9949.19
592.799	9945.57
593.158	9943.76
593.517	9937.66
593.876	9982.86
594.235	9938.79
594.593	9884.56
594.952	9865.12
595.311	9777.89
595.67	9871
596.029	9831.68
596.387	9905.35
596.746	9940.37
597.104	9761.85
597.463	9811.34
597.822	9900.6
598.18	9865.35
598.538	9813.15
598.897	9848.17
599.255	9821.51
599.613	9844.33
599.972	9803.88
600.33	9815.18
600.688	9793.03
601.046	9818.12
601.404	9822.41
601.762	9802.98
602.12	9912.58
602.478	9845.46
602.836	9741.51
603.194	9817.21
603.552	9788.74
603.91	9719.59
604.268	9776.54
604.625	9840.94
604.983	9816.08
605.341	9746.26
605.698	9730.89
606.056	9801.85
606.413	9758.46
606.771	9779.25
607.128	9798.68
607.485	9725.01
607.843	9814.05
608.2	9820.83
608.557	9834.61
608.914	9838.68
609.272	9767.5
609.629	9814.5
609.986	9926.14
610.343	9802.3
610.7	9894.05
611.057	9834.39
611.414	9832.81
611.771	9883.43
612.127	9871.45
612.484	9893.37
612.841	9948.96
613.198	9808.17
613.554	9860.38
613.911	9894.73
614.267	9925.69
614.624	9908.51
614.98	9910.32
615.337	9975.85
615.693	9955.06
616.05	9950.09
616.406	9971.56
616.762	9979.24
617.118	9918
617.475	9898.79
617.831	10000.49
618.187	10020.6
618.543	9953.71
618.899	9990.32
619.255	10000.49
619.611	10063.76
619.967	10008.4
620.323	10055.4
620.678	10006.14
621.034	9950.09
621.39	10001.62
621.746	9981.28
622.101	10054.04
622.457	9954.84
622.812	10078.68
623.168	10063.08
623.523	9989.86
623.879	10004.33
624.234	9927.27
624.589	9901.96
624.945	9965.01
625.3	9881.39
625.655	10010.65
626.01	9939.24
626.365	9905.57
626.72	9940.37
627.075	9887.49
627.43	9973.82
627.785	9964.55
628.14	9914.61
628.495	9935.4
628.85	9941.05
629.205	9911.67
629.559	9913.93
629.914	9924.33
630.269	9854.95
630.623	9893.37
630.978	9933.82
631.332	9903.31
631.687	9865.8
632.041	9863.99
632.396	9868.96
632.75	9800.94
633.104	9854.95
633.459	9798.01
633.813	9788.74
634.167	9820.15
634.521	9763.66
634.875	9840.49
635.229	9763.88
635.583	9764.56
635.937	9728.63
636.291	9682.98
636.645	9688.86
636.999	9669.65
637.352	9682.75
637.706	9643.66
638.06	9644.79
638.413	9619.93
638.767	9617.44
639.121	9615.19
639.474	9591.23
639.828	9611.34
640.181	9557.33
640.534	9612.25
640.888	9565.47
641.241	9493.15
641.594	9577.22
641.947	9608.86
642.301	9543.77
642.654	9558.01
643.007	9556.66
643.36	9492.25
643.713	9507.39
644.066	9532.48
644.419	9516.43
644.771	9456.77
645.124	9358.24
645.477	9354.4
645.83	9299.26
646.182	9268.08
646.535	9250.45
646.888	9194.63
647.24	9145.82
647.593	9265.59
647.945	9187.63
648.298	9142.2
648.65	9123.22
649.002	9091.36
649.355	9181.07
649.707	9153.28
650.059	9223.78
650.411	9360.95
650.763	9365.02
651.115	9399.15
651.467	9380.16
651.819	9383.55
652.171	9375.87
652.523	9359.37
652.875	9363.21
653.227	9318.47
653.578	9362.76
653.93	9357.34
654.282	9322.31
654.633	9390.33
654.985	9381.29
655.337	9408.41
655.688	9426.04
656.039	9392.82
656.391	9344.91
656.742	9415.42
657.094	9370.67
657.445	9424.68
657.796	9357.56
658.147	9414.96
658.498	9365.47
658.849	9435.3
659.2	9321.18
659.551	9396.43
659.902	9477.11
660.253	9407.73
660.604	9438.92
660.955	9425.81
661.306	9423.78
661.656	9407.28
662.007	9384
662.358	9442.99
662.708	9501.29
663.059	9428.3
663.409	9410.9
663.76	9467.17
664.11	9440.05
664.461	9401.18
664.811	9480.05
665.161	9464.91
665.511	9482.31
665.862	9436.66
666.212	9470.1
666.562	9475.98
666.912	9483.89
667.262	9498.8
667.612	9398.47
667.962	9426.04
668.312	9520.27
668.662	9510.56
669.011	9459.48
669.361	9381.52
669.711	9417
670.06	9460.84
670.41	9393.27
670.76	9380.61
671.109	9464.23
671.459	9404.8
671.808	9378.36
672.157	9454.06
672.507	9389.43
672.856	9335.42
673.205	9372.25
673.554	9417.22
673.904	9431.46
674.253	9396.89
674.602	9360.95
674.951	9214.07
675.3	9195.54
675.649	9387.85
675.998	9280.96
676.346	9263.56
676.695	9346.72
677.044	9275.31
677.393	9255.87
677.741	9280.73
678.09	9220.62
678.438	9288.64
678.787	9213.16
679.135	9249.32
679.484	9195.76
679.832	9255.65
680.181	9195.76
680.529	9168.64
680.877	9165.03
681.225	9197.34
681.573	9201.86
681.922	9120.51
682.27	9094.29
682.618	9067.4
682.966	9008.87
683.314	9104.24
683.661	8999.61
684.009	8997.57
684.357	8976.56
684.705	8896.33
685.053	8916.45
685.4	8967.07
685.748	8868.99
686.095	8808.2
686.443	8852.49
686.79	8840.74
687.138	8844.81
687.485	8810.23
687.832	8725.49
688.18	8768.2
688.527	8712.84
688.874	8725.04
689.221	8688.43
689.568	8680.75
689.915	8573.86
690.262	8600.75
690.609	8604.14
690.956	8539.96
691.303	8543.57
691.65	8524.14
691.997	8508.1
692.344	8462.45
692.69	8459.28
693.037	8452.28
693.383	8311.49
693.73	8363.01
694.077	8315.56
694.423	8238.72
694.769	8313.98
695.116	8251.38
695.462	8204.15
695.808	8178.16
696.155	8127.99
696.501	8092.97
696.847	8151.95
697.193	8026.53
697.539	8085.06
697.885	7987.21
698.231	7897.49
698.577	7961.9
698.923	7867.66
699.269	7861.56
699.614	7870.37
699.96	7832.41
700.306	7758.28
700.651	7765.06
700.997	7699.3
701.342	7730.04
701.688	7710.38
702.033	7671.28
702.379	7592.41
702.724	7688.46
703.069	7605.52
703.415	7548.12
703.76	7528.91
704.105	7493.21
704.45	7495.47
704.795	7450.5
705.14	7401.68
705.485	7409.82
705.83	7321.23
706.175	7334.34
706.52	7360.56
706.865	7305.42
707.209	7285.98
707.554	7201.69
707.899	7292.76
708.243	7187.23
708.588	7250.28
708.932	7162.14
709.277	7135.25
709.621	7138.41
709.966	7086.66
710.31	7086.21
710.654	7034.24
710.998	7057.06
711.342	7015.93
711.687	6965.99
712.031	6944.75
712.375	6992.66
712.719	6998.53
713.063	7006.21
713.407	6934.58
713.75	6963.96
714.094	6915.14
714.438	6908.82
714.782	6855.48
715.125	6853.9
715.469	6873.11
715.812	6830.4
716.156	6814.58
716.499	6766.45
716.843	6803.06
717.186	6756.28
717.53	6823.85
717.873	6757.18
718.216	6758.09
718.559	6733.68
718.902	6700.23
719.246	6658.88
719.589	6700.69
719.932	6622.04
720.275	6667.92
720.617	6671.53
720.96	6691.19
721.303	6647.35
721.646	6719.22
721.989	6638.54
722.331	6704.08
722.674	6643.29
723.016	6610.97
723.359	6638.77
723.701	6620.46
724.044	6610.52
724.386	6560.12
724.729	6637.18
725.071	6596.06
725.413	6551.54
725.755	6570.29
726.097	6521.71
726.439	6569.84
726.782	6562.84
727.124	6582.04
727.465	6572.1
727.807	6565.32
728.149	6509.05
728.491	6501.14
728.833	6539.79
729.175	6483.29
729.516	6521.71
729.858	6504.53
730.199	6540.92
730.541	6532.33
730.882	6489.17
731.224	6520.8
731.565	6492.56
731.906	6474.93
732.248	6561.25
732.589	6538.66
732.93	6482.16
733.271	6477.19
733.612	6511.76
733.953	6532.1
734.294	6433.57
734.635	6486.91
734.976	6512.89
735.317	6528.49
735.658	6537.07
735.999	6516.06
736.339	6553.8
736.68	6557.64
737.021	6510.86
737.361	6510.18
737.702	6558.77
738.042	6529.39
738.383	6538.66
738.723	6583.63
739.063	6572.55
739.404	6658.65
739.744	6631.08
740.084	6593.8
740.424	6649.84
740.764	6588.37
741.104	6622.95
741.444	6649.16
741.784	6591.31
742.124	6677.41
742.464	6709.72
742.804	6698.2
743.143	6724.87
743.483	6733.45
743.823	6772.32
744.162	6768.03
744.502	6811.87
744.841	6857.97
745.181	6867.91
745.52	6887.12
745.86	6921.02
746.199	7012.77
746.538	6990.4
746.877	7036.5
747.216	7196.72
747.556	7136.15
747.895	7191.07
748.234	7225.87
748.573	7269.26
748.911	7316.26
749.25	7367.79
749.589	7418.41
749.928	7493.66
750.267	7602.81
750.605	7645.97
750.944	7761
751.283	7755.35
751.621	7887.55
751.96	7876.25
752.298	8021.33
752.636	8100.2
752.975	8214.77
753.313	8305.61
753.651	8468.32
753.989	8487.76
754.327	8553.74
754.666	8651.59
755.004	8810.91
755.342	8917.8
755.679	9107.4
756.017	9121.41
756.355	9364.8
756.693	9459.26
757.031	9626.03
757.368	9678.23
757.706	9924.33
758.044	9929.53
758.381	10182.18
758.719	10281.61
759.056	10457.42
759.394	10597.76
759.731	10706.91
760.068	10900.8
760.405	11021.25
760.743	11192.54
761.08	11391.18
761.417	11494.91
761.754	11716.82
762.091	11858.97
762.428	11955.01
762.765	12064.61
763.102	12380.99
763.438	12498.27
763.775	12576.92
