Data from hue_240_FLMS001491_00012.txt Node
Date: Tue Feb 07 16:35:06 GMT 2017
User: dcchb
Spectrometer: FLMS00149
Trigger mode: 0
Integration Time (sec): 2.000000E-2
Scans to average: 10
Electric dark correction enabled: true
Nonlinearity correction enabled: false
Boxcar width: 0
XAxis mode: Wavelengths
Number of Pixels in Spectrum: 2048
>>>>>Begin Spectral Data<<<<<
341.393	-3.22
341.776	-3.22
342.16	-3.22
342.543	-64.46
342.927	-79.6
343.31	-66.27
343.693	-89.09
344.077	-66.95
344.46	-47.51
344.843	-61.52
345.226	-31.47
345.61	-29.89
345.993	-5.93
346.376	-13.62
346.759	30.45
347.142	6.72
347.525	37.68
347.908	69.32
348.291	57.8
348.674	102.77
349.057	107.51
349.44	113.61
349.823	145.7
350.206	178.7
350.588	187.28
350.971	208.07
351.354	213.27
351.737	235.42
352.119	233.84
352.502	248.98
352.884	277.68
353.267	274.74
353.65	304.79
354.032	289.2
354.414	295.98
354.797	303.89
355.179	317.45
355.562	324.45
355.944	327.39
356.326	306.83
356.709	320.84
357.091	351.57
357.473	358.58
357.855	347.73
358.238	327.17
358.62	321.07
359.002	352.48
359.384	332.59
359.766	333.27
360.148	325.58
360.53	325.81
360.912	346.15
361.294	344.12
361.676	320.61
362.057	321.07
362.439	333.27
362.821	337.56
363.203	330.33
363.584	300.73
363.966	309.54
364.348	330.78
364.729	327.84
365.111	328.07
365.493	301.18
365.874	314.74
366.256	339.6
366.637	314.06
367.019	296.43
367.4	301.18
367.781	310.44
368.163	304.12
368.544	324.23
368.925	311.35
369.306	322.87
369.688	311.35
370.069	299.82
370.45	302.99
370.831	315.87
371.212	307.96
371.593	317.45
371.974	313.61
372.355	319.03
372.736	301.4
373.117	314.96
373.498	322.65
373.879	311.12
374.26	325.36
374.641	312.03
375.021	308.86
375.402	314.29
375.783	327.62
376.163	342.53
376.544	317.22
376.925	318.13
377.305	319.94
377.686	324.23
378.066	328.3
378.447	334.62
378.827	320.84
379.208	326.71
379.588	334.4
379.968	314.51
380.349	313.16
380.729	340.05
381.109	342.76
381.489	352.48
381.87	324.45
382.25	335.08
382.63	360.61
383.01	346.38
383.39	327.17
383.77	340.95
384.15	360.84
384.53	363.1
384.91	345.47
385.29	342.08
385.67	338.92
386.049	341.86
386.429	335.98
386.809	343.21
387.189	357.22
387.568	373.04
387.948	359.03
388.328	348.41
388.707	360.16
389.087	349.54
389.466	367.17
389.846	380.95
390.225	365.36
390.605	371.46
390.984	394.96
391.363	371.69
391.743	372.59
392.122	368.97
392.501	372.82
392.881	365.81
393.26	373.27
393.639	375.75
394.018	376.66
394.397	378.69
394.776	398.35
395.155	381.18
395.534	382.31
395.913	375.53
396.292	401.74
396.671	399.26
397.05	398.8
397.429	395.87
397.808	384.34
398.186	414.4
398.565	396.77
398.944	387.96
399.323	409.42
399.701	406.71
400.08	421.85
400.458	397
400.837	419.14
401.215	427.95
401.594	393.83
401.972	429.54
402.351	420.72
402.729	425.7
403.107	405.36
403.486	436.09
403.864	425.7
404.242	443.1
404.62	445.36
404.999	458.91
405.377	417.33
405.755	451.01
406.133	448.75
406.511	448.52
406.889	454.62
407.267	441.06
407.645	479.48
408.023	469.99
408.401	480.83
408.779	463.43
409.156	497.78
409.534	495.98
409.912	476.77
410.29	490.33
410.667	502.53
411.045	492.81
411.422	520.38
411.8	518.35
412.178	512.92
412.555	533.04
412.933	528.97
413.31	516.77
413.687	544.11
414.065	542.98
414.442	563.77
414.819	552.7
415.197	574.39
415.574	564.45
415.951	581.4
416.328	584.33
416.705	602.87
417.082	612.13
417.46	603.54
417.837	589.98
418.214	618.46
418.591	594.96
418.967	640.6
419.344	648.29
419.721	636.08
420.098	643.54
420.475	675.41
420.852	663.43
421.228	683.54
421.605	651.45
421.982	693.48
422.358	695.97
422.735	724.9
423.111	716.31
423.488	726.48
423.864	751.34
424.241	739.59
424.617	763.31
424.994	742.52
425.37	775.52
425.746	783.43
426.123	789.75
426.499	784.1
426.875	802.63
427.251	795.4
427.627	802.63
428.003	792.69
428.379	827.27
428.756	843.76
429.132	848.06
429.507	877.89
429.883	858.68
430.259	895.97
430.635	875.63
431.011	908.62
431.387	895.97
431.763	931.67
432.138	919.92
432.514	923.54
432.89	951.56
433.265	974.61
433.641	992.69
434.016	1023.87
434.392	1022.52
434.767	1062.06
435.143	1017.54
435.518	1050.99
435.894	1068.84
436.269	1074.27
436.644	1075.85
437.02	1086.02
437.395	1126.92
437.77	1128.05
438.145	1160.14
438.52	1167.82
438.895	1171.44
439.271	1181.61
439.646	1229.29
440.021	1220.7
440.395	1229.29
440.77	1236.52
441.145	1241.94
441.52	1258.67
441.895	1293.47
442.27	1286.24
442.645	1262.74
443.019	1312.68
443.394	1334.15
443.769	1339.12
444.143	1325.56
444.518	1372.79
444.892	1335.95
445.267	1387.03
445.641	1387.7
446.016	1389.96
446.39	1386.12
446.764	1410.3
447.139	1397.87
447.513	1435.16
447.887	1432.22
448.262	1432.67
448.636	1459.11
449.01	1457.98
449.384	1449.85
449.758	1491.43
450.132	1518.55
450.506	1528.49
450.88	1524.42
451.254	1517.42
451.628	1519.45
452.002	1549.73
452.376	1572.56
452.75	1593.35
453.123	1606.68
453.497	1611.2
453.871	1607.58
454.244	1657.53
454.618	1683.52
454.992	1698.43
455.365	1677.87
455.739	1724.87
456.112	1732.55
456.486	1723.74
456.859	1752.67
457.232	1778.43
457.606	1805.55
457.979	1794.92
458.352	1838.54
458.725	1861.14
459.099	1867.47
459.472	1908.82
459.845	1894.58
460.218	1970.51
460.591	1924.86
460.964	1931.42
461.337	1990.4
461.71	2010.96
462.083	2053.9
462.456	2034.01
462.829	2045.99
463.201	2079.89
463.574	2095.71
463.947	2095.03
464.32	2190.39
464.692	2185.87
465.065	2202.15
465.438	2198.08
465.81	2270.17
466.183	2259.55
466.555	2309.04
466.928	2313.1
467.3	2309.71
467.672	2358.98
468.045	2413.44
468.417	2421.12
468.789	2440.78
469.161	2475.58
469.534	2513.32
469.906	2562.36
470.278	2548.13
470.65	2584.96
471.022	2614.34
471.394	2657.73
471.766	2672.64
472.138	2687.56
472.51	2735.92
472.882	2819.08
473.253	2808.01
473.625	2853.65
473.997	2880.55
474.369	2889.81
474.74	2959.19
475.112	2946.31
475.484	3016.81
475.855	3066.3
476.227	3118.51
476.598	3168.9
476.97	3179.97
477.341	3312.17
477.713	3273.08
478.084	3303.36
478.455	3383.58
478.827	3429.23
479.198	3495.9
479.569	3508.33
479.94	3574.99
480.311	3643.24
480.682	3693.86
481.053	3726.4
481.424	3807.98
481.795	3845.94
482.166	3913.06
482.537	3958.26
482.908	3974.3
483.279	4016.34
483.65	4057.24
484.021	4138.14
484.391	4215.88
484.762	4229.66
485.133	4257.68
485.503	4337.68
485.874	4424.91
486.244	4412.93
486.615	4488.87
486.985	4544.68
487.356	4588.75
487.726	4614.96
488.097	4735.86
488.467	4693.61
488.837	4796.88
489.207	4852.25
489.578	4908.06
489.948	4949.64
490.318	5006.37
490.688	5030.55
491.058	5087.27
491.428	5175.63
491.798	5211.11
492.168	5273.25
492.538	5327.49
492.908	5345.11
493.278	5386.69
493.648	5382.17
494.017	5467.82
494.387	5536.75
494.757	5522.74
495.126	5555.05
495.496	5642.28
495.866	5654.03
496.235	5685.22
496.605	5699.68
496.974	5705.33
497.344	5837.76
497.713	5804.31
498.082	5847.02
498.452	5895.38
498.821	5869.62
499.19	5956.62
499.559	5980.58
499.928	6064.19
500.298	6072.78
500.667	6104.19
501.036	6100.35
501.405	6166.11
501.774	6138.09
502.143	6197.97
502.512	6252.43
502.88	6266.9
503.249	6252.89
503.618	6293.79
503.987	6266.67
504.356	6343.28
504.724	6338.31
505.093	6360.68
505.462	6359.32
505.83	6396.84
506.199	6452.43
506.567	6561.8
506.936	6571.3
507.304	6569.49
507.672	6579.88
508.041	6588.47
508.409	6603.61
508.777	6652.2
509.145	6692.2
509.514	6691.52
509.882	6707.56
510.25	6717.51
510.618	6716.6
510.986	6784.4
511.354	6812.19
511.722	6839.31
512.09	6919.76
512.458	6859.88
512.826	6887.67
513.193	6919.08
513.561	6930.61
513.929	6960.89
514.297	7027.56
514.664	7014.9
515.032	7082.24
515.4	7062.36
515.767	7103.49
516.135	7170.38
516.502	7015.58
516.869	7148.68
517.237	7150.72
517.604	7035.46
517.972	7188.23
518.339	7199.75
518.706	7273.2
519.073	7188.46
519.44	7250.6
519.808	7298.51
520.175	7307.55
520.542	7330.6
520.909	7399.97
521.276	7312.52
521.643	7373.08
522.009	7481.78
522.376	7439.75
522.743	7438.62
523.11	7477.49
523.477	7569.91
523.843	7545.06
524.21	7568.11
524.577	7648.78
524.943	7644.49
525.31	7630.7
525.676	7660.31
526.043	7729.23
526.409	7773.52
526.776	7767.42
527.142	7788.89
527.508	7780.3
527.874	7830.25
528.241	7796.57
528.607	7769.23
528.973	7873.41
529.339	7837.03
529.705	7934.65
530.071	7889.45
530.437	7915.89
530.803	7933.29
531.169	7947.98
531.535	7880.87
531.901	7931.26
532.267	7964.71
532.632	7957.02
532.998	7976.68
533.364	7998.15
533.73	7980.52
534.095	8046.06
534.461	8037.7
534.826	8033.18
535.192	8009.22
535.557	8039.05
535.923	8004.25
536.288	8079.28
536.653	8052.84
537.019	8016.23
537.384	8077.7
537.749	8055.78
538.114	8069.56
538.479	8051.03
538.845	8063.01
539.21	8003.57
539.575	8019.39
539.94	8040.18
540.305	8046.74
540.67	8056
541.034	8019.85
541.399	8043.12
541.764	8053.07
542.129	8037.92
542.494	7938.49
542.858	8056.91
543.223	7975.55
543.587	8100.07
543.952	7983.46
544.316	8031.37
544.681	8036.12
545.045	8013.52
545.41	8053.74
545.774	8046.06
546.138	8035.89
546.503	7994.31
546.867	8025.04
547.231	8018.26
547.595	7994.76
547.959	7965.16
548.324	8003.57
548.688	8045.83
549.052	8032.27
549.416	8043.12
549.779	7947.98
550.143	7959.51
550.507	8037.02
550.871	7985.5
551.235	7990.24
551.599	8057.81
551.962	7987.76
552.326	8019.39
552.689	8086.74
553.053	7995.44
553.417	8082.22
553.78	8027.3
554.143	8043.8
554.507	8042.44
554.87	8070.01
555.234	8104.59
555.597	8042.67
555.96	8074.99
556.323	8035.21
556.686	8042.22
557.05	8133.29
557.413	8102.1
557.776	8103.46
558.139	8116.34
558.502	8132.84
558.865	8119.5
559.228	8198.15
559.59	8163.34
559.953	8177.36
560.316	8230.46
560.679	8220.74
561.041	8241.99
561.404	8301.65
561.767	8277.92
562.129	8194.08
562.492	8277.69
562.854	8349.33
563.217	8303.68
563.579	8307.75
563.941	8416.45
564.304	8321.76
564.666	8463.9
565.028	8388.42
565.39	8450.34
565.753	8456.9
566.115	8531.02
566.477	8487.86
566.839	8514.3
567.201	8615.31
567.563	8599.27
567.925	8570.57
568.287	8628.64
568.648	8589.1
569.01	8594.52
569.372	8659.38
569.734	8708.64
570.095	8714.74
570.457	8645.59
570.819	8716.1
571.18	8745.7
571.542	8762.42
571.903	8772.37
572.265	8823.67
572.626	8760.62
572.987	8874.74
573.349	8901.18
573.71	8917
574.071	8949.99
574.432	8909.09
574.794	8995.41
575.155	8978.46
575.516	8942.76
575.877	8967.17
576.238	8977.11
576.599	9133.04
576.96	9070.89
577.32	9095.75
577.681	9091
578.042	9159.02
578.403	9138.91
578.763	9167.39
579.124	9175.97
579.485	9183.2
579.845	9183.66
580.206	9173.26
580.566	9247.61
580.927	9213.03
581.287	9201.74
581.648	9214.16
582.008	9274.05
582.368	9262.3
582.728	9308.4
583.089	9235.41
583.449	9364.9
583.809	9316.53
584.169	9295.97
584.529	9332.58
584.889	9401.96
585.249	9381.62
585.609	9364.67
585.969	9395.4
586.329	9429.53
586.688	9354.73
587.048	9385.69
587.408	9436.98
587.768	9430.2
588.127	9473.14
588.487	9459.36
588.846	9459.58
589.206	9406.25
589.565	9438.34
589.925	9466.81
590.284	9423.88
590.643	9514.95
591.003	9455.74
591.362	9604.21
591.721	9489.41
592.08	9497.55
592.44	9605.79
592.799	9607.37
593.158	9544.78
593.517	9583.42
593.876	9534.83
594.235	9476.76
594.593	9591.56
594.952	9580.48
595.311	9542.97
595.67	9587.94
596.029	9653.25
596.387	9674.49
596.746	9686.47
597.104	9606.92
597.463	9635.62
597.822	9657.54
598.18	9664.32
598.538	9627.94
598.897	9752.68
599.255	9643.53
599.613	9739.12
599.972	9638.79
600.33	9711.1
600.688	9637.66
601.046	9713.36
601.404	9754.04
601.762	9723.3
602.12	9867.93
602.478	9759.23
602.836	9647.15
603.194	9718.78
603.552	9780.93
603.91	9768.27
604.268	9811.66
604.625	9733.92
604.983	9772.12
605.341	9766.47
605.698	9743.42
606.056	9751.55
606.413	9815.28
606.771	9873.36
607.128	9785.9
607.485	9707.71
607.843	9776.41
608.2	9893.69
608.557	9857.99
608.914	9848.27
609.272	9850.53
609.629	9931.21
609.986	10003.3
610.343	9858.44
610.7	9930.3
611.057	9977.53
611.414	9900.7
611.771	10010.08
612.127	9971.88
612.484	9944.99
612.841	10023.41
613.198	9921.49
613.554	9904.77
613.911	9966.46
614.267	10050.3
614.624	10034.71
614.98	10020.02
615.337	10118.55
615.693	10039.68
616.05	10013.92
616.406	10085.78
616.762	10023.63
617.118	10042.84
617.475	9985.67
617.831	10078.32
618.187	10086.68
618.543	10148.38
618.899	10124.42
619.255	10085.78
619.611	10085.78
619.967	10109.28
620.323	10154.7
620.678	10081.26
621.034	10062.28
621.39	10058.89
621.746	10083.75
622.101	10114.93
622.457	10102.5
622.812	10117.42
623.168	10070.64
623.523	10075.61
623.879	10197.42
624.234	10142.28
624.589	10149.51
624.945	10086.01
625.3	10121.94
625.655	10137.08
626.01	10143.41
626.365	10112.67
626.72	10099.11
627.075	10069.74
627.43	10074.48
627.785	10130.07
628.14	10113.35
628.495	10138.43
628.85	10069.74
629.205	10039
629.559	10111.99
629.914	10107.02
630.269	10093.01
630.623	10027.48
630.978	9963.07
631.332	10096.18
631.687	10059.79
632.041	9938.89
632.396	10023.41
632.75	9990.87
633.104	9987.93
633.459	9927.59
633.813	9929.63
634.167	9939.8
634.521	9882.17
634.875	9912.9
635.229	9854.83
635.583	9874.26
635.937	9866.58
636.291	9859.35
636.645	9874.26
636.999	9839.01
637.352	9871.1
637.706	9781.16
638.06	9787.03
638.413	9794.94
638.767	9745.45
639.121	9725.79
639.474	9748.16
639.828	9679.91
640.181	9787.71
640.534	9797.43
640.888	9730.54
641.241	9687.82
641.594	9698.45
641.947	9770.31
642.301	9692.12
642.654	9753.36
643.007	9699.58
643.36	9657.32
643.713	9627.04
644.066	9667.03
644.419	9638.11
644.771	9541.39
645.124	9502.07
645.477	9453.71
645.83	9396.76
646.182	9370.77
646.535	9330.32
646.888	9324.22
647.24	9287.16
647.593	9325.35
647.945	9379.58
648.298	9262.07
648.65	9329.42
649.002	9214.62
649.355	9343.43
649.707	9282.86
650.059	9332.81
650.411	9437.66
650.763	9415.97
651.115	9464.55
651.467	9462.07
651.819	9528.28
652.171	9448.06
652.523	9535.29
652.875	9475.85
653.227	9403.99
653.578	9474.5
653.93	9487.83
654.282	9377.78
654.633	9443.54
654.985	9453.25
655.337	9306.82
655.688	9411
656.039	9452.58
656.391	9344.33
656.742	9356.53
657.094	9323.09
657.445	9477.21
657.796	9369.41
658.147	9348.17
658.498	9368.96
658.849	9419.58
659.2	9401.28
659.551	9340.49
659.902	9399.24
660.253	9374.61
660.604	9433.82
660.955	9391.11
661.306	9379.81
661.656	9366.7
662.007	9379.58
662.358	9364.9
662.708	9418.23
663.059	9371.9
663.409	9358.34
663.76	9468.4
664.11	9432.46
664.461	9446.25
664.811	9449.41
665.161	9418
665.511	9382.52
665.862	9362.18
666.212	9426.36
666.562	9464.55
666.912	9405.12
667.262	9353.82
667.612	9380.94
667.962	9413.03
668.312	9406.02
668.662	9475.85
669.011	9344.1
669.361	9414.61
669.711	9433.14
670.06	9414.84
670.41	9344.78
670.76	9404.44
671.109	9358.12
671.459	9323.54
671.808	9332.58
672.157	9315.18
672.507	9207.84
672.856	9290.09
673.205	9239.93
673.554	9377.78
673.904	9274.95
674.253	9336.87
674.602	9300.94
674.951	9141.62
675.3	9128.29
675.649	9285.8
675.998	9270.43
676.346	9244.9
676.695	9254.62
677.044	9202.41
677.393	9234.73
677.741	9156.09
678.09	9191.79
678.438	9155.63
678.787	9207.16
679.135	9119.7
679.484	9067.73
679.832	9185.69
680.181	9147.27
680.529	9145.92
680.877	9081.96
681.225	9091.23
681.573	9128.97
681.922	9061.17
682.27	9043.32
682.618	8957.45
682.966	8963.1
683.314	8997.45
683.661	8904.12
684.009	8914.96
684.357	8879.26
684.705	8898.92
685.053	8924.68
685.4	8888.3
685.748	8838.36
686.095	8840.39
686.443	8860.28
686.79	8762.88
687.138	8789.09
687.485	8804.01
687.832	8764.91
688.18	8752.71
688.527	8677
688.874	8744.12
689.221	8680.17
689.568	8618.47
689.915	8596.78
690.262	8631.81
690.609	8591.81
690.956	8528.76
691.303	8554.75
691.65	8540.51
691.997	8428.42
692.344	8396.78
692.69	8483.11
693.037	8390.23
693.383	8383.45
693.73	8350.23
694.077	8299.84
694.423	8305.26
694.769	8279.73
695.116	8288.31
695.462	8262.1
695.808	8228.2
696.155	8207.19
696.501	8124.48
696.847	8110.69
697.193	8047.87
697.539	8120.86
697.885	8016.91
698.231	8063.01
698.577	8112.5
698.923	7993.63
699.269	7934.88
699.614	7893.07
699.96	7932.62
700.306	7915.22
700.651	7897.36
700.997	7835.44
701.342	7827.53
701.688	7768.33
702.033	7794.09
702.379	7756.58
702.724	7767.65
703.069	7735.11
703.415	7640.87
703.76	7716.12
704.105	7635.22
704.45	7682.45
704.795	7606.3
705.14	7493.08
705.485	7560.2
705.83	7506.41
706.175	7503.7
706.52	7519.07
706.865	7451.27
707.209	7497.83
707.554	7359.3
707.899	7393.42
708.243	7411.95
708.588	7346.19
708.932	7334.44
709.277	7279.53
709.621	7290.83
709.966	7275.68
710.31	7281.79
710.654	7221.22
710.998	7213.31
711.342	7198.85
711.687	7178.06
712.031	7157.72
712.375	7170.38
712.719	7171.05
713.063	7147.1
713.407	7173.09
713.75	7068.91
714.094	7123.37
714.438	7102.58
714.782	7026.2
715.125	7054.9
715.469	7089.47
715.812	6995.01
716.156	6958.4
716.499	6953.66
716.843	6943.94
717.186	6965.86
717.53	6943.04
717.873	6909.59
718.216	6932.64
718.559	6942.59
718.902	6861.01
719.246	6895.36
719.589	6875.69
719.932	6802.93
720.275	6770.16
720.617	6816.71
720.96	6862.59
721.303	6827.79
721.646	6873.21
721.989	6789.82
722.331	6770.61
722.674	6782.82
723.016	6805.19
723.359	6780.78
723.701	6743.04
724.044	6696.49
724.386	6723.38
724.729	6745.75
725.071	6744.4
725.413	6698.07
725.755	6709.15
726.097	6724.29
726.439	6709.6
726.782	6701.01
727.124	6728.35
727.465	6658.07
727.807	6629.37
728.149	6681.12
728.491	6641.12
728.833	6649.49
729.175	6581.92
729.516	6635.25
729.858	6630.5
730.199	6636.61
730.541	6624.4
730.882	6633.67
731.224	6683.61
731.565	6632.76
731.906	6628.47
732.248	6621.24
732.589	6627.57
732.93	6618.53
733.271	6624.4
733.612	6602.48
733.953	6619.66
734.294	6638.41
734.635	6608.58
734.976	6581.01
735.317	6579.88
735.658	6552.77
735.999	6574.91
736.339	6592.99
736.68	6600.22
737.021	6572.88
737.361	6576.04
737.702	6592.31
738.042	6607.68
738.383	6550.73
738.723	6609.04
739.063	6578.53
739.404	6572.65
739.744	6567.45
740.084	6592.99
740.424	6576.95
740.764	6646.55
741.104	6627.34
741.444	6592.99
741.784	6558.42
742.124	6642.71
742.464	6621.92
742.804	6598.87
743.143	6641.35
743.483	6640.9
743.823	6659.66
744.162	6639.77
744.502	6731.29
744.841	6664.85
745.181	6712.31
745.52	6756.38
745.86	6787.56
746.199	6770.84
746.538	6767
746.877	6831.18
747.216	6842.7
747.556	6814.23
747.895	6876.82
748.234	6940.33
748.573	6877.5
748.911	6937.39
749.25	7013.54
749.589	7027.56
749.928	7071.4
750.267	7099.19
750.605	7142.35
750.944	7192.07
751.283	7223.93
751.621	7295.34
751.96	7271.62
752.298	7360.88
752.636	7379.86
752.975	7420.99
753.313	7467.54
753.651	7558.84
753.989	7584.6
754.327	7719.74
754.666	7763.36
755.004	7812.39
755.342	7939.17
755.679	7979.85
756.017	8001.99
756.355	8143.91
756.693	8120.41
757.031	8269.1
757.368	8281.53
757.706	8423.9
758.044	8489.66
758.381	8579.6
758.719	8661.41
759.056	8714.52
759.394	8772.59
759.731	8829.09
760.068	8921.29
760.405	8975.75
760.743	9112.47
761.08	9283.32
761.417	9277.44
761.754	9378.23
762.091	9525.79
762.428	9531.44
762.765	9580.03
763.102	9751.55
763.438	9835.84
763.775	9822.51
764.112	10020.02
764.449	10035.84
764.785	10186.12
765.122	10209.17
765.458	10278.09
765.795	10390.86
766.131	10407.58
766.467	10492.55
766.804	10509.05
767.14	10623.39
767.476	10681.92
767.812	10717.63
768.148	10749.04
768.485	10901.8
