Data from hue_230_FLMS001491_00039.txt Node
Date: Tue Feb 07 16:37:09 GMT 2017
User: dcchb
Spectrometer: FLMS00149
Trigger mode: 0
Integration Time (sec): 2.000000E-2
Scans to average: 10
Electric dark correction enabled: true
Nonlinearity correction enabled: false
Boxcar width: 0
XAxis mode: Wavelengths
Number of Pixels in Spectrum: 2048
>>>>>Begin Spectral Data<<<<<
341.393	-7.26
341.776	-7.26
342.16	-7.26
342.543	-71.44
342.927	-56.52
343.31	-59.24
343.693	-59.91
344.077	-77.54
344.46	-58.56
344.843	-39.58
345.226	-52.68
345.61	-36.64
345.993	-13.36
346.376	-16.3
346.759	24.83
347.142	26.41
347.525	41.78
347.908	59.63
348.291	71.16
348.674	90.82
349.057	99.18
349.44	123.13
349.823	128.33
350.206	150.25
350.588	183.7
350.971	204.03
351.354	218.27
351.737	231.83
352.119	247.65
352.502	251.26
352.884	264.82
353.267	289
353.65	308.89
354.032	305.05
354.414	293.07
354.797	291.94
355.179	311.6
355.562	307.08
355.944	323.58
356.326	306.18
356.709	334.2
357.091	332.17
357.473	334.43
357.855	334.2
358.238	345.95
358.62	331.94
359.002	349.12
359.384	338.49
359.766	311.38
360.148	333.97
360.53	347.08
360.912	320.19
361.294	308.89
361.676	357.02
362.057	327.19
362.439	329.68
362.821	319.74
363.203	308.21
363.584	325.39
363.966	311.15
364.348	319.74
364.729	332.39
365.111	290.81
365.493	330.58
365.874	326.29
366.256	298.04
366.637	309.12
367.019	318.16
367.4	310.25
367.781	332.17
368.163	307.31
368.544	293.3
368.925	312.51
369.306	322.22
369.688	310.92
370.069	319.74
370.45	304.14
370.831	322
371.212	319.51
371.593	290.81
371.974	306.4
372.355	303.47
372.736	301.43
373.117	319.96
373.498	322.45
373.879	318.38
374.26	316.8
374.641	302.11
375.021	334.43
375.402	301.66
375.783	312.05
376.163	316.57
376.544	328.78
376.925	323.13
377.305	317.25
377.686	322.45
378.066	333.75
378.447	312.05
378.827	332.39
379.208	316.35
379.588	322.68
379.968	312.73
380.349	331.71
380.729	332.17
381.109	329.45
381.489	322.45
381.87	325.16
382.25	325.84
382.63	326.97
383.01	342.79
383.39	327.65
383.77	313.64
384.15	331.04
384.53	332.17
384.91	343.69
385.29	336.23
385.67	329.45
386.049	359.06
386.429	363.35
386.809	366.52
387.189	359.51
387.568	357.93
387.948	350.7
388.328	356.12
388.707	329.68
389.087	344.14
389.466	338.72
389.846	349.79
390.225	366.06
390.605	353.18
390.984	349.12
391.363	382.56
391.743	345.5
392.122	381.43
392.501	371.26
392.881	374.88
393.26	368.32
393.639	367.42
394.018	365.39
394.397	383.01
394.776	375.78
395.155	383.01
395.534	391.6
395.913	383.92
396.292	381.66
396.671	375.56
397.05	374.65
397.429	400.87
397.808	377.81
398.186	390.47
398.565	356.12
398.944	397.93
399.323	382.79
399.701	385.05
400.08	396.57
400.458	382.79
400.837	410.13
401.215	393.41
401.594	395.22
401.972	385.5
402.351	416.46
402.729	433.86
403.107	414.88
403.486	431.82
403.864	425.5
404.242	430.47
404.62	421.88
404.999	444.25
405.377	460.07
405.755	430.69
406.133	433.18
406.511	454.88
406.889	458.94
407.267	461.43
407.645	457.59
408.023	457.59
408.401	472.05
408.779	462.11
409.156	468.66
409.534	474.31
409.912	495.78
410.29	513.4
410.667	514.53
411.045	503.01
411.422	511.82
411.8	513.63
412.178	503.01
412.555	512.05
412.933	533.52
413.31	536.45
413.687	559.51
414.065	544.59
414.442	562.22
414.819	559.51
415.197	604.7
415.574	583.46
415.951	590.92
416.328	589.56
416.705	599.28
417.082	619.84
417.46	599.28
417.837	629.33
418.214	638.15
418.591	623.91
418.967	625.72
419.344	644.7
419.721	666.62
420.098	676.79
420.475	672.27
420.852	703.68
421.228	704.36
421.605	689.45
421.982	703.91
422.358	730.8
422.735	721.99
423.111	725.15
423.488	731.03
423.864	757.69
424.241	760.18
424.617	750.69
424.994	792.04
425.37	789.78
425.746	790.01
426.123	803.57
426.499	808.99
426.875	834.75
427.251	837.69
427.627	846.96
428.003	834.75
428.379	874.3
428.756	863
429.132	885.15
429.507	900.06
429.883	905.03
430.259	908.42
430.635	931.92
431.011	940.74
431.387	940.29
431.763	959.95
432.138	991.36
432.514	975.31
432.89	978.48
433.265	1020.28
433.641	1051.24
434.016	1050.11
434.392	1062.09
434.767	1080.17
435.143	1095.76
435.518	1107.29
435.894	1120.17
436.269	1140.05
436.644	1161.75
437.02	1190.9
437.395	1172.37
437.77	1186.16
438.145	1206.49
438.52	1207.62
438.895	1246.49
439.271	1266.61
439.646	1286.27
440.021	1307.28
440.395	1312.25
440.77	1306.6
441.145	1307.28
441.52	1361.52
441.895	1309.09
442.27	1385.25
442.645	1388.86
443.019	1406.26
443.394	1402.65
443.769	1409.88
444.143	1442.65
444.518	1447.84
444.892	1472.02
445.267	1444.45
445.641	1454.4
446.016	1492.59
446.39	1504.11
446.764	1515.64
447.139	1514.51
447.513	1521.97
447.887	1520.16
448.262	1533.04
448.636	1555.86
449.01	1555.41
449.384	1577.56
449.758	1580.72
450.132	1612.58
450.506	1632.92
450.88	1603.55
451.254	1625.92
451.628	1637.89
452.002	1675.86
452.376	1674.05
452.75	1686.48
453.123	1706.59
453.497	1733.49
453.871	1746.37
454.244	1778.46
454.618	1772.81
454.992	1802.41
455.365	1808.74
455.739	1848.06
456.112	1869.08
456.486	1858.68
456.859	1871.33
457.232	1913.82
457.606	1909.98
457.979	1929.64
458.352	1956.98
458.725	1962.41
459.099	1983.65
459.472	2010.31
459.845	2035.85
460.218	2089.18
460.591	2073.14
460.964	2060.03
461.337	2135.28
461.71	2159.01
462.083	2199.69
462.456	2180.48
462.829	2177.32
463.201	2212.57
463.574	2255.51
463.947	2246.69
464.32	2314.49
464.692	2328.5
465.065	2378.67
465.438	2347.71
465.81	2423.86
466.183	2424.99
466.555	2475.39
466.928	2473.81
467.3	2485.33
467.672	2542.5
468.045	2570.3
468.417	2582.95
468.789	2555.16
469.161	2608.26
469.534	2684.87
469.906	2692.1
470.278	2734.59
470.65	2786.11
471.022	2838.77
471.394	2855.04
471.766	2870.63
472.138	2901.14
472.51	2981.14
472.882	2966.22
473.253	3012.1
473.625	3040.8
473.997	3092.09
474.369	3156.5
474.74	3128.93
475.112	3215.25
475.484	3242.37
475.855	3290.28
476.227	3323.27
476.598	3395.81
476.97	3441.46
477.341	3455.93
477.713	3506.77
478.084	3541.8
478.455	3625.19
478.827	3646.66
479.198	3733.66
479.569	3737.73
479.94	3811.17
480.311	3874.45
480.682	3943.6
481.053	4021.56
481.424	4055.01
481.795	4113.08
482.166	4179.75
482.537	4230.82
482.908	4269.46
483.279	4259.29
483.65	4392.4
484.021	4421.32
484.391	4475.56
484.762	4459.06
485.133	4546.29
485.503	4592.85
485.874	4654.76
486.244	4659.06
486.615	4779.06
486.985	4811.6
487.356	4861.76
487.726	4970.91
488.097	5057.24
488.467	5118.48
488.837	5105.37
489.207	5155.54
489.578	5241.42
489.948	5313.5
490.318	5312.15
490.688	5376.33
491.058	5446.38
491.428	5507.85
491.798	5510.34
492.168	5634.4
492.538	5613.38
492.908	5691.57
493.278	5704.23
493.648	5749.43
494.017	5852.25
494.387	5841.63
494.757	5841.85
495.126	5884.79
495.496	5940.15
495.866	6029.64
496.235	6016.08
496.605	6078.68
496.974	6131.79
497.344	6111.9
497.713	6145.12
498.082	6217.66
498.452	6239.36
498.821	6272.35
499.19	6345.34
499.559	6341.27
499.928	6366.36
500.298	6381.95
500.667	6439.58
501.036	6447.94
501.405	6479.8
501.774	6497.65
502.143	6551.21
502.512	6542.85
502.88	6557.54
503.249	6582.62
503.618	6609.74
503.987	6631.66
504.356	6684.09
504.724	6688.61
505.093	6669.85
505.462	6678.44
505.83	6773.35
506.199	6778.78
506.567	6796.4
506.936	6847.7
507.304	6929.51
507.672	6929.96
508.041	6931.99
508.409	6933.35
508.777	6984.65
509.145	7010.86
509.514	7018.54
509.882	7023.97
510.25	7024.42
510.618	7013.12
510.986	7055.15
511.354	7092.21
511.722	7138.99
512.09	7242.49
512.458	7173.12
512.826	7204.3
513.193	7208.82
513.561	7192.1
513.929	7272.1
514.297	7338.76
514.664	7340.57
515.032	7294.7
515.4	7368.82
515.767	7350.74
516.135	7359.33
516.502	7301.47
516.869	7410.62
517.237	7461.92
517.604	7372.43
517.972	7420.57
518.339	7501.92
518.706	7412.43
519.073	7431.87
519.44	7450.85
519.808	7472.77
520.175	7446.1
520.542	7563.84
520.909	7549.6
521.276	7525.65
521.643	7602.71
522.009	7623.5
522.376	7674.35
522.743	7636.38
523.11	7763.16
523.477	7755.7
523.843	7764.29
524.21	7747.34
524.577	7760.45
524.943	7840.67
525.31	7835.92
525.676	7841.8
526.043	7853.55
526.409	7918.41
526.776	7861.46
527.142	7922.25
527.508	7894.23
527.874	7970.38
528.241	7960.44
528.607	7935.36
528.973	7999.08
529.339	7957.95
529.705	7987.78
530.071	7993.43
530.437	8059.19
530.803	8043.6
531.169	8050.16
531.535	7986.43
531.901	7973.77
532.267	7963.83
532.632	8009.7
532.998	8042.92
533.364	8061.45
533.73	8080.89
534.095	8072.53
534.461	8046.31
534.826	8054
535.192	8065.07
535.557	8048.12
535.923	8077.73
536.288	8044.51
536.653	8059.19
537.019	8026.43
537.384	8001.12
537.749	8007.67
538.114	7955.02
538.479	8036.14
538.845	8035.92
539.21	7959.08
539.575	7930.84
539.94	7968.12
540.305	7984.17
540.67	7954.11
541.034	7954.34
541.399	7915.02
541.764	7971.74
542.129	7974.9
542.494	7948.24
542.858	7913.44
543.223	7904.85
543.587	7881.57
543.952	7873.66
544.316	7875.47
544.681	7865.08
545.045	7859.2
545.41	7805.19
545.774	7867.56
546.138	7802.03
546.503	7829.37
546.867	7807.22
547.231	7828.24
547.595	7790.73
547.959	7783.5
548.324	7759.32
548.688	7734.91
549.052	7765.64
549.416	7771.74
549.779	7696.27
550.143	7745.3
550.507	7804.06
550.871	7675.48
551.235	7708.92
551.599	7725.87
551.962	7677.74
552.326	7681.8
552.689	7638.19
553.053	7657.4
553.417	7645.42
553.78	7697.4
554.143	7611.97
554.507	7691.52
554.87	7645.42
555.234	7692.2
555.597	7653.56
555.96	7615.59
556.323	7659.43
556.686	7662.6
557.05	7675.25
557.413	7646.32
557.776	7679.77
558.139	7674.12
558.502	7627.79
558.865	7653.33
559.228	7642.26
559.59	7683.16
559.953	7654.69
560.316	7667.34
560.679	7694.01
561.041	7724.29
561.404	7720.45
561.767	7716.15
562.129	7695.59
562.492	7773.55
562.854	7718.41
563.217	7736.27
563.579	7771.29
563.941	7804.74
564.304	7805.42
564.666	7852.65
565.028	7830.5
565.39	7854
565.753	7793.44
566.115	7872.76
566.477	7869.82
566.839	7945.53
567.201	7928.8
567.563	7909.82
567.925	7940.33
568.287	7939.2
568.648	7917.28
569.01	7996.37
569.372	8025.98
569.734	7951.18
570.095	8115.92
570.457	8039.99
570.819	8029.37
571.18	8133.77
571.542	8157.72
571.903	8062.36
572.265	8128.8
572.626	8175.8
572.987	8148.23
573.349	8173.77
573.71	8189.36
574.071	8227.1
574.432	8200.21
574.794	8197.27
575.155	8214.67
575.516	8184.16
575.877	8251.96
576.238	8286.53
576.599	8304.39
576.96	8270.26
577.32	8352.07
577.681	8337.61
578.042	8385.74
578.403	8361.11
578.763	8350.71
579.124	8437.26
579.485	8490.6
579.845	8431.61
580.206	8471.39
580.566	8456.92
580.927	8532.85
581.287	8539.86
581.648	8489.92
582.008	8560.65
582.368	8524.95
582.728	8596.81
583.089	8546.64
583.449	8599.07
583.809	8664.38
584.169	8658.05
584.529	8630.03
584.889	8663.25
585.249	8671.16
585.609	8671.83
585.969	8627.54
586.329	8676.58
586.688	8728.56
587.048	8666.64
587.408	8710.25
587.768	8694.66
588.127	8701.66
588.487	8703.92
588.846	8785.96
589.206	8714.32
589.565	8758.84
589.925	8811.49
590.284	8805.39
590.643	8803.81
591.003	8883.13
591.362	8881.32
591.721	8832.28
592.08	8854.88
592.44	8941.21
592.799	8881.09
593.158	8839.74
593.517	8903.69
593.876	8904.37
594.235	8875.44
594.593	8928.55
594.952	8911.38
595.311	8952.05
595.67	8890.36
596.029	8938.04
596.387	8976.23
596.746	8997.48
597.104	8894.88
597.463	8970.13
597.822	8917.7
598.18	8923.13
598.538	8976.46
598.897	8977.81
599.255	9001.09
599.613	9092.84
599.972	9023.92
600.33	9055.1
600.688	9056.23
601.046	9021.66
601.404	9095.55
601.762	9107.53
602.12	9084.25
602.478	9121.77
602.836	9072.28
603.194	9035.21
603.552	9091.71
603.91	9019.62
604.268	9107.98
604.625	9058.94
604.983	9075.44
605.341	9086.74
605.698	9155.44
606.056	9134.65
606.413	9102.33
606.771	9156.57
607.128	9172.61
607.485	9136.45
607.843	9125.83
608.2	9150.47
608.557	9204.02
608.914	9199.96
609.272	9269.33
609.629	9216.45
609.986	9303.68
610.343	9176.91
610.7	9300.29
611.057	9196.11
611.414	9231.37
611.771	9220.97
612.127	9290.8
612.484	9276.11
612.841	9324.47
613.198	9270.46
613.554	9235.89
613.911	9393.4
614.267	9325.83
614.624	9319.95
614.98	9358.14
615.337	9399.5
615.693	9322.89
616.05	9314.76
616.406	9443.34
616.762	9446.28
617.118	9412.83
617.475	9386.84
617.831	9378.26
618.187	9362.44
618.543	9393.62
618.899	9464.36
619.255	9461.87
619.611	9446.95
619.967	9471.81
620.323	9446.28
620.678	9432.27
621.034	9462.55
621.39	9476.11
621.746	9392.27
622.101	9505.26
622.457	9446.73
622.812	9484.69
623.168	9520.4
623.523	9508.87
623.879	9568.31
624.234	9485.6
624.589	9453.06
624.945	9517.69
625.3	9458.93
625.655	9480.85
626.01	9567.18
626.365	9443.57
626.72	9470.91
627.075	9421.87
627.43	9421.42
627.785	9417.58
628.14	9446.95
628.495	9431.14
628.85	9430.68
629.205	9383.91
629.559	9525.15
629.914	9372.38
630.269	9419.16
630.623	9404.02
630.978	9414.87
631.332	9413.51
631.687	9415.54
632.041	9401.08
632.396	9358.82
632.75	9319.73
633.104	9266.39
633.459	9325.83
633.813	9300.07
634.167	9267.75
634.521	9325.6
634.875	9339.39
635.229	9318.82
635.583	9229.33
635.937	9260.29
636.291	9228.2
636.645	9242.89
636.999	9225.04
637.352	9241.54
637.706	9190.46
638.06	9243.8
638.413	9163.35
638.767	9129
639.121	9129.22
639.474	9090.81
639.828	9162.22
640.181	9143.46
640.534	9092.39
640.888	9114.99
641.241	9109.56
641.594	9090.81
641.947	9109.56
642.301	9073.18
642.654	9053.52
643.007	9071.6
643.36	9136.68
643.713	9017.81
644.066	9148.66
644.419	9055.33
644.771	9012.84
645.124	8873.41
645.477	8952.28
645.83	8796.58
646.182	8819.85
646.535	8763.36
646.888	8776.24
647.24	8727.88
647.593	8825.95
647.945	8752.28
648.298	8712.06
648.65	8707.09
649.002	8741.21
649.355	8775.33
649.707	8737.14
650.059	8773.98
650.411	8897.36
650.763	8850.59
651.115	8933.07
651.467	8948.21
651.819	8943.47
652.171	8980.75
652.523	8939.17
652.875	8918.38
653.227	8913.41
653.578	8910.92
653.93	8897.36
654.282	8824.37
654.633	8864.15
654.985	8914.54
655.337	8879.74
655.688	8908.89
656.039	8889.91
656.391	8859.17
656.742	8926.29
657.094	8872.73
657.445	8919.06
657.796	8855.78
658.147	8896.24
658.498	8931.94
658.849	8890.36
659.2	8896.91
659.551	8858.5
659.902	8879.29
660.253	8846.07
660.604	8971.49
660.955	8916.57
661.306	8971.04
661.656	8884.71
662.007	8921.55
662.358	8968.32
662.708	8918.83
663.059	8932.17
663.409	8833.86
663.76	8940.3
664.11	8900.08
664.461	8943.47
664.811	8896.24
665.161	8917.25
665.511	8911.6
665.862	8935.56
666.212	8952.05
666.562	8915.9
666.912	8949.79
667.262	8900.08
667.612	8929.91
667.962	8961.09
668.312	8925.16
668.662	8999.51
669.011	8925.84
669.361	8811.72
669.711	8860.08
670.06	8891.72
670.41	8878.83
670.76	8926.74
671.109	8914.99
671.459	8886.97
671.808	8837.03
672.157	8881.55
672.507	8844.94
672.856	8849.68
673.205	8851.72
673.554	8873.18
673.904	8851.94
674.253	8872.05
674.602	8842.68
674.951	8766.52
675.3	8681.55
675.649	8761.55
675.998	8821.43
676.346	8768.78
676.695	8819.85
677.044	8740.76
677.393	8744.6
677.741	8756.35
678.09	8802
678.438	8689.01
678.787	8729.69
679.135	8752.06
679.484	8682.68
679.832	8716.35
680.181	8637.71
680.529	8659.41
680.877	8677.03
681.225	8600.42
681.573	8659.41
681.922	8625.51
682.27	8604.94
682.618	8620.08
682.966	8544.38
683.314	8517.71
683.661	8489.24
684.009	8536.02
684.357	8454.21
684.705	8500.99
685.053	8495.12
685.4	8445.4
685.748	8426.87
686.095	8441.56
686.443	8335.35
686.79	8332.41
687.138	8370.15
687.485	8365.4
687.832	8296.48
688.18	8290.38
688.527	8230.04
688.874	8233.43
689.221	8274.78
689.568	8190.72
689.915	8238.63
690.262	8167.21
690.609	8097.39
690.956	8147.33
691.303	8129.48
691.65	8042.7
691.997	8048.12
692.344	7974.68
692.69	8042.25
693.037	7976.71
693.383	7878.86
693.73	7969.93
694.077	7819.43
694.423	7871.18
694.769	7857.62
695.116	7846.55
695.462	7809.94
695.808	7819.88
696.155	7794.12
696.501	7682.03
696.847	7727.23
697.193	7652.88
697.539	7639.09
697.885	7676.38
698.231	7611.52
698.577	7604.97
698.923	7512.54
699.269	7523.62
699.614	7521.13
699.96	7416.27
700.306	7411.98
700.651	7413.34
700.997	7389.83
701.342	7374.47
701.688	7341.93
702.033	7326.56
702.379	7297.41
702.724	7304.86
703.069	7273
703.415	7203.4
703.76	7178.77
704.105	7210.86
704.45	7167.47
704.795	7141.48
705.14	7106.45
705.485	7139.67
705.83	7034.36
706.175	7068.26
706.52	7052.44
706.865	7021.71
707.209	7029.84
707.554	6928.38
707.899	6998.88
708.243	6909.17
708.588	6885.21
708.932	6875.5
709.277	6917.53
709.621	6933.8
709.966	6813.35
710.31	6862.84
710.654	6752.34
710.998	6769.29
711.342	6797.31
711.687	6785.78
712.031	6764.09
712.375	6656.07
712.719	6711.89
713.063	6664.2
713.407	6709.17
713.75	6685.9
714.094	6719.12
714.438	6619.23
714.782	6672.11
715.125	6617.65
715.469	6601.38
715.812	6587.6
716.156	6569.29
716.499	6526.58
716.843	6553.02
717.186	6515.05
717.53	6521.83
717.873	6533.81
718.216	6518.22
718.559	6491.1
718.902	6495.85
719.246	6434.83
719.589	6418.79
719.932	6500.14
720.275	6479.8
720.617	6428.96
720.96	6420.14
721.303	6449.97
721.646	6373.14
721.989	6362.97
722.331	6357.32
722.674	6411.1
723.016	6406.58
723.359	6373.82
723.701	6392.35
724.044	6357.32
724.386	6285.46
724.729	6352.57
725.071	6358.67
725.413	6355.06
725.755	6303.31
726.097	6392.35
726.439	6329.07
726.782	6301.27
727.124	6343.99
727.465	6303.99
727.807	6298.56
728.149	6293.14
728.491	6271.67
728.833	6244.1
729.175	6272.35
729.516	6257.43
729.858	6268.06
730.199	6291.11
730.541	6252.46
730.882	6292.69
731.224	6276.87
731.565	6217.44
731.906	6194.61
732.248	6238.23
732.589	6229.64
732.93	6235.06
733.271	6202.07
733.612	6234.38
733.953	6196.42
734.294	6228.51
734.635	6280.71
734.976	6240.26
735.317	6220.15
735.658	6233.48
735.999	6198.68
736.339	6216.31
736.68	6269.86
737.021	6261.5
737.361	6192.13
737.702	6282.74
738.042	6259.47
738.383	6211.33
738.723	6252.01
739.063	6213.14
739.404	6267.6
739.744	6267.83
740.084	6269.41
740.424	6312.12
740.764	6312.35
741.104	6327.04
741.444	6299.47
741.784	6275.51
742.124	6401.16
742.464	6391.89
742.804	6362.74
743.143	6357.32
743.483	6332.69
743.823	6414.27
744.162	6401.61
744.502	6402.29
744.841	6443.64
745.181	6446.81
745.52	6465.34
745.86	6546.24
746.199	6558.67
746.538	6593.7
746.877	6602.74
747.216	6645.45
747.556	6671.89
747.895	6691.32
748.234	6669.17
748.573	6772.22
748.911	6744.88
749.25	6829.17
749.589	6829.85
749.928	6945.78
750.267	6998.88
750.605	6979
750.944	7082.95
751.283	7082.95
751.621	7197.3
751.96	7223.96
752.298	7325.2
752.636	7411.98
752.975	7420.34
753.313	7383.96
753.651	7607.91
753.989	7596.83
754.327	7738.75
754.666	7767.68
755.004	7927.22
755.342	8012.64
755.679	8061.68
756.017	8221.45
756.355	8238.4
756.693	8327.66
757.031	8415.57
757.368	8534.44
757.706	8617.15
758.044	8733.98
758.381	8821.89
758.719	8996.57
759.056	9021.43
759.394	9150.69
759.731	9229.79
760.068	9334.64
760.405	9407.18
760.743	9547.52
761.08	9656.22
761.417	9790.9
761.754	9834.97
762.091	9950.44
762.428	10065.92
762.765	10245.35
763.102	10305.69
763.438	10391.79
763.775	10491.9
764.112	10671.78
764.449	10746.81
764.785	10832.46
765.122	10921.72
765.458	11093.01
765.795	11153.35
766.131	11262.05
766.467	11319.67
766.804	11359.67
767.14	11450.29
767.476	11591.31
767.812	11627.69
768.148	11768.93
768.485	11871.3
768.821	11838.53
769.157	12003.5
