Data from hue_230_FLMS001491_00069.txt Node
Date: Tue Feb 07 16:37:36 GMT 2017
User: dcchb
Spectrometer: FLMS00149
Trigger mode: 0
Integration Time (sec): 2.000000E-2
Scans to average: 10
Electric dark correction enabled: true
Nonlinearity correction enabled: false
Boxcar width: 0
XAxis mode: Wavelengths
Number of Pixels in Spectrum: 2048
>>>>>Begin Spectral Data<<<<<
341.393	-1.88
341.776	-1.88
342.16	-1.88
342.543	-59.73
342.927	-35.78
343.31	-62.67
343.693	-94.53
344.077	-59.73
344.46	-61.09
344.843	-40.07
345.226	-57.02
345.61	-25.61
345.993	-3.91
346.376	-3.91
346.759	18.91
347.142	47.16
347.525	42.64
347.908	39.93
348.291	51.68
348.674	98.46
349.057	109.76
349.44	140.49
349.823	141.17
350.206	151.11
350.588	183.2
350.971	204.44
351.354	219.81
351.737	229.75
352.119	237.89
352.502	262.3
352.884	268.85
353.267	277.89
353.65	269.98
354.032	298.23
354.414	304.78
354.797	318.57
355.179	321.28
355.562	315.18
355.944	319.24
356.326	338
356.709	335.06
357.091	337.55
357.473	334.84
357.855	340.26
358.238	328.96
358.62	317.21
359.002	314.5
359.384	336.87
359.766	336.87
360.148	344.1
360.53	330.54
360.912	325.12
361.294	332.12
361.676	316.76
362.057	307.49
362.439	324.21
362.821	329.86
363.203	319.92
363.584	315.18
363.966	323.76
364.348	314.5
364.729	319.69
365.111	315.63
365.493	298.68
365.874	316.08
366.256	326.25
366.637	310.2
367.019	300.26
367.4	323.76
367.781	297.32
368.163	299.58
368.544	303.65
368.925	307.94
369.306	315.63
369.688	285.12
370.069	319.92
370.45	334.61
370.831	318.11
371.212	315.63
371.593	306.36
371.974	312.92
372.355	292.8
372.736	312.46
373.117	316.98
373.498	303.88
373.879	297.55
374.26	326.02
374.641	315.4
375.021	301.84
375.402	289.87
375.783	300.49
376.163	321.73
376.544	317.21
376.925	314.05
377.305	323.99
377.686	323.99
378.066	306.59
378.447	311.79
378.827	318.34
379.208	319.69
379.588	333.93
379.968	319.92
380.349	305.91
380.729	339.36
381.109	333.03
381.489	330.99
381.87	322.18
382.25	319.69
382.63	318.79
383.01	315.4
383.39	337.55
383.77	334.61
384.15	330.99
384.53	350.88
384.91	342.07
385.29	349.98
385.67	334.16
386.049	332.8
386.429	346.59
386.809	338.23
387.189	349.3
387.568	338.68
387.948	344.1
388.328	345.68
388.707	342.97
389.087	345.91
389.466	337.77
389.846	380.48
390.225	345.91
390.605	346.59
390.984	358.11
391.363	371.67
391.743	376.87
392.122	377.09
392.501	367.38
392.881	370.99
393.26	342.52
393.639	356.76
394.018	357.66
394.397	352.91
394.776	375.06
395.155	393.82
395.534	364.67
395.913	354.27
396.292	394.72
396.671	370.77
397.05	373.7
397.429	369.86
397.808	394.04
398.186	388.39
398.565	372.57
398.944	395.4
399.323	384.55
399.701	403.31
400.08	393.82
400.458	389.75
400.837	403.99
401.215	392.46
401.594	390.88
401.972	423.87
402.351	409.86
402.729	409.64
403.107	418
403.486	424.1
403.864	431.78
404.242	405.57
404.62	431.33
404.999	414.38
405.377	426.81
405.755	434.04
406.133	430.2
406.511	453.7
406.889	438.11
407.267	456.64
407.645	457.32
408.023	458.9
408.401	442.86
408.779	473.59
409.156	480.37
409.534	477.88
409.912	473.59
410.29	514.94
410.667	492.57
411.045	488.96
411.422	514.49
411.8	504.77
412.178	515.4
412.555	542.29
412.933	536.19
413.31	522.4
413.687	549.29
414.065	569.18
414.442	559.24
414.819	565.34
415.197	560.59
415.574	582.06
415.951	595.39
416.328	575.51
416.705	574.83
417.082	590.87
417.46	583.87
417.837	605.11
418.214	599.46
418.591	631.33
418.967	619.12
419.344	613.92
419.721	636.07
420.098	636.52
420.475	672
420.852	666.13
421.228	668.39
421.605	669.29
421.982	691.44
422.358	692.57
422.735	714.03
423.111	697.31
423.488	715.62
423.864	718.55
424.241	727.14
424.617	759.91
424.994	768.95
425.37	762.17
425.746	775.5
426.123	772.56
426.499	807.82
426.875	784.32
427.251	800.13
427.627	813.24
428.003	836.97
428.379	867.25
428.756	856.86
429.132	870.87
429.507	878.55
429.883	863.86
430.259	905.89
430.635	899.79
431.011	895.5
431.387	891.88
431.763	955.16
432.138	937.53
432.514	964.2
432.89	1001.26
433.265	987.02
433.641	1009.17
434.016	1014.59
434.392	1027.92
434.767	1021.15
435.143	1034.03
435.518	1077.64
435.894	1091.2
436.269	1105.44
436.644	1096.4
437.02	1150.18
437.395	1171.2
437.77	1185.66
438.145	1180.92
438.52	1204.42
438.895	1231.31
439.271	1222.72
439.646	1250.29
440.021	1267.24
440.395	1276.96
440.77	1271.99
441.145	1301.36
441.52	1312.44
441.895	1349.95
442.27	1368.03
442.645	1358.99
443.019	1368.93
443.394	1364.64
443.769	1400.34
444.143	1389.5
444.518	1423.85
444.892	1436.28
445.267	1420.46
445.641	1477.86
446.016	1500.91
446.39	1456.84
446.764	1462.04
447.139	1482.15
447.513	1515.37
447.887	1510.4
448.262	1510.85
448.636	1495.71
449.01	1554.92
449.384	1529.83
449.758	1588.14
450.132	1606.21
450.506	1573.67
450.88	1582.49
451.254	1615.48
451.628	1650.96
452.002	1622.49
452.376	1665.87
452.75	1699.09
453.123	1683.95
453.497	1673.56
453.871	1698.42
454.244	1714.46
454.618	1730.96
454.992	1763.72
455.365	1780.67
455.739	1837.17
456.112	1825.64
456.486	1849.82
456.859	1845.76
457.232	1887.79
457.606	1880.78
457.979	1915.36
458.352	1936.15
458.725	1968.92
459.099	1966.43
459.472	2031.51
459.845	1985.64
460.218	2057.73
460.591	2073.1
460.964	2045.53
461.337	2113.55
461.71	2128.46
462.083	2149.48
462.456	2173.88
462.829	2146.54
463.201	2179.31
463.574	2183.83
463.947	2250.49
464.32	2299.76
464.692	2335.01
465.065	2311.96
465.438	2328
465.81	2406.19
466.183	2406.42
466.555	2418.17
466.928	2454.33
467.3	2495.46
467.672	2516.7
468.045	2543.82
468.417	2538.85
468.789	2556.47
469.161	2620.88
469.534	2635.34
469.906	2667.88
470.278	2692.97
470.65	2724.83
471.022	2771.61
471.394	2801.44
471.766	2794.66
472.138	2828.56
472.51	2918.27
472.882	2944.03
473.253	2966.86
473.625	3042.56
473.997	3071.04
474.369	3108.77
474.74	3096.8
475.112	3148.32
475.484	3204.59
475.855	3219.96
476.227	3266.51
476.598	3320.29
476.97	3364.13
477.341	3436.22
477.713	3482.78
478.084	3502.21
478.455	3574.52
478.827	3603.22
479.198	3665.37
479.569	3697.69
479.94	3800.06
480.311	3843.67
480.682	3835.31
481.053	3935.65
481.424	4016.32
481.795	4038.47
482.166	4075.98
482.537	4127.05
482.908	4200.27
483.279	4241.85
483.65	4299.7
484.021	4349.19
484.391	4407.5
484.762	4469.64
485.133	4491.79
485.503	4496.53
485.874	4619.92
486.244	4630.77
486.615	4698.34
486.985	4778.11
487.356	4843.42
487.726	4849.97
488.097	4966.58
488.467	4995.5
488.837	5064.65
489.207	5093.81
489.578	5167.48
489.948	5177.19
490.318	5264.88
490.688	5224.88
491.058	5337.87
491.428	5385.78
491.798	5445.44
492.168	5533.8
492.538	5521.59
492.908	5567.47
493.278	5697.41
493.648	5669.61
494.017	5747.12
494.387	5733.56
494.757	5845.2
495.126	5851.75
495.496	5846.56
495.866	5883.62
496.235	5935.37
496.605	5947.34
496.974	5934.91
497.344	6039.09
497.713	6037.28
498.082	6100.33
498.452	6136.72
498.821	6144.63
499.19	6222.59
499.559	6289.48
499.928	6193.89
500.298	6305.75
500.667	6294.45
501.036	6287.9
501.405	6348.01
501.774	6398.41
502.143	6415.58
502.512	6385.98
502.88	6435.01
503.249	6449.48
503.618	6466.43
503.987	6485.86
504.356	6576.25
504.724	6531.06
505.093	6572.86
505.462	6580.55
505.83	6611.05
506.199	6675.69
506.567	6739.87
506.936	6669.58
507.304	6790.71
507.672	6752.07
508.041	6766.98
508.409	6834.78
508.777	6898.96
509.145	6915.23
509.514	6842.24
509.882	6886.75
510.25	6872.52
510.618	6957.71
510.986	6952.74
511.354	6960.88
511.722	6985.28
512.09	7023.93
512.458	7013.08
512.826	7055.34
513.193	7051.5
513.561	7019.86
513.929	7075.68
514.297	7133.3
514.664	7096.69
515.032	7126.52
515.4	7167.65
515.767	7189.12
516.135	7155.45
516.502	7117.48
516.869	7233.41
517.237	7195.9
517.604	7161.32
517.972	7240.19
518.339	7272.51
518.706	7242.68
519.073	7322
519.44	7306.86
519.808	7306.63
520.175	7284.71
520.542	7381.43
520.909	7393.41
521.276	7342.34
521.643	7402.45
522.009	7428.66
522.376	7504.14
522.743	7408.32
523.11	7369.68
523.477	7463.91
523.843	7549.11
524.21	7570.58
524.577	7489.22
524.943	7583.68
525.31	7546.4
525.676	7577.36
526.043	7629.33
526.409	7571.26
526.776	7570.58
527.142	7627.98
527.508	7682.67
527.874	7687.86
528.241	7683.8
528.607	7649.22
528.973	7636.56
529.339	7650.8
529.705	7661.2
530.071	7758.6
530.437	7761.31
530.803	7722.89
531.169	7777.8
531.535	7674.98
531.901	7754.75
532.267	7651.71
532.632	7729.67
532.998	7684.7
533.364	7697.35
533.73	7725.6
534.095	7707.98
534.461	7738.71
534.826	7716.11
535.192	7651.93
535.557	7767.41
535.923	7686.96
536.288	7721.76
536.653	7719.27
537.019	7646.28
537.384	7624.36
537.749	7734.42
538.114	7650.58
538.479	7646.28
538.845	7676.11
539.21	7596.57
539.575	7622.1
539.94	7594.31
540.305	7612.16
540.67	7504.14
541.034	7559.73
541.399	7538.94
541.764	7614.42
542.129	7566.28
542.494	7548.66
542.858	7536.68
543.223	7557.92
543.587	7586.17
543.952	7489
544.316	7451.94
544.681	7476.79
545.045	7423.24
545.41	7513.4
545.774	7480.41
546.138	7465.95
546.503	7412.62
546.867	7408.32
547.231	7449.68
547.595	7395.89
547.959	7386.18
548.324	7378.27
548.688	7292.17
549.052	7351.15
549.416	7329.68
549.779	7301.66
550.143	7317.7
550.507	7371.49
550.871	7364.03
551.235	7276.57
551.599	7353.63
551.962	7308.66
552.326	7225.95
552.689	7259.17
553.053	7214.65
553.417	7254.65
553.78	7284.94
554.143	7264.82
554.507	7303.01
554.87	7217.37
555.234	7289.46
555.597	7188.67
555.96	7232.06
556.323	7249.68
556.686	7189.8
557.05	7272.96
557.413	7217.37
557.776	7234.77
558.139	7279.51
558.502	7257.14
558.865	7226.63
559.228	7236.58
559.59	7319.96
559.953	7257.14
560.316	7282.22
560.679	7281.32
561.041	7310.7
561.404	7351.6
561.767	7327.87
562.129	7291.72
562.492	7376.68
562.854	7372.84
563.217	7338.95
563.579	7342.34
563.941	7380.98
564.304	7336.46
564.666	7428.43
565.028	7445.61
565.39	7437.02
565.753	7488.09
566.115	7403.12
566.477	7506.85
566.839	7563.35
567.201	7518.6
567.563	7535.32
567.925	7513.4
568.287	7514.53
568.648	7575.32
569.01	7537.36
569.372	7627.3
569.734	7532.16
570.095	7608.99
570.457	7690.12
570.819	7625.04
571.18	7674.76
571.542	7725.6
571.903	7654.64
572.265	7734.42
572.626	7716.79
572.987	7746.39
573.349	7696.45
573.71	7840.4
574.071	7768.99
574.432	7795.43
574.794	7874.98
575.155	7872.72
575.516	7906.39
575.877	7884.02
576.238	7876.11
576.599	7989.32
576.96	7906.84
577.32	7937.8
577.681	7939.61
578.042	7951.81
578.403	8047.85
578.763	7969.44
579.124	8030.45
579.485	8019.61
579.845	8033.16
580.206	8055.54
580.566	8080.17
580.927	8117
581.287	8136.89
581.648	8111.81
582.008	8152.71
582.368	8146.38
582.728	8170.11
583.089	8114.52
583.449	8171.01
583.809	8173.5
584.169	8213.95
584.529	8135.76
584.889	8275.42
585.249	8214.4
585.609	8183.89
585.969	8228.87
586.329	8227.51
586.688	8262.54
587.048	8267.06
587.408	8264.12
587.768	8197.45
588.127	8280.39
588.487	8256.21
588.846	8274.06
589.206	8230.45
589.565	8315.87
589.925	8344.79
590.284	8325.36
590.643	8333.95
591.003	8356.77
591.362	8395.64
591.721	8385.25
592.08	8314.51
592.44	8375.98
592.799	8427.73
593.158	8460.5
593.517	8438.58
593.876	8493.94
594.235	8446.49
594.593	8465.47
594.952	8509.54
595.311	8439.26
595.67	8511.57
596.029	8562.42
596.387	8501.4
596.746	8509.54
597.104	8475.19
597.463	8543.66
597.822	8533.04
598.18	8404.91
598.538	8462.31
598.897	8542.53
599.255	8493.72
599.613	8613.49
599.972	8522.64
600.33	8561.06
600.688	8578.01
601.046	8572.59
601.404	8580.04
601.762	8601.29
602.12	8612.36
602.478	8619.36
602.836	8636.99
603.194	8612.81
603.552	8583.43
603.91	8551.79
604.268	8630.66
604.625	8604.45
604.983	8644.9
605.341	8626.6
605.698	8629.08
606.056	8650.55
606.413	8643.54
606.771	8698.68
607.128	8664.11
607.485	8637.44
607.843	8639.48
608.2	8691.45
608.557	8809.64
608.914	8627.05
609.272	8750.21
609.629	8678.12
609.986	8712.69
610.343	8668.4
610.7	8771.9
611.057	8731.23
611.414	8713.82
611.771	8725.12
612.127	8794.27
612.484	8750.43
612.841	8786.37
613.198	8827.04
613.554	8798.34
613.911	8836.31
614.267	8821.84
614.624	8861.39
614.98	8842.86
615.337	8872.46
615.693	8820.26
616.05	8856.65
616.406	8864.56
616.762	8896.42
617.118	8861.84
617.475	8868.62
617.831	8913.14
618.187	8939.58
618.543	8908.17
618.899	8929.19
619.255	8976.87
619.611	8853.93
619.967	8925.8
620.323	8953.59
620.678	8903.65
621.034	8947.94
621.39	8927.83
621.746	8924.44
622.101	9017.55
622.457	8953.37
622.812	8880.15
623.168	8936.42
623.523	8986.59
623.879	8952.46
624.234	8917.21
624.589	9025.68
624.945	8942.97
625.3	8970.31
625.655	8937.32
626.01	8949.98
626.365	8993.14
626.72	8892.35
627.075	8956.53
627.43	8872.24
627.785	8935.74
628.14	8960.6
628.495	8932.35
628.85	8896.64
629.205	8830.21
629.559	8909.75
629.914	8837.89
630.269	8904.55
630.623	8836.99
630.978	8876.98
631.332	8903.65
631.687	8879.02
632.041	8837.21
632.396	8852.58
632.75	8830.21
633.104	8855.74
633.459	8804.22
633.813	8811.9
634.167	8766.7
634.521	8806.93
634.875	8777.1
635.229	8756.31
635.583	8766.93
635.937	8776.87
636.291	8728.06
636.645	8725.58
636.999	8650.55
637.352	8677.89
637.706	8726.71
638.06	8701.17
638.413	8624.11
638.767	8637.89
639.121	8707.72
639.474	8583.88
639.828	8614.62
640.181	8629.08
640.534	8579.36
640.888	8666.14
641.241	8598.8
641.594	8616.2
641.947	8571.68
642.301	8633.15
642.654	8575.75
643.007	8633.6
643.36	8545.69
643.713	8498.24
644.066	8541.17
644.419	8543.89
644.771	8462.08
645.124	8426.15
645.477	8397.9
645.83	8372.82
646.182	8304.57
646.535	8224.8
646.888	8298.02
647.24	8227.74
647.593	8242.42
647.945	8184.35
648.298	8206.95
648.65	8245.36
649.002	8173.5
649.355	8256.89
649.707	8304.57
650.059	8263.89
650.411	8382.53
650.763	8388.18
651.115	8505.02
651.467	8323.78
651.819	8359.03
652.171	8428.86
652.523	8349.77
652.875	8375.3
653.227	8383.21
653.578	8492.81
653.93	8452.81
654.282	8377.34
654.633	8386.6
654.985	8388.64
655.337	8400.84
655.688	8437.67
656.039	8477.67
656.391	8407.84
656.742	8394.96
657.094	8354.96
657.445	8411.69
657.796	8399.93
658.147	8418.01
658.498	8372.36
658.849	8407.39
659.2	8422.08
659.551	8338.69
659.902	8430.44
660.253	8421.85
660.604	8416.21
660.955	8323.55
661.306	8385.7
661.656	8384.34
662.007	8321.74
662.358	8433.38
662.708	8367.39
663.059	8375.08
663.409	8342.08
663.76	8393.16
664.11	8407.84
664.461	8389.31
664.811	8402.42
665.161	8395.64
665.511	8409.88
665.862	8448.52
666.212	8435.19
666.562	8393.38
666.912	8375.08
667.262	8390.67
667.612	8367.84
667.962	8384.34
668.312	8339.15
668.662	8420.05
669.011	8429.76
669.361	8430.44
669.711	8373.27
670.06	8339.15
670.41	8339.15
670.76	8379.6
671.109	8362.87
671.459	8361.97
671.808	8343.66
672.157	8391.57
672.507	8317.45
672.856	8243.55
673.205	8309.32
673.554	8294.17
673.904	8318.81
674.253	8359.48
674.602	8358.58
674.951	8206.27
675.3	8120.85
675.649	8264.57
675.998	8259.37
676.346	8226.61
676.695	8309.32
677.044	8243.1
677.393	8236.1
677.741	8207.17
678.09	8226.38
678.438	8188.41
678.787	8219.83
679.135	8183.67
679.484	8133.5
679.832	8181.86
680.181	8115.42
680.529	8156.55
680.877	8080.39
681.225	8110.45
681.573	8139.83
681.922	8117
682.27	8031.81
682.618	8086.27
682.966	8028.42
683.314	8051.02
683.661	8013.73
684.009	7978.25
684.357	7991.36
684.705	7946.61
685.053	7947.97
685.4	7963.34
685.748	7858.48
686.095	7877.24
686.443	7862.1
686.79	7789.56
687.138	7843.79
687.485	7846.73
687.832	7803.34
688.18	7770.35
688.527	7735.32
688.874	7753.17
689.221	7700.74
689.568	7708.43
689.915	7709.33
690.262	7671.59
690.609	7652.84
690.956	7639.05
691.303	7648.09
691.65	7584.59
691.997	7581.42
692.344	7498.49
692.69	7469.79
693.037	7533.97
693.383	7426.85
693.73	7433.86
694.077	7418.27
694.423	7352.96
694.769	7403.35
695.116	7318.83
695.462	7307.76
695.808	7280.64
696.155	7273.86
696.501	7256.01
696.847	7246.07
697.193	7236.35
697.539	7192.28
697.885	7167.65
698.231	7137.59
698.577	7145.5
698.923	7128.56
699.269	7029.58
699.614	6971.95
699.96	7001.55
700.306	7006.52
700.651	7040.87
700.997	6941.22
701.342	6940.31
701.688	6891.27
702.033	6931.27
702.379	6900.09
702.724	6848.79
703.069	6867.32
703.415	6784.38
703.76	6825.06
704.105	6770.82
704.45	6732.41
704.795	6722.69
705.14	6755.23
705.485	6674.1
705.83	6654.67
706.175	6695.8
706.52	6612.18
706.865	6596.59
707.209	6616.03
707.554	6641.34
707.899	6597.04
708.243	6614.44
708.588	6534.45
708.932	6496.03
709.277	6509.81
709.621	6524.73
709.966	6476.82
710.31	6506.2
710.654	6384.85
710.998	6438.86
711.342	6417.39
711.687	6370.84
712.031	6365.19
712.375	6309.82
712.719	6393.43
713.063	6357.95
713.407	6352.3
713.75	6341.46
714.094	6331.29
714.438	6287.67
714.782	6249.26
715.125	6235.25
715.469	6258.52
715.812	6246.09
716.156	6224.85
716.499	6233.89
716.843	6227.56
717.186	6215.36
717.53	6197.28
717.873	6192.53
718.216	6153.44
718.559	6142.37
718.902	6058.53
719.246	6123.84
719.589	6083.61
719.932	6106.66
720.275	6092.65
720.617	6113.89
720.96	6032.99
721.303	6146.43
721.646	6087.68
721.989	6077.74
722.331	6089.94
722.674	6032.31
723.016	6035.02
723.359	6045.19
723.701	5998.19
724.044	6036.38
724.386	5994.12
724.729	6065.98
725.071	6018.53
725.413	5938.3
725.755	5990.51
726.097	5952.77
726.439	5953.67
726.782	5998.87
727.124	6009.04
727.465	5994.35
727.807	5952.54
728.149	5929.49
728.491	5899.66
728.833	5928.59
729.175	5948.93
729.516	5885.65
729.858	5965.2
730.199	5892.66
730.541	5899.44
730.882	5870.28
731.224	5992.09
731.565	5903.73
731.906	5915.93
732.248	5921.81
732.589	5908.02
732.93	5894.46
733.271	5891.07
733.612	5875.03
733.953	5867.57
734.294	5880.45
734.635	5892.2
734.976	5938.98
735.317	5906.21
735.658	5865.76
735.999	5900.34
736.339	5844.52
736.68	5896.05
737.021	5867.12
737.361	5841.81
737.702	5945.99
738.042	5895.37
738.383	5895.59
738.723	5934.01
739.063	5964.97
739.404	5932.65
739.744	5947.34
740.084	5941.92
740.424	5990.73
740.764	5926.78
741.104	5962.03
741.444	5972.2
741.784	5901.24
742.124	5976.95
742.464	5956.61
742.804	6009.04
743.143	6007.46
743.483	6021.01
743.823	6045.42
744.162	6034.35
744.502	6063.95
744.841	6127.9
745.181	6141.24
745.52	6100.11
745.86	6145.53
746.199	6162.93
746.538	6223.72
746.877	6232.31
747.216	6297.16
747.556	6267.11
747.895	6303.04
748.234	6305.3
748.573	6383.94
748.911	6414.9
749.25	6425.07
749.589	6460.55
749.928	6518.63
750.267	6628
750.605	6609.02
750.944	6637.49
751.283	6689.47
751.621	6735.12
751.96	6814.89
752.298	6895.12
752.636	6930.82
752.975	6983.93
753.313	7000.2
753.651	7101.44
753.989	7216.91
754.327	7309.34
754.666	7352.73
755.004	7425.95
755.342	7533.74
755.679	7654.19
756.017	7669.33
756.355	7827.07
756.693	7898.7
757.031	8062.54
757.368	8072.49
757.706	8220.5
758.044	8278.13
758.381	8395.87
758.719	8488.07
759.056	8618.69
759.394	8707.5
759.731	8845.57
760.068	8860.04
760.405	9021.84
760.743	9088.96
761.08	9238.1
761.417	9370.08
761.754	9444.88
762.091	9569.17
762.428	9636.29
762.765	9823.4
763.102	9931.19
763.438	10066.56
763.775	10120.12
764.112	10237.63
764.449	10444.63
764.785	10493.44
765.122	10519.2
765.458	10651.17
765.795	10744.96
766.131	10822.47
766.467	10977.72
766.804	11032.41
767.14	11170.48
767.476	11304.72
767.812	11301.78
768.148	11538.61
768.485	11467.65
768.821	11591.04
769.157	11704.03
