Data from hue_70_FLMS001491_59.txt Node
Date: Mon Feb 06 15:21:08 GMT 2017
User: dcchb
Spectrometer: FLMS00149
Trigger mode: 0
Integration Time (sec): 2.000000E-2
Scans to average: 10
Electric dark correction enabled: true
Nonlinearity correction enabled: false
Boxcar width: 0
XAxis mode: Wavelengths
Number of Pixels in Spectrum: 2048
>>>>>Begin Spectral Data<<<<<
341.393	-39.07
341.776	-39.07
342.16	-39.07
342.543	-62.79
342.927	-66.86
343.31	-65.73
343.693	-45.85
344.077	-67.99
344.46	-56.02
344.843	-41.78
345.226	-53.08
345.61	-44.04
345.993	-17.82
346.376	13.59
346.759	5.68
347.142	17.43
347.525	38.22
347.908	49.52
348.291	69.18
348.674	99.01
349.057	99.69
349.44	110.08
349.823	135.39
350.206	155.5
350.588	197.99
350.971	213.13
351.354	216.52
351.737	222.85
352.119	266.46
352.502	261.49
352.884	270.98
353.267	267.59
353.65	280.7
354.032	298.55
354.414	304.2
354.797	324.77
355.179	302.39
355.562	334.03
355.944	326.57
356.326	334.48
356.709	302.62
357.091	324.31
357.473	316.4
357.855	344.2
358.238	341.49
358.62	327.48
359.002	326.12
359.384	328.61
359.766	334.93
360.148	323.18
360.53	343.07
360.912	352.34
361.294	341.49
361.676	313.92
362.057	331.54
362.439	323.64
362.821	339.45
363.203	325.67
363.584	321.6
363.966	339
364.348	312.79
364.729	301.04
365.111	309.85
365.493	326.35
365.874	317.76
366.256	315.95
366.637	304.65
367.019	304.43
367.4	314.14
367.781	303.52
368.163	332
368.544	323.86
368.925	301.49
369.306	310.3
369.688	317.99
370.069	314.82
370.45	296.97
370.831	288.16
371.212	301.26
371.593	321.38
371.974	304.88
372.355	301.94
372.736	315.73
373.117	301.26
373.498	308.95
373.879	306.46
374.26	327.25
374.641	299
375.021	304.65
375.402	306.23
375.783	307.82
376.163	322.96
376.544	310.08
376.925	342.39
377.305	325.22
377.686	316.4
378.066	343.52
378.447	303.98
378.827	336.97
379.208	325.9
379.588	320.92
379.968	324.99
380.349	331.77
380.729	334.71
381.109	331.54
381.489	354.82
381.87	327.93
382.25	328.38
382.63	318.44
383.01	329.06
383.39	352.56
383.77	333.35
384.15	318.89
384.53	344.65
384.91	330.19
385.29	350.08
385.67	333.58
386.049	367.02
386.429	347.36
386.809	338.55
387.189	333.8
387.568	332.22
387.948	350.53
388.328	340.58
388.707	332.67
389.087	330.19
389.466	348.27
389.846	358.89
390.225	342.62
390.605	340.81
390.984	344.65
391.363	352.79
391.743	348.72
392.122	343.97
392.501	345.1
392.881	347.36
393.26	354.82
393.639	330.87
394.018	368.61
394.397	353.69
394.776	350.75
395.155	360.24
395.534	386.68
395.913	370.87
396.292	357.31
396.671	353.01
397.05	361.6
397.429	383.3
397.808	353.01
398.186	376.52
398.565	360.92
398.944	370.41
399.323	369.06
399.701	393.46
400.08	367.25
400.458	376.29
400.837	368.38
401.215	385.55
401.594	380.13
401.972	379.45
402.351	389.17
402.729	391.66
403.107	414.03
403.486	385.78
403.864	392.79
404.242	378.55
404.62	380.81
404.999	418.77
405.377	410.64
405.755	383.52
406.133	407.7
406.511	399.11
406.889	421.49
407.267	404.76
407.645	397.98
408.023	404.09
408.401	415.38
408.779	405.44
409.156	422.39
409.534	410.64
409.912	423.75
410.29	415.61
410.667	429.85
411.045	421.49
411.422	446.34
411.8	429.17
412.178	429.17
412.555	411.54
412.933	442.5
413.31	451.32
413.687	444.31
414.065	460.58
414.442	421.03
414.819	448.6
415.197	437.08
415.574	458.1
415.951	467.59
416.328	462.16
416.705	458.1
417.082	473.46
417.46	468.94
417.837	459.9
418.214	486.57
418.591	455.61
418.967	477.53
419.344	463.29
419.721	487.7
420.098	480.24
420.475	494.03
420.852	483.18
421.228	511.43
421.605	493.12
421.982	481.15
422.358	528.83
422.735	498.09
423.111	494.25
423.488	480.92
423.864	518.43
424.241	526.12
424.617	514.14
424.994	521.6
425.37	519.34
425.746	513.46
426.123	512.56
426.499	529.28
426.875	519.56
427.251	544.19
427.627	519.11
428.003	531.54
428.379	541.93
428.756	542.39
429.132	562.73
429.507	551.43
429.883	546.91
430.259	553.46
430.635	553.46
431.011	568.15
431.387	603.4
431.763	567.7
432.138	581.26
432.514	585.55
432.89	598.2
433.265	595.27
433.641	620.12
434.016	614.02
434.392	605.66
434.767	612.89
435.143	609.96
435.518	613.8
435.894	636.17
436.269	646.56
436.644	643.18
437.02	624.87
437.395	633.68
437.77	668.94
438.145	641.82
438.52	661.03
438.895	668.26
439.271	662.16
439.646	676.85
440.021	672.78
440.395	670.29
440.77	680.01
441.145	667.81
441.52	695.15
441.895	687.24
442.27	693.8
442.645	706.45
443.019	705.09
443.394	686.11
443.769	694.7
444.143	727.92
444.518	705.55
444.892	708.71
445.267	694.7
445.641	739.22
446.016	722.27
446.39	728.82
446.764	736.05
447.139	737.86
447.513	754.36
447.887	747.13
448.262	736.28
448.636	742.61
449.01	781.48
449.384	782.38
449.758	769.27
450.132	784.19
450.506	767.24
450.88	785.09
451.254	767.24
451.628	768.37
452.002	793.23
452.376	831.87
452.75	808.59
453.123	811.31
453.497	830.51
453.871	819.22
454.244	831.19
454.618	858.99
454.992	850.18
455.365	881.59
455.739	870.74
456.112	901.02
456.486	894.69
456.859	876.39
457.232	892.21
457.606	898.54
457.979	917.97
458.352	923.85
458.725	922.26
459.099	968.59
459.472	965.65
459.845	960.68
460.218	957.74
460.591	985.77
460.964	989.83
461.337	1028.25
461.71	1016.05
462.083	1022.6
462.456	1035.03
462.829	1068.93
463.201	1073.22
463.574	1067.8
463.947	1088.36
464.32	1095.82
464.692	1148.92
465.065	1129.26
465.438	1140.11
465.81	1154.12
466.183	1177.4
466.555	1183.73
466.928	1224.18
467.3	1224.4
467.672	1221.01
468.045	1248.81
468.417	1281.35
468.789	1296.04
469.161	1282.48
469.534	1323.38
469.906	1360.44
470.278	1375.13
470.65	1401.12
471.022	1414.23
471.394	1429.6
471.766	1497.62
472.138	1486.09
472.51	1528.58
472.882	1581.68
473.253	1579.42
473.625	1618.06
473.997	1662.58
474.369	1695.12
474.74	1712.3
475.112	1758.17
475.484	1812.86
475.855	1820.77
476.227	1907.1
476.598	1892.41
476.97	1974.21
477.341	2035
477.713	2085.85
478.084	2146.64
478.455	2226.86
478.827	2263.02
479.198	2356.12
479.569	2376.69
479.94	2465.73
480.311	2512.05
480.682	2587.53
481.053	2662.11
481.424	2739.62
481.795	2778.26
482.166	2898.03
482.537	2954.98
482.908	3049.21
483.279	3143.67
483.65	3282.43
484.021	3329.66
484.391	3427.06
484.762	3499.15
485.133	3585.24
485.503	3655.98
485.874	3828.18
486.244	3918.34
486.615	3985.69
486.985	4106.13
487.356	4249.18
487.726	4339.58
488.097	4516.29
488.467	4540.02
488.837	4734.59
489.207	4836.74
489.578	4961.03
489.948	5085.54
490.318	5247.35
490.688	5341.58
491.058	5532.31
491.428	5666.55
491.798	5726.21
492.168	5886.2
492.538	6014.79
492.908	6181.33
493.278	6311.95
493.648	6440.76
494.017	6593.75
494.387	6700.87
494.757	6765.73
495.126	6904.25
495.496	7063.8
495.866	7188.09
496.235	7296.79
496.605	7505.59
496.974	7668.08
497.344	7755.76
497.713	7944
498.082	8028.97
498.452	8168.18
498.821	8302.18
499.19	8382.41
499.559	8649.07
499.928	8723.87
500.298	8765.45
500.667	8969.51
501.036	9067.36
501.405	9226.9
501.774	9257.86
502.143	9399.78
502.512	9550.74
502.88	9682.03
503.249	9695.59
503.618	9847.45
503.987	9976.94
504.356	10067.79
504.724	10196.14
505.093	10350.94
505.462	10409.02
505.83	10575.57
506.199	10647.66
506.567	10804.94
506.936	10874.09
507.304	11088.55
507.672	11126.97
508.041	11228.21
508.409	11330.13
508.777	11484.92
509.145	11585.71
509.514	11596.56
509.882	11739.38
510.25	11866.61
510.618	11913.16
510.986	12035.19
511.354	12275.19
511.722	12362.42
512.09	12455.52
512.458	12479.93
512.826	12651.22
513.193	12669.75
513.561	12780.71
513.929	12915.62
514.297	13062.96
514.664	13081.72
515.032	13236.06
515.4	13331.43
515.767	13345.89
516.135	13451.2
516.502	13372.56
516.869	13690.06
517.237	13681.02
517.604	13674.02
517.972	13855.94
518.339	13944.75
518.706	14067.23
519.073	14060.45
519.44	14224.74
519.808	14376.6
520.175	14321.01
520.542	14507.67
520.909	14619.76
521.276	14625.63
521.643	14780.88
522.009	14847.1
522.376	14979.07
522.743	15042.34
523.11	15225.39
523.477	15305.84
523.843	15343.58
524.21	15521.43
524.577	15567.98
524.943	15731.82
525.31	15713.74
525.676	15785.83
526.043	15908.76
526.409	16065.82
526.776	16133.84
527.142	16170.22
527.508	16223.56
527.874	16429.2
528.241	16474.85
528.607	16464.68
528.973	16625.13
529.339	16567.73
529.705	16711.68
530.071	16872.8
530.437	16860.15
530.803	16954.84
531.169	17045
531.535	16950.99
531.901	17024.44
532.267	17058.56
532.632	17275.51
532.998	17167.94
533.364	17297.43
533.73	17426.46
534.095	17553.24
534.461	17419.68
534.826	17513.24
535.192	17502.62
535.557	17595.95
535.923	17616.06
536.288	17619.9
536.653	17733.57
537.019	17675.27
537.384	17751.65
537.749	17735.38
538.114	17869.39
538.479	17820.12
538.845	17818.32
539.21	17788.04
539.575	17796.17
539.94	17966.11
540.305	17994.58
540.67	17859.45
541.034	17958.65
541.399	18040.46
541.764	18108.03
542.129	18093.34
542.494	18108.7
542.858	18084.07
543.223	18209.72
543.587	18266.21
543.952	18186.44
544.316	18245.65
544.681	18218.08
545.045	18280.23
545.41	18338.3
545.774	18287.01
546.138	18265.54
546.503	18342.82
546.867	18283.16
547.231	18475.02
547.595	18476.38
547.959	18512.08
548.324	18460.56
548.688	18501.69
549.052	18467.57
549.416	18480.67
549.779	18404.97
550.143	18563.16
550.507	18673.89
550.871	18592.99
551.235	18581.46
551.599	18668.24
551.962	18675.47
552.326	18740.1
552.689	18746.43
553.053	18694.9
553.417	18748.01
553.78	19016.25
554.143	18781.23
554.507	18791.85
554.87	18857.61
555.234	19040.21
555.597	18943.94
555.96	18962.02
556.323	19068.45
556.686	19050.83
557.05	19183.48
557.413	19202.01
557.776	19136.25
558.139	19274.78
558.502	19276.13
558.865	19295.79
559.228	19456.01
559.59	19424.83
559.953	19416.69
560.316	19671.83
560.679	19576.01
561.041	19711.6
561.404	19728.55
561.767	19796.12
562.129	19626.18
562.492	19894.65
562.854	19873.86
563.217	19920.41
563.579	19997.92
563.941	20127.41
564.304	20206.28
564.666	20215.32
565.028	20286.95
565.39	20380.28
565.753	20422.99
566.115	20518.36
566.477	20526.95
566.839	20614.63
567.201	20659.37
567.563	20601.97
567.925	20687.62
568.287	20742.31
568.648	20825.92
569.01	20858.01
569.372	21020.27
569.734	20855.98
570.095	20916.09
570.457	21017.1
570.819	21085.12
571.18	21148.85
571.542	21207.38
571.903	21167.83
572.265	21323.08
572.626	21317.43
572.987	21366.7
573.349	21441.27
573.71	21430.65
574.071	21524.43
574.432	21535.51
574.794	21696.63
575.155	21590.42
575.516	21606.24
575.877	21529.63
576.238	21689.63
576.599	21785.44
576.96	21726.01
577.32	21770.3
577.681	21935.95
578.042	21948.6
578.403	21898.21
578.763	21951.54
579.124	21919
579.485	22009.85
579.845	22030.64
580.206	22031.31
580.566	22029.05
580.927	22026.12
581.287	22085.1
581.648	22114.02
582.008	22126
582.368	22048.04
582.728	22104.53
583.089	22147.24
583.449	22130.75
583.809	22077.87
584.169	22118.54
584.529	22063.85
584.889	22278.99
585.249	22129.84
585.609	22113.8
585.969	22180.91
586.329	22060.92
586.688	22212.55
587.048	22136.62
587.408	22124.64
587.768	22083.52
588.127	22110.41
588.487	22097.3
588.846	22159.9
589.206	22036.06
589.565	22057.3
589.925	22184.3
590.284	22060.92
590.643	22126.9
591.003	22167.13
591.362	22206
591.721	22163.06
592.08	22219.78
592.44	22185.21
592.799	22207.35
593.158	22242.61
593.517	22142.5
593.876	22159.45
594.235	22207.58
594.593	22271.76
594.952	22262.04
595.311	22203.29
595.67	22212.1
596.029	22323.06
596.387	22339.1
596.746	22355.6
597.104	22255.49
597.463	22239.67
597.822	22289.16
598.18	22240.8
598.538	22247.13
598.897	22375.49
599.255	22201.03
599.613	22541.36
599.972	22383.85
600.33	22441.47
600.688	22308.59
601.046	22378.42
601.404	22497.29
601.762	22371.87
602.12	22476.05
602.478	22494.35
602.836	22439.21
603.194	22435.82
603.552	22524.63
603.91	22457.29
604.268	22556.95
604.625	22492.77
604.983	22593.56
605.341	22383.17
605.698	22630.85
606.056	22591.3
606.413	22633.78
606.771	22605.08
607.128	22629.94
607.485	22640.34
607.843	22563.73
608.2	22747
608.557	22828.81
608.914	22829.71
609.272	22822.7
609.629	22782.71
609.986	22912.87
610.343	22955.58
610.7	22971.18
611.057	23003.27
611.414	22958.52
611.771	22932.76
612.127	23121.68
612.484	23152.19
612.841	23192.86
613.198	23133.21
613.554	23121
613.911	23240.55
614.267	23182.02
614.624	23142.92
614.98	23247.55
615.337	23354.67
615.693	23318.96
616.05	23317.38
616.406	23453.87
616.762	23234.45
617.118	23371.39
617.475	23272.18
617.831	23544.27
618.187	23551.05
618.543	23521.67
618.899	23704.26
619.255	23610.03
619.611	23526.64
619.967	23700.2
620.323	23712.17
620.678	23608.22
621.034	23585.62
621.39	23574.55
621.746	23604.15
622.101	23946.97
622.457	23694.55
622.812	23691.38
623.168	23868.33
623.523	23813.41
623.879	23789.91
624.234	23705.85
624.589	23724.6
624.945	23855.45
625.3	23808.22
625.655	23776.8
626.01	23871.72
626.365	23810.02
626.72	23857.48
627.075	23836.92
627.43	23810.48
627.785	23695.22
628.14	23805.96
628.495	23822.9
628.85	23714.43
629.205	23619.07
629.559	23806.41
629.914	23731.61
630.269	23727.99
630.623	23744.04
630.978	23661.33
631.332	23793.3
631.687	23793.3
632.041	23685.51
632.396	23830.14
632.75	23693.42
633.104	23651.61
633.459	23619.07
633.813	23529.81
634.167	23642.8
634.521	23488.45
634.875	23639.63
635.229	23577.26
635.583	23523.48
635.937	23441.45
636.291	23455
636.645	23528.68
636.999	23346.08
637.352	23423.37
637.706	23358.06
638.06	23401.9
638.413	23245.07
638.767	23290.94
639.121	23328
639.474	23137.05
639.828	23200.55
640.181	23239.87
640.534	23143.83
640.888	23161
641.241	23031.29
641.594	23072.87
641.947	23094.79
642.301	23160.55
642.654	23184.05
643.007	23217.95
643.36	23021.12
643.713	23106.99
644.066	23185.18
644.419	22917.17
644.771	22845.53
645.124	22742.93
645.477	22632.43
645.83	22471.98
646.182	22357.63
646.535	22287.58
646.888	22318.31
647.24	22256.62
647.593	22301.36
647.945	22360.12
648.298	22271.53
648.65	22178.65
649.002	22257.3
649.355	22309.05
649.707	22191.76
650.059	22341.59
650.411	22656.16
650.763	22655.03
651.115	22886.43
651.467	22770.73
651.819	22785.64
652.171	22748.36
652.523	22720.11
652.875	22746.77
653.227	22617.29
653.578	22805.98
653.93	22696.61
654.282	22661.13
654.633	22591.52
654.985	22708.81
655.337	22704.74
655.688	22614.35
656.039	22745.64
656.391	22555.14
656.742	22719.2
657.094	22582.49
657.445	22730.73
657.796	22497.29
658.147	22581.58
658.498	22617.29
658.849	22669.49
659.2	22711.07
659.551	22584.75
659.902	22748.13
660.253	22667.45
660.604	22768.7
660.955	22587
661.306	22610.51
661.656	22639.43
662.007	22506.1
662.358	22593.11
662.708	22644.86
663.059	22556.95
663.409	22595.82
663.76	22603.95
664.11	22602.82
664.461	22674.69
664.811	22686.44
665.161	22526.22
665.511	22521.92
665.862	22612.77
666.212	22656.61
666.562	22657.96
666.912	22586.33
667.262	22565.76
667.612	22606.44
667.962	22607.12
668.312	22458.65
668.662	22610.28
669.011	22642.14
669.361	22503.39
669.711	22617.29
670.06	22560.56
670.41	22549.04
670.76	22490.06
671.109	22466.78
671.459	22621.58
671.808	22430.85
672.157	22542.49
672.507	22373.9
672.856	22461.13
673.205	22498.42
673.554	22524.63
673.904	22360.34
674.253	22455.48
674.602	22341.81
674.951	22020.69
675.3	21956.06
675.649	22275.6
675.998	22270.18
676.346	22343.17
676.695	22403.73
677.044	22158.09
677.393	22190.86
677.741	22217.98
678.09	22179.78
678.438	22227.92
678.787	22232.44
679.135	22124.87
679.484	22060.01
679.832	22222.95
680.181	21946.12
680.529	22086.68
680.877	21977.08
681.225	21929.62
681.573	22050.97
681.922	21966.46
682.27	21847.82
682.618	21806.23
682.966	21782.05
683.314	21816.63
683.661	21720.59
684.009	21739.34
684.357	21606.01
684.705	21619.8
685.053	21557.88
685.4	21452.57
685.748	21455.74
686.095	21430.43
686.443	21332.8
686.79	21280.15
687.138	21280.6
687.485	21363.53
687.832	21250.77
688.18	21233.82
688.527	21078.34
688.874	21128.29
689.221	21053.03
689.568	20982.75
689.915	20947.73
690.262	20949.31
690.609	20744.34
690.956	20860.04
691.303	20912.7
691.65	20761.74
691.997	20640.39
692.344	20594.29
692.69	20516.32
693.037	20600.84
693.383	20312.71
693.73	20470
694.077	20332.15
694.423	20259.61
694.769	20219.38
695.116	20270.68
695.462	20166.28
695.808	20065.72
696.155	20107.07
696.501	19966.51
696.847	19871.14
697.193	19848.32
697.539	19827.53
697.885	19684.71
698.231	19556.8
698.577	19563.36
698.923	19562.9
699.269	19494.88
699.614	19365.85
699.96	19407.2
700.306	19322.91
700.651	19253.08
700.997	19193.65
701.342	19065.06
701.688	19039.3
702.033	18964.28
702.379	18995.91
702.724	18960.43
703.069	18885.63
703.415	18711.85
703.76	18629.14
704.105	18695.13
704.45	18673.66
704.795	18579.65
705.14	18497.39
705.485	18482.93
705.83	18442.03
706.175	18474.8
706.52	18372.2
706.865	18197.97
707.209	18212.88
707.554	18188.7
707.899	18245.2
708.243	18101.93
708.588	18059.89
708.932	17937.41
709.277	17919.11
709.621	17977.18
709.966	17877.52
710.31	17898.54
710.654	17674.59
710.998	17776.06
711.342	17673.69
711.687	17613.8
712.031	17559.57
712.375	17465.56
712.719	17500.36
713.063	17441.83
713.407	17494.03
713.75	17394.83
714.094	17470.76
714.438	17359.12
714.782	17324.54
715.125	17210.42
715.469	17333.13
715.812	17167.71
716.156	17080.26
716.499	17125.91
716.843	17204.77
717.186	16981.73
717.53	17070.99
717.873	17078.68
718.216	17034.83
718.559	16901.96
718.902	16850.43
719.246	16958.9
719.589	16818.12
719.932	16793.94
720.275	16801.85
720.617	16754.16
720.96	16762.53
721.303	16761.85
721.646	16723.66
721.989	16641.62
722.331	16624
722.674	16588.52
723.016	16693.6
723.359	16604.34
723.701	16655.86
724.044	16513.27
724.386	16424.91
724.729	16540.16
725.071	16391.24
725.413	16484.11
725.755	16439.6
726.097	16387.39
726.439	16338.13
726.782	16285.25
727.124	16352.37
727.465	16317.79
727.807	16320.28
728.149	16345.59
728.491	16259.71
728.833	16297.23
729.175	16194.63
729.516	16198.7
729.858	16242.77
730.199	16224.23
730.541	16147.85
730.882	16169.32
731.224	16234.18
731.565	16096.78
731.906	16143.78
732.248	16145.14
732.589	16101.3
732.93	16111.7
733.271	16054.52
733.612	16101.07
733.953	16045.71
734.294	16069.44
734.635	15899.95
734.976	15981.98
735.317	15996.22
735.658	15947.63
735.999	15838.48
736.339	15817.47
736.68	15945.82
737.021	16020.85
737.361	15837.58
737.702	15907.18
738.042	15844.36
738.383	15987.18
738.723	15989.21
739.063	15852.27
739.404	15924.36
739.744	15871.25
740.084	15883.45
740.424	15845.49
740.764	15775.21
741.104	15840.74
741.444	15779.05
741.784	15750.12
742.124	15830.12
742.464	15916.9
742.804	15862.21
743.143	15895.43
743.483	15777.92
743.823	15830.35
744.162	15767.3
744.502	15856.11
744.841	15800.06
745.181	15913.51
745.52	15928.87
745.86	15935.43
746.199	15913.96
746.538	15942.89
746.877	15975.2
747.216	15957.57
747.556	16009.55
747.895	16052.71
748.234	16048.19
748.573	16048.19
748.911	16119.83
749.25	16240.73
749.589	16079.38
749.928	16240.51
750.267	16255.87
750.605	16256.55
750.944	16278.7
751.283	16244.8
751.621	16444.57
751.96	16460.61
752.298	16481.85
752.636	16517.79
752.975	16439.82
753.313	16512.81
753.651	16805.91
753.989	16724.56
754.327	16778.8
754.666	16805.69
755.004	16857.21
755.342	16954.38
755.679	17052.46
756.017	16993.71
756.355	17113.93
756.693	17151.22
757.031	17308.05
757.368	17310.76
