Data from hue_320_FLMS001491_5.txt Node
Date: Mon Feb 06 15:46:37 GMT 2017
User: dcchb
Spectrometer: FLMS00149
Trigger mode: 0
Integration Time (sec): 2.000000E-2
Scans to average: 10
Electric dark correction enabled: true
Nonlinearity correction enabled: false
Boxcar width: 0
XAxis mode: Wavelengths
Number of Pixels in Spectrum: 2048
>>>>>Begin Spectral Data<<<<<
341.393	-16.13
341.776	-16.13
342.16	-16.13
342.543	-54.55
342.927	-52.74
343.31	-57.48
343.693	-58.61
344.077	-72.63
344.46	-47.09
344.843	-37.82
345.226	-51.83
345.61	-49.57
345.993	-30.82
346.376	0.14
346.759	29.74
347.142	14.15
347.525	21.61
347.908	70.65
348.291	80.82
348.674	92.57
349.057	96.18
349.44	122.62
349.823	149.74
350.206	170.31
350.588	196.75
350.971	188.61
351.354	237.88
351.737	249.4
352.119	259.57
352.502	261.38
352.884	263.19
353.267	283.52
353.65	294.82
354.032	318.1
354.414	319
354.797	310.19
355.179	344.76
355.562	317.2
355.944	330.3
356.326	344.76
356.709	333.47
357.091	338.21
357.473	315.84
357.855	361.49
358.238	337.08
358.62	342.73
359.002	362.17
359.384	337.76
359.766	357.42
360.148	345.67
360.53	363.07
360.912	331.88
361.294	352
361.676	328.72
362.057	340.47
362.439	340.25
362.821	345.22
363.203	350.41
363.584	320.13
363.966	325.1
364.348	338.89
364.729	334.14
365.111	335.5
365.493	319.45
365.874	328.72
366.256	337.76
366.637	346.12
367.019	301.83
367.4	322.62
367.781	341.15
368.163	325.78
368.544	316.29
368.925	322.84
369.306	328.04
369.688	321.49
370.069	322.39
370.45	342.73
370.831	318.32
371.212	309.96
371.593	326.91
371.974	333.92
372.355	299.12
372.736	324.88
373.117	306.12
373.498	329.62
373.879	325.1
374.26	300.7
374.641	335.5
375.021	320.58
375.402	335.73
375.783	325.78
376.163	328.72
376.544	328.72
376.925	341.83
377.305	338.44
377.686	342.73
378.066	349.28
378.447	340.47
378.827	339.79
379.208	371.2
379.588	345.67
379.968	325.56
380.349	331.21
380.729	331.88
381.109	365.1
381.489	350.64
381.87	317.65
382.25	346.57
382.63	349.51
383.01	338.66
383.39	350.41
383.77	360.13
384.15	352
384.53	363.52
384.91	397.64
385.29	346.12
385.67	354.71
386.049	362.62
386.429	347.48
386.809	345.67
387.189	347.48
387.568	357.87
387.948	351.09
388.328	361.94
388.707	371.43
389.087	377.31
389.466	375.95
389.846	366.69
390.225	371.88
390.605	372.56
390.984	378.66
391.363	369.17
391.743	391.32
392.122	398.55
392.501	380.02
392.881	382.5
393.26	388.83
393.639	380.24
394.018	375.05
394.397	381.83
394.776	378.44
395.155	384.31
395.534	396.74
395.913	400.13
396.292	407.36
396.671	390.64
397.05	408.72
397.429	397.87
397.808	379.79
398.186	389.51
398.565	419.11
398.944	408.94
399.323	409.85
399.701	426.8
400.08	418.89
400.458	429.51
400.837	428.6
401.215	438.77
401.594	403.52
401.972	417.98
402.351	400.36
402.729	437.87
403.107	441.26
403.486	431.09
403.864	431.32
404.242	418.66
404.62	461.6
404.999	466.8
405.377	435.84
405.755	443.07
406.133	445.78
406.511	442.84
406.889	455.72
407.267	466.8
407.645	454.37
408.023	484.2
408.401	483.74
408.779	481.26
409.156	472.9
409.534	514.93
409.912	474.48
410.29	532.33
410.667	511.77
411.045	494.14
411.422	501.6
411.8	505.89
412.178	530.52
412.555	527.13
412.933	539.56
413.31	549.96
413.687	544.31
414.065	557.87
414.442	546.34
414.819	557.64
415.197	573.23
415.574	610.97
415.951	601.48
416.328	590.41
416.705	576.62
417.082	610.07
417.46	631.54
417.837	621.59
418.214	616.62
418.591	624.53
418.967	644.64
419.344	667.02
419.721	665.89
420.098	635.6
420.475	664.3
420.852	689.16
421.228	706.34
421.605	693
421.982	705.66
422.358	728.03
422.735	702.04
423.111	733.46
423.488	729.61
423.864	733.23
424.241	740.46
424.617	734.59
424.994	744.98
425.37	740.01
425.746	766.22
426.123	762.83
426.499	780.01
426.875	770.52
427.251	796.5
427.627	790.85
428.003	823.85
428.379	806.9
428.756	829.5
429.132	825.2
429.507	828.82
429.883	851.87
430.259	854.13
430.635	862.94
431.011	849.38
431.387	905.65
431.763	891.19
432.138	899.55
432.514	932.32
432.89	931.64
433.265	975.48
433.641	947.01
434.016	959.66
434.392	984.75
434.767	986.56
435.143	989.27
435.518	998.31
435.894	1005.31
436.269	1029.27
436.644	1035.14
437.02	1015.03
437.395	1037.85
437.77	1038.98
438.145	1075.59
438.52	1083.5
438.895	1075.59
439.271	1084.63
439.646	1131.41
440.021	1118.98
440.395	1128.25
440.77	1096.16
441.145	1096.84
441.52	1144.97
441.895	1148.36
442.27	1147.68
442.645	1156.95
443.019	1184.06
443.394	1170.96
443.769	1154.46
444.143	1168.25
444.518	1166.44
444.892	1162.82
445.267	1190.84
445.641	1187.91
446.016	1192.2
446.39	1203.73
446.764	1192.43
447.139	1216.38
447.513	1202.82
447.887	1223.61
448.262	1255.25
448.636	1234.23
449.01	1219.54
449.384	1226.32
449.758	1259.32
450.132	1274.01
450.506	1264.97
450.88	1262.25
451.254	1258.87
451.628	1264.97
452.002	1288.92
452.376	1289.6
452.75	1299.54
453.123	1307.45
453.497	1318.52
453.871	1313.78
454.244	1341.12
454.618	1362.14
454.992	1362.82
455.365	1351.74
455.739	1379.99
456.112	1396.71
456.486	1396.71
456.859	1408.69
457.232	1436.49
457.606	1429.26
457.979	1423.15
458.352	1452.08
458.725	1486.88
459.099	1439.43
459.472	1497.73
459.845	1495.7
460.218	1508.35
460.591	1504.73
460.964	1505.41
461.337	1565.3
461.71	1557.16
462.083	1563.26
462.456	1556.48
462.829	1566.43
463.201	1574.11
463.574	1634.22
463.947	1616.14
464.32	1631.74
464.692	1682.13
465.065	1694.79
465.438	1683.26
465.81	1684.16
466.183	1685.52
466.555	1753.09
466.928	1722.81
467.3	1752.86
467.672	1776.37
468.045	1814.56
468.417	1802.35
468.789	1801.45
469.161	1782.92
469.534	1863.6
469.906	1868.57
470.278	1882.58
470.65	1853.43
471.022	1917.6
471.394	1939.07
471.766	1946.76
472.138	1944.04
472.51	2010.71
472.882	2033.99
473.253	2032.63
473.625	2051.16
473.997	2111.95
474.369	2075.79
474.74	2123.25
475.112	2118.28
475.484	2150.14
475.855	2205.51
476.227	2212.51
476.598	2251.61
476.97	2276.92
477.341	2280.76
477.713	2304.04
478.084	2311.27
478.455	2386.29
478.827	2412.06
479.198	2456.35
479.569	2465.16
479.94	2471.71
480.311	2500.64
480.682	2577.47
481.053	2590.36
481.424	2589
481.795	2627.64
482.166	2634.87
482.537	2692.27
482.908	2723.91
483.279	2746.74
483.65	2766.85
484.021	2817.24
484.391	2821.08
484.762	2856.79
485.133	2882.33
485.503	2902.66
485.874	2971.36
486.244	2973.17
486.615	3025.37
486.985	3063.11
487.356	3085.71
487.726	3101.3
488.097	3173.84
488.467	3174.3
488.837	3229.66
489.207	3246.38
489.578	3271.69
489.948	3285.48
490.318	3366.61
490.688	3363.89
491.058	3391.24
491.428	3439.82
491.798	3440.5
492.168	3494.06
492.538	3517.11
492.908	3540.39
493.278	3578.35
493.648	3551.01
494.017	3665.81
494.387	3639.82
494.757	3656.77
495.126	3678.69
495.496	3728.86
495.866	3734.73
496.235	3760.49
496.605	3769.99
496.974	3828.74
497.344	3845.24
497.713	3834.84
498.082	3884.11
498.452	3936.76
498.821	3915.52
499.19	3872.13
499.559	3949.42
499.928	3982.64
500.298	3967.27
500.667	3993.26
501.036	3960.26
501.405	4063.54
501.774	4038.91
502.143	4042.75
502.512	4040.71
502.88	4127.49
503.249	4106.02
503.618	4118.9
503.987	4167.04
504.356	4140.15
504.724	4215.62
505.093	4202.06
505.462	4195.06
505.83	4245.68
506.199	4273.7
506.567	4275.06
506.936	4291.33
507.304	4326.13
507.672	4313.7
508.041	4339.69
508.409	4297.66
508.777	4325.45
509.145	4366.81
509.514	4320.48
509.882	4362.51
510.25	4411.55
510.618	4429.18
510.986	4434.83
511.354	4506.24
511.722	4488.61
512.09	4553.92
512.458	4517.76
512.826	4548.72
513.193	4575.61
513.561	4543.52
513.929	4547.14
514.297	4654.26
514.664	4630.08
515.032	4572.68
515.4	4665.33
515.767	4623.97
516.135	4677.08
516.502	4653.13
516.869	4708.27
517.237	4697.87
517.604	4662.39
517.972	4734.48
518.339	4717.76
518.706	4698.1
519.073	4760.69
519.44	4745.55
519.808	4803.4
520.175	4822.39
520.542	4815.61
520.909	4853.8
521.276	4825.78
521.643	4870.07
522.009	4892.44
522.376	4878.66
522.743	4927.7
523.11	4957.53
523.477	5012.21
523.843	4997.75
524.21	5007.02
524.577	5048.6
524.943	5078.2
525.31	5065.32
525.676	5144.19
526.043	5124.98
526.409	5175.15
526.776	5205.88
527.142	5229.38
527.508	5281.13
527.874	5280
528.241	5295.14
528.607	5283.62
528.973	5351.19
529.339	5376.05
529.705	5451.98
530.071	5435.25
530.437	5458.98
530.803	5508.02
531.169	5531.75
531.535	5536.49
531.901	5531.75
532.267	5587.11
532.632	5614.23
532.998	5576.49
533.364	5672.31
533.73	5633.21
534.095	5711.4
534.461	5671.4
534.826	5747.11
535.192	5746.43
535.557	5790.5
535.923	5804.28
536.288	5840.21
536.653	5851.96
537.019	5841.12
537.384	5910.95
537.749	5917.5
538.114	5928.12
538.479	5959.53
538.845	5955.24
539.21	5967.22
539.575	5987.55
539.94	6011.06
540.305	6100.55
540.67	6117.49
541.034	6093.99
541.399	6141.22
541.764	6159.08
542.129	6180.09
542.494	6233.2
542.858	6231.84
543.223	6279.52
543.587	6294.44
543.952	6271.39
544.316	6318.39
544.681	6370.6
545.045	6332.4
545.41	6395.68
545.774	6418.96
546.138	6402.91
546.503	6454.43
546.867	6494.21
547.231	6552.06
547.595	6526.07
547.959	6569.69
548.324	6524.72
548.688	6583.24
549.052	6670.47
549.416	6646.29
549.779	6666.18
550.143	6711.6
550.507	6735.56
550.871	6749.79
551.235	6712.28
551.599	6775.33
551.962	6765.84
552.326	6840.64
552.689	6881.09
553.053	6879.96
553.417	6902.56
553.78	6926.06
554.143	6896.68
554.507	6982.56
554.87	6980.97
555.234	7019.17
555.597	7006.74
555.96	7054.42
556.323	7061.42
556.686	7078.15
557.05	7134.42
557.413	7186.39
557.776	7103.46
558.139	7138.48
558.502	7176.22
558.865	7187.3
559.228	7232.72
559.59	7247.86
559.953	7264.81
560.316	7353.17
560.679	7323.79
561.041	7336.67
561.404	7384.35
561.767	7404.01
562.129	7379.38
562.492	7453.05
562.854	7481.75
563.217	7426.84
563.579	7570.79
563.941	7572.15
564.304	7501.19
564.666	7675.42
565.028	7593.16
565.39	7666.15
565.753	7659.15
566.115	7718.36
566.477	7718.58
566.839	7786.38
567.201	7765.59
567.563	7800.84
567.925	7828.41
568.287	7845.58
568.648	7901.4
569.01	7894.17
569.372	8013.49
569.734	7954.96
570.095	8031.34
570.457	8067.73
570.819	8104.79
571.18	8089.42
571.542	8175.97
571.903	8157.67
572.265	8237.44
572.626	8320.15
572.987	8335.52
573.349	8324.89
573.71	8446.02
574.071	8422.97
574.432	8554.49
574.794	8641.04
575.155	8675.85
575.516	8654.83
575.877	8753.81
576.238	8820.25
576.599	8934.37
576.96	8874.26
577.32	9018.89
577.681	9112.44
578.042	9186.57
578.403	9295.72
578.763	9395.37
579.124	9470.4
579.485	9587.91
579.845	9715.59
580.206	9726.21
580.566	9847.57
580.927	10011.4
581.287	10175.47
581.648	10275.35
582.008	10416.82
582.368	10539.98
582.728	10728.67
583.089	10891.38
583.449	11052.05
583.809	11201.88
584.169	11395.77
584.529	11528.2
584.889	11831.47
585.249	11952.14
585.609	12176.09
585.969	12380.83
586.329	12559.59
586.688	12904.21
587.048	13052.91
587.408	13238.44
587.768	13490.18
588.127	13706.9
588.487	13952.09
588.846	14362.48
589.206	14588.23
589.565	14862.8
589.925	15196.13
590.284	15341.43
590.643	15682.44
591.003	15993.84
591.362	16301.18
591.721	16614.85
592.08	16836.31
592.44	17242.4
592.799	17585.22
593.158	17799
593.517	18123.28
593.876	18506.1
594.235	18763.49
594.593	19076.7
594.952	19520.98
595.311	19715.78
595.67	20112.38
596.029	20557.79
596.387	20805.47
596.746	21224.44
597.104	21404.32
597.463	21755.95
597.822	22081.59
598.18	22330.63
598.538	22711.18
598.897	23113.21
599.255	23350.71
599.613	23853.53
599.972	24009.45
600.33	24507.75
600.688	24509.33
601.046	25049.88
601.404	25310.21
601.762	25711.33
602.12	26035.16
602.478	26405.55
602.836	26592.66
603.194	26782.71
603.552	27076.27
603.91	27334.11
604.268	27744.5
604.625	27902.91
604.983	28423.8
605.341	28417.47
605.698	28787.86
606.056	29196.44
606.413	29539.93
606.771	29637.55
607.128	30040.03
607.485	30155.51
607.843	30386.23
608.2	30917.75
608.557	31034.35
608.914	31244.07
609.272	31691.74
609.629	31912.75
609.986	32256.92
610.343	32296.47
610.7	32653.29
611.057	32842.67
611.414	32976
611.771	33313.84
612.127	33496.21
612.484	33679.26
612.841	33960.83
613.198	34093.71
613.554	34332.35
613.911	34565.33
614.267	34729.85
614.624	34850.3
614.98	35007.36
615.337	35414.35
615.693	35523.05
616.05	35637.17
616.406	35897.28
616.762	36034.45
617.118	36158.06
617.475	36277.38
617.831	36581.33
618.187	36704.71
618.543	36795.33
618.899	37213.17
619.255	37240.52
619.611	37344.92
619.967	37574.75
620.323	37744.69
620.678	37542.43
621.034	37863.55
621.39	37878.92
621.746	38009.31
622.101	38582.86
622.457	38269.42
622.812	38400.04
623.168	38583.76
623.523	38668.73
623.879	38965.67
624.234	38624.89
624.589	39019.45
624.945	39014.48
625.3	39297.19
625.655	39107.36
626.01	39348.94
626.365	39658.31
626.72	39517.75
627.075	39623.28
627.43	39752.32
627.785	39555.26
628.14	39713.22
628.495	39837.29
628.85	39917.28
629.205	39830.96
629.559	40070.95
629.914	39985.3
630.269	40034.34
630.623	39837.96
630.978	40027.56
631.332	40292.64
631.687	40345.52
632.041	40062.36
632.396	40313.66
632.75	40054.68
633.104	40387.1
633.459	40250.61
633.813	40115.24
634.167	40169.03
634.521	40200.67
634.875	40339.87
635.229	40268.01
635.583	40245.86
635.937	40178.52
636.291	40202.93
636.645	40212.87
636.999	40171.06
637.352	40436.14
637.706	40190.95
638.06	40406.76
638.413	40318.4
638.767	40138.97
639.121	40320.66
639.474	40088.58
639.828	40206.54
640.181	40205.41
640.534	40335.58
640.888	40082.48
641.241	40066.21
641.594	40116.15
641.947	40182.81
642.301	40111.85
642.654	40123.38
643.007	40267.11
643.36	40139.65
643.713	39933.1
644.066	40192.53
644.419	40003.16
644.771	39744.86
645.124	39522.27
645.477	39492.21
645.83	39196.17
646.182	39081.37
646.535	39028.27
646.888	39041.15
647.24	38941.26
647.593	39046.12
647.945	39097.42
648.298	38959.79
648.65	38633.93
649.002	38864.2
649.355	38873.02
649.707	38875.96
650.059	38927.03
650.411	39546.67
650.763	39518.88
651.115	39953.67
651.467	39792.54
651.819	39805.65
652.171	39765.42
652.523	39635.48
652.875	39664.18
653.227	39469.16
653.578	39796.16
653.93	39742.15
654.282	39531.08
654.633	39331.08
654.985	39591.42
655.337	39502.61
655.688	39605.2
656.039	39534.02
656.391	39314.81
656.742	39520.91
657.094	39378.99
657.445	39636.39
657.796	39498.31
658.147	39491.31
658.498	39480.01
658.849	39486.33
659.2	39403.4
659.551	39357.98
659.902	39540.57
660.253	39467.8
660.604	39369.05
660.955	39235.04
661.306	39362.5
661.656	39157.3
662.007	39298.54
662.358	39398.88
662.708	39313.68
663.059	39204.99
663.409	39068.72
663.76	39253.8
664.11	39281.59
664.461	39300.12
664.811	39344.64
665.161	39225.1
665.511	39038.66
665.862	39207.47
666.212	39307.13
666.562	39405.88
666.912	39202.95
667.262	39200.47
667.612	39204.53
667.962	39271.65
668.312	39195.72
668.662	39337.86
669.011	39201.82
669.361	39047.48
669.711	39081.83
670.06	39062.39
670.41	39007.93
670.76	39016.97
671.109	39296.51
671.459	39037.08
671.808	39077.31
672.157	39110.07
672.507	38855.16
672.856	38741.72
673.205	39023.07
673.554	39173.57
673.904	39020.81
674.253	39239.11
674.602	38991.66
674.951	38407.72
675.3	38138.12
675.649	38740.37
675.998	38792.57
676.346	38796.41
676.695	38844.54
677.044	38628.28
677.393	38823.3
677.741	38743.3
678.09	38643.87
678.438	38617.2
678.787	38679.8
679.135	38665.57
679.484	38413.37
679.832	38577.43
680.181	38345.57
680.529	38456.76
680.877	38382.63
681.225	38421.05
681.573	38567.49
681.922	38275.74
682.27	38139.48
682.618	38115.98
682.966	38086.82
683.314	38108.52
683.661	38023.32
684.009	37908.97
684.357	37805.47
684.705	37768.41
685.053	37779.71
685.4	37739.71
685.748	37572.71
686.095	37525.03
686.443	37462.89
686.79	37441.42
687.138	37497.01
687.485	37397.8
687.832	37356
688.18	37371.36
688.527	37243
688.874	37136.34
689.221	37182.44
689.568	36914.65
689.915	36874.2
690.262	36854.31
690.609	36632.4
690.956	36690.93
691.303	36549.24
691.65	36412.07
691.997	36458.17
692.344	36277.15
692.69	36276.25
693.037	36272.86
693.383	36001.45
693.73	36105.18
694.077	35839.88
694.423	35865.19
694.769	35751.52
695.116	35789.03
695.462	35656.6
695.808	35558.98
696.155	35596.27
696.501	35294.58
696.847	35415.26
697.193	35174.13
697.539	35261.59
697.885	34971.88
698.231	34909.28
698.577	34857.3
698.923	34891.88
699.269	34686.46
699.614	34642.85
699.96	34459.35
700.306	34585.67
700.651	34241.05
700.997	34262.74
701.342	34201.5
701.688	34058
702.033	34085.35
702.379	33912.7
702.724	33952.02
703.069	33973.71
703.415	33468.19
703.76	33549.32
704.105	33538.24
704.45	33550.45
704.795	33293.73
705.14	33227.29
705.485	33266.16
705.83	32981.42
706.175	33102.32
706.52	33008.99
706.865	32840.86
707.209	32818.04
707.554	32775.78
707.899	32869.79
708.243	32696.23
708.588	32589.11
708.932	32361.78
709.277	32343.7
709.621	32303.25
709.966	32175.11
710.31	32354.77
710.654	32021.9
710.998	31986.42
711.342	32116.81
711.687	32016.7
712.031	31660.78
712.375	31738.29
712.719	31770.61
713.063	31672.53
713.407	31817.61
713.75	31605.41
714.094	31485.42
714.438	31529.71
714.782	31418.98
715.125	31358.86
715.469	31288.81
715.812	31252.88
716.156	31091.3
716.499	31067.35
716.843	31033.45
717.186	30957.29
717.53	31082.71
717.873	31009.72
718.216	30853.79
718.559	30738.54
718.902	30573.12
719.246	30698.77
719.589	30526.12
719.932	30391.43
720.275	30506.23
720.617	30363.64
720.96	30299.23
721.303	30375.16
721.646	30386.69
721.989	30087.03
722.331	30314.15
722.674	30159.8
723.016	30195.51
723.359	30096.3
723.701	29997.09
724.044	29871.9
724.386	29859.47
724.729	29845.46
725.071	29711.9
725.413	29695.86
725.755	29576.76
726.097	29682.75
726.439	29335.42
726.782	29500.83
727.124	29602.07
727.465	29358.92
727.807	29416.77
728.149	29318.01
728.491	29263.55
728.833	29281.18
729.175	29066.04
729.516	29158.47
729.858	29048.42
730.199	29108.08
730.541	28975.65
730.882	28968.42
731.224	29037.12
731.565	28840.96
731.906	28986.05
732.248	28980.4
732.589	28654.3
732.93	28649.78
733.271	28715.09
733.612	28685.71
733.953	28711.48
734.294	28474.42
734.635	28380.64
734.976	28445.95
735.317	28374.99
735.658	28284.82
735.999	28376.8
736.339	28330.24
736.68	28455.21
737.021	28214.31
737.361	28093.41
737.702	28340.19
738.042	28126.18
738.383	28123.24
738.723	28176.12
739.063	28034.66
739.404	28019.29
739.744	28048.9
740.084	27810.94
740.424	27890.48
740.764	27825.4
741.104	27987.43
741.444	27740.65
741.784	27707.66
742.124	27837.15
742.464	27624.5
742.804	27644.16
743.143	27490.04
743.483	27648.68
743.823	27404.17
744.162	27466.99
744.502	27430.61
744.841	27324.17
745.181	27363.72
745.52	27173.21
745.86	27335.47
746.199	27177.73
746.538	27117.85
746.877	27188.58
747.216	27187.45
747.556	27058.86
747.895	27121.69
748.234	26957.85
748.573	26957.4
748.911	26843.05
749.25	26897.74
749.589	26792.88
749.928	26827.91
750.267	26805.99
750.605	26624.53
750.944	26589.05
751.283	26603.74
751.621	26561.7
751.96	26476.51
752.298	26273.8
752.636	26356.28
752.975	26270.86
753.313	26159.91
753.651	26266.34
753.989	26146.57
754.327	26052.34
754.666	25981.6
755.004	26010.53
755.342	25998.1
755.679	25978.22
756.017	25847.82
756.355	25865.9
756.693	25677.66
757.031	25809.18
757.368	25644.44
757.706	25510.88
758.044	25499.36
758.381	25577.55
758.719	25325.35
759.056	25274.96
759.394	25400.15
759.731	25153.38
