Data from hue_130_FLMS001491_00060.txt Node
Date: Tue Feb 07 16:57:49 GMT 2017
User: dcchb
Spectrometer: FLMS00149
Trigger mode: 0
Integration Time (sec): 2.000000E-2
Scans to average: 10
Electric dark correction enabled: true
Nonlinearity correction enabled: false
Boxcar width: 0
XAxis mode: Wavelengths
Number of Pixels in Spectrum: 2048
>>>>>Begin Spectral Data<<<<<
341.393	-22.19
341.776	-22.19
342.16	-22.19
342.543	-62.87
342.927	-76.65
343.31	-67.16
343.693	-75.75
344.077	-59.48
344.46	-68.06
344.843	-42.3
345.226	-42.3
345.61	-7.5
345.993	-37.1
346.376	-6.82
346.759	1.99
347.142	32.27
347.525	46.06
347.908	47.41
348.291	67.3
348.674	104.81
349.057	106.62
349.44	144.59
349.823	153.85
350.206	155.43
350.588	217.35
350.971	215.32
351.354	233.62
351.737	234.98
352.119	254.87
352.502	268.2
352.884	276.33
353.267	272.27
353.65	272.27
354.032	308.88
354.414	300.97
354.797	307.75
355.179	318.82
355.562	319.05
355.944	327.86
356.326	347.97
356.709	325.82
357.091	328.31
357.473	334.64
357.855	338.71
358.238	333.51
358.62	336.45
359.002	325.15
359.384	331.02
359.766	353.17
360.148	332.83
360.53	340.74
360.912	336.67
361.294	338.48
361.676	330.8
362.057	330.12
362.439	341.87
362.821	334.86
363.203	319.05
363.584	344.13
363.966	342.32
364.348	324.47
364.729	305.49
365.111	304.81
365.493	326.05
365.874	324.92
366.256	303.68
366.637	316.33
367.019	325.6
367.4	296.22
367.781	332.6
368.163	307.97
368.544	335.09
368.925	321.31
369.306	309.55
369.688	319.95
370.069	313.85
370.45	305.03
370.831	305.49
371.212	324.69
371.593	314.53
371.974	311.14
372.355	322.66
372.736	307.97
373.117	327.18
373.498	324.24
373.879	312.27
374.26	303
374.641	313.17
375.021	325.82
375.402	320.85
375.783	342.1
376.163	350.91
376.544	302.55
376.925	349.55
377.305	328.76
377.686	329.89
378.066	335.32
378.447	334.41
378.827	332.83
379.208	348.2
379.588	345.94
379.968	344.58
380.349	338.03
380.729	330.34
381.109	321.76
381.489	331.7
381.87	346.62
382.25	355.65
382.63	338.48
383.01	364.24
383.39	348.65
383.77	345.26
384.15	364.47
384.53	366.5
384.91	359.72
385.29	359.72
385.67	360.4
386.049	371.02
386.429	370.12
386.809	369.21
387.189	373.73
387.568	358.82
387.948	361.53
388.328	370.34
388.707	373.73
389.087	356.11
389.466	356.56
389.846	370.8
390.225	384.81
390.605	365.37
390.984	369.44
391.363	367.63
391.743	389.1
392.122	371.25
392.501	384.58
392.881	396.78
393.26	397.01
393.639	386.39
394.018	371.02
394.397	404.24
394.776	393.39
395.155	398.14
395.534	409.66
395.913	398.37
396.292	415.54
396.671	403.11
397.05	388.87
397.429	392.04
397.808	422.55
398.186	387.29
398.565	409.89
398.944	406.27
399.323	412.83
399.701	422.32
400.08	412.15
400.458	401.98
400.837	419.83
401.215	393.85
401.594	418.25
401.972	429.1
402.351	425.94
402.729	425.03
403.107	412.6
403.486	434.97
403.864	432.26
404.242	439.95
404.62	437.01
404.999	443.34
405.377	440.85
405.755	430.45
406.133	436.33
406.511	451.02
406.889	445.6
407.267	462.09
407.645	430.23
408.023	455.99
408.401	440.4
408.779	465.26
409.156	462.32
409.534	459.15
409.912	458.02
410.29	462.32
410.667	465.71
411.045	492.83
411.422	474.97
411.8	477.46
412.178	498.7
412.555	490.79
412.933	480.4
413.31	497.57
413.687	502.32
414.065	503.9
414.442	505.26
414.819	515.2
415.197	502.09
415.574	524.92
415.951	526.27
416.328	526.72
416.705	519.49
417.082	520.62
417.46	528.98
417.837	515.2
418.214	534.41
418.591	563.33
418.967	555.42
419.344	535.76
419.721	557.01
420.098	562.88
420.475	519.04
420.852	572.82
421.228	550.9
421.605	568.53
421.982	547.29
422.358	556.1
422.735	588.19
423.111	588.42
423.488	573.28
423.864	597
424.241	586.61
424.617	582.09
424.994	584.58
425.37	609.66
425.746	624.35
426.123	605.14
426.499	611.02
426.875	611.24
427.251	614.4
427.627	608.53
428.003	648.75
428.379	637.68
428.756	655.53
429.132	643.78
429.507	681.07
429.883	674.74
430.259	675.65
430.635	678.36
431.011	688.3
431.387	687.62
431.763	692.14
432.138	685.14
432.514	693.95
432.89	699.6
433.265	713.16
433.641	755.87
434.016	724.91
434.392	732.14
434.767	743.21
435.143	735.08
435.518	749.32
435.894	757
436.269	759.94
436.644	749.77
437.02	769.88
437.395	780.73
437.77	800.61
438.145	804.46
438.52	793.16
438.895	822.76
439.271	822.76
439.646	815.3
440.021	818.47
440.395	815.53
440.77	875.19
441.145	837.9
441.52	835.87
441.895	844.46
442.27	850.33
442.645	857.11
443.019	864.79
443.394	873.61
443.769	903.21
444.143	871.35
444.518	892.82
444.892	881.06
445.267	902.08
445.641	929.88
446.016	899.37
446.39	899.82
446.764	917
447.139	891.46
447.513	941.85
447.887	933.49
448.262	944.11
448.636	967.84
449.01	957.22
449.384	949.76
449.758	981.85
450.132	968.29
450.506	992.02
450.88	991.8
451.254	986.37
451.628	1023.66
452.002	1016.65
452.376	1048.07
452.75	1050.33
453.123	1030.66
453.497	1047.39
453.871	1039.7
454.244	1099.59
454.618	1108.4
454.992	1091
455.365	1117.67
455.739	1126.48
456.112	1116.76
456.486	1144.79
456.859	1128.06
457.232	1189.08
457.606	1172.36
457.979	1177.1
458.352	1191.79
458.725	1232.92
459.099	1260.26
459.472	1252.58
459.845	1258.91
460.218	1266.14
460.591	1262.75
460.964	1289.64
461.337	1324.89
461.71	1336.87
462.083	1375.74
462.456	1397.89
462.829	1408.06
463.201	1408.73
463.574	1411.67
463.947	1427.94
464.32	1490.31
464.692	1477.66
465.065	1474.27
465.438	1526.47
465.81	1550.88
466.183	1532.57
466.555	1592.46
466.928	1620.93
467.3	1611.89
467.672	1668.61
468.045	1680.82
468.417	1704.09
468.789	1730.53
469.161	1753.36
469.534	1774.15
469.906	1796.29
470.278	1834.94
470.65	1877.87
471.022	1905.44
471.394	1942.73
471.766	1985.89
472.138	1995.16
472.51	2042.84
472.882	2135.72
473.253	2140.01
473.625	2190.86
473.997	2246.9
474.369	2236.96
474.74	2294.81
475.112	2371.19
475.484	2441.48
475.855	2452.32
476.227	2518.76
476.598	2592.66
476.97	2636.05
477.341	2739.32
477.713	2787
478.084	2843.72
478.455	2936.38
478.827	3004.62
479.198	3049.37
479.569	3151.51
479.94	3274.22
480.311	3322.36
480.682	3405.52
481.053	3505.4
481.424	3605.29
481.795	3721.89
482.166	3798.05
482.537	3865.17
482.908	3966.63
483.279	4075.56
483.65	4181.54
484.021	4341.99
484.391	4422.89
484.762	4475.32
485.133	4611.81
485.503	4731.81
485.874	4856.1
486.244	5043.44
486.615	5167.96
486.985	5219.26
487.356	5411.11
487.726	5494.28
488.097	5682.97
488.467	5755.06
488.837	5928.62
489.207	6033.7
489.578	6253.13
489.948	6369.28
490.318	6506.45
490.688	6594.36
491.058	6804.75
491.428	6929.72
491.798	7102.82
492.168	7251.29
492.538	7332.65
492.908	7472.08
493.278	7677.27
493.648	7769.7
494.017	7926.08
494.387	8085.85
494.757	8235
495.126	8402.45
495.496	8485.16
495.866	8526.06
496.235	8721.76
496.605	8867.3
496.974	9045.37
497.344	9138.93
497.713	9262.76
498.082	9365.36
498.452	9486.49
498.821	9643.77
499.19	9680.16
499.559	9852.35
499.928	9989.53
500.298	10096.64
500.667	10161.5
501.036	10288.73
501.405	10384.77
501.774	10481.72
502.143	10638.32
502.512	10723.52
502.88	10829.5
503.249	10875.83
503.618	11031.53
503.987	11056.16
504.356	11196.95
504.724	11287.34
505.093	11262.71
505.462	11359.88
505.83	11488.7
506.199	11629.26
506.567	11805.97
506.936	11753.55
507.304	11871.74
507.672	11975.69
508.041	11962.81
508.409	12184.5
508.777	12212.29
509.145	12398.05
509.514	12286.64
509.882	12424.49
510.25	12450.25
510.618	12557.37
510.986	12654.99
511.354	12708.32
511.722	12767.53
512.09	12920.3
512.458	12923.01
512.826	13038.03
513.193	13014.98
513.561	13048.2
513.929	13164.81
514.297	13182.21
514.664	13357.57
515.032	13339.95
515.4	13400.74
515.767	13434.18
516.135	13540.62
516.502	13449.77
516.869	13699.48
517.237	13680.73
517.604	13641.86
517.972	13726.6
518.339	13761.4
518.706	13791.01
519.073	13875.07
519.44	13789.65
519.808	13936.54
520.175	13979.93
520.542	14048.63
520.909	14114.84
521.276	14098.57
521.643	14172.92
522.009	14229.19
522.376	14266.48
522.743	14298.79
523.11	14360.26
523.477	14420.37
523.843	14385.12
524.21	14626.69
524.577	14575.39
524.943	14623.08
525.31	14580.14
525.676	14769.51
526.043	14792.56
526.409	14798.21
526.776	14854.03
527.142	14946.01
527.508	14798.21
527.874	14886.12
528.241	14919.11
528.607	14954.82
528.973	14997.08
529.339	14974.48
529.705	15030.75
530.071	15034.36
530.437	15067.58
530.803	15150.75
531.169	15052.9
531.535	15058.54
531.901	15024.87
532.267	15062.16
532.632	15061.93
532.998	15113.68
533.364	15108.03
533.73	15077.98
534.095	15154.59
534.461	15153.91
534.826	15116.62
535.192	15149.39
535.557	15150.07
535.923	15032.56
536.288	15073.01
536.653	15079.79
537.019	14951.88
537.384	14962.73
537.749	14954.82
538.114	14922.96
538.479	14849.96
538.845	14902.16
539.21	14784.43
539.575	14797.08
539.94	14828.04
540.305	14810.42
540.67	14767.48
541.034	14795.5
541.399	14747.14
541.764	14805.44
542.129	14803.64
542.494	14761.6
542.858	14721.38
543.223	14541.95
543.587	14582.63
543.952	14491.55
544.316	14609.07
544.681	14512.57
545.045	14534.26
545.41	14515.96
545.774	14502.63
546.138	14423.31
546.503	14388.73
546.867	14296.53
547.231	14385.12
547.595	14356.42
547.959	14374.95
548.324	14186.7
548.688	14224.22
549.052	14186.48
549.416	14221.73
549.779	14123.2
550.143	14102.86
550.507	14089.3
550.871	14052.7
551.235	14059.93
551.599	14154.84
551.962	13969.76
552.326	14074.62
552.689	14079.36
553.053	13945.35
553.417	13882.76
553.78	14058.57
554.143	13900.16
554.507	13960.27
554.87	13958.23
555.234	13999.14
555.597	13836.43
555.96	13820.61
556.323	13819.03
556.686	13794.4
557.05	13853.38
557.413	13836.43
557.776	13807.5
558.139	13828.52
558.502	13806.37
558.865	13814.06
559.228	13742.65
559.59	13759.82
559.953	13766.83
560.316	13884.79
560.679	13823.55
561.041	13873.27
561.404	13923.66
561.767	13879.14
562.129	13885.02
562.492	13941.74
562.854	13845.7
563.217	13877.33
563.579	13928.4
563.941	13973.83
564.304	13976.09
564.666	14037.33
565.028	14012.7
565.39	13956.2
565.753	14032.36
566.115	14042.3
566.477	14047.95
566.839	14041.17
567.201	14149.87
567.563	14087.95
567.925	14118.91
568.287	14135.63
568.648	14103.32
569.01	14231
569.372	14250.2
569.734	14144.44
570.095	14159.81
570.457	14275.97
570.819	14160.26
571.18	14252.92
571.542	14249.98
571.903	14215.63
572.265	14237.78
572.626	14322.07
572.987	14304.89
573.349	14346.93
573.71	14309.86
574.071	14401.84
574.432	14423.31
574.794	14458.79
575.155	14432.35
575.516	14421.73
575.877	14486.58
576.238	14450.65
576.599	14468.05
576.96	14453.59
577.32	14488.62
577.681	14502.4
578.042	14469.18
578.403	14518.67
578.763	14456.3
579.124	14492.01
579.485	14434.38
579.845	14542.85
580.206	14478.67
580.566	14486.81
580.927	14514.38
581.287	14605.68
581.648	14512.34
582.008	14570.87
582.368	14484.32
582.728	14494.94
583.089	14472.35
583.449	14532.91
583.809	14472.35
584.169	14496.3
584.529	14436.64
584.889	14485.68
585.249	14383.53
585.609	14322.97
585.969	14438.9
586.329	14397.77
586.688	14444.55
587.048	14446.13
587.408	14395.51
587.768	14370.65
588.127	14304.21
588.487	14331.56
588.846	14385.79
589.206	14311.22
589.565	14290.66
589.925	14409.3
590.284	14367.94
590.643	14331.78
591.003	14350.99
591.362	14368.85
591.721	14369.07
592.08	14391.22
592.44	14420.6
592.799	14309.19
593.158	14305.12
593.517	14374.72
593.876	14400.93
594.235	14162.75
594.593	14238
594.952	14306.25
595.311	14237.1
595.67	14280.71
596.029	14289.98
596.387	14265.8
596.746	14224.22
597.104	14187.61
597.463	14157.33
597.822	14264.22
598.18	14250.43
598.538	14243.42
598.897	14237.55
599.255	14110.1
599.613	14315.06
599.972	14229.41
600.33	14199.36
600.688	14186.7
601.046	14181.28
601.404	14270.77
601.762	14247.49
602.12	14223.99
602.478	14277.55
602.836	14377.43
603.194	14064.67
603.552	14264.89
603.91	14182.86
604.268	14262.63
604.625	14240.26
604.983	14316.42
605.341	14219.02
605.698	14312.8
606.056	14233.48
606.413	14278.9
606.771	14314.38
607.128	14313.71
607.485	14310.09
607.843	14336.98
608.2	14359.81
608.557	14435.96
608.914	14296.98
609.272	14343.76
609.629	14372.46
609.986	14459.69
610.343	14294.5
610.7	14488.62
611.057	14389.18
611.414	14386.7
611.771	14392.8
612.127	14423.31
612.484	14407.26
612.841	14492.23
613.198	14459.69
613.554	14463.76
613.911	14599.8
614.267	14443.42
614.624	14439.8
614.98	14502.18
615.337	14608.16
615.693	14535.39
616.05	14546.24
616.406	14632.79
616.762	14583.08
617.118	14589.86
617.475	14593.02
617.831	14652.91
618.187	14542.17
618.543	14676.41
618.899	14727.48
619.255	14692.68
619.611	14681.83
619.967	14729.51
620.323	14869.62
620.678	14737.42
621.034	14661.27
621.39	14651.1
621.746	14610.87
622.101	14788.5
622.457	14744.65
622.812	14827.82
623.168	14780.13
623.523	14659.46
623.879	14760.7
624.234	14605.22
624.589	14705.11
624.945	14748.5
625.3	14664.2
625.655	14739.01
626.01	14800.92
626.365	14720.47
626.72	14674.6
627.075	14732
627.43	14756.86
627.785	14604.77
628.14	14647.26
628.495	14689.51
628.85	14665.11
629.205	14576.75
629.559	14741.04
629.914	14659.91
630.269	14683.19
630.623	14627.14
630.978	14546.92
631.332	14707.37
631.687	14670.31
632.041	14542.63
632.396	14597.31
632.75	14561.61
633.104	14550.99
633.459	14498.79
633.813	14508.28
634.167	14434.83
634.521	14442.52
634.875	14502.63
635.229	14423.08
635.583	14379.69
635.937	14408.62
636.291	14397.55
636.645	14383.76
636.999	14286.81
637.352	14399.8
637.706	14317.77
638.06	14324.55
638.413	14318.45
638.767	14318.9
639.121	14219.7
639.474	14199.36
639.828	14256.76
640.181	14204.33
640.534	14220.15
640.888	14226.02
641.241	14133.15
641.594	14191
641.947	14063.09
642.301	14146.48
642.654	14147.38
643.007	14144.9
643.36	14120.94
643.713	14064.45
644.066	14194.84
644.419	14047.72
644.771	14048.4
645.124	13813.15
645.477	13824
645.83	13721.63
646.182	13711.91
646.535	13650.22
646.888	13686.6
647.24	13495.2
647.593	13723.44
647.945	13620.16
648.298	13634.18
648.65	13545.14
649.002	13507.4
649.355	13654.29
649.707	13480.28
650.059	13601.41
650.411	13788.52
650.763	13775.64
651.115	13911.46
651.467	13877.11
651.819	13912.36
652.171	13870.1
652.523	13841.85
652.875	13859.93
653.227	13764.34
653.578	13914.85
653.93	13849.76
654.282	13879.37
654.633	13802.08
654.985	13931.34
655.337	13941.51
655.688	13866.03
656.039	13920.5
656.391	13901.51
656.742	13851.8
657.094	13894.28
657.445	13939.48
657.796	13849.31
658.147	13839.82
658.498	13833.72
658.849	13899.93
659.2	14005.69
659.551	13866.71
659.902	13956.2
660.253	13901.29
660.604	13886.37
660.955	13815.87
661.306	13939.03
661.656	13941.74
662.007	13872.14
662.358	13905.13
662.708	14048.4
663.059	13944.9
663.409	13837.33
663.76	13918.91
664.11	13868.52
664.461	14002.3
664.811	13945.58
665.161	13929.76
665.511	13913.26
665.862	13903.32
666.212	13941.51
666.562	13993.49
666.912	13898.58
667.262	13962.3
667.612	13991.91
667.962	14001.17
668.312	13986.03
668.662	13976.09
669.011	13922.76
669.361	13928.63
669.711	13899.25
670.06	13922.08
670.41	13875.07
670.76	13870.1
671.109	13904
671.459	13946.26
671.808	13854.73
672.157	13938.8
672.507	13857.45
672.856	13822.87
673.205	13779.71
673.554	13867.16
673.904	13757.56
674.253	13852.25
674.602	13834.62
674.951	13546.95
675.3	13525.93
675.649	13685.7
675.998	13670.11
676.346	13709.65
676.695	13724.79
677.044	13645.47
677.393	13624.68
677.741	13722.53
678.09	13695.42
678.438	13646.15
678.787	13624.68
679.135	13639.37
679.484	13537.91
679.832	13584.91
680.181	13459.04
680.529	13499.26
680.877	13504.91
681.225	13503.33
681.573	13556.66
681.922	13473.5
682.27	13410.45
682.618	13352.15
682.966	13399.15
683.314	13368.65
683.661	13327.52
684.009	13285.48
684.357	13320.29
684.705	13276.44
685.053	13226.5
685.4	13222.89
685.748	13195.09
686.095	13109.67
686.443	13148.54
686.79	13037.58
687.138	13065.38
687.485	13094.53
687.832	12949.9
688.18	12916.68
688.527	12945.83
688.874	12888.43
689.221	12814.76
689.568	12814.99
689.915	12810.47
690.262	12862.44
690.609	12716.01
690.956	12659.51
691.303	12725.5
691.65	12622
691.997	12608.21
692.344	12499.74
692.69	12466.52
693.037	12532.96
693.383	12412.96
693.73	12380.65
694.077	12269.01
694.423	12299.75
694.769	12288.22
695.116	12210.71
695.462	12191.95
695.808	12159.86
696.155	12125.06
696.501	12074.44
696.847	12087.32
697.193	11994.67
697.539	12046.19
697.885	11876.71
698.231	11893.66
698.577	11890.04
698.923	11915.35
699.269	11801.91
699.614	11728.01
699.96	11668.8
700.306	11652.31
700.651	11585.64
700.997	11596.71
701.342	11609.37
701.688	11497.73
702.033	11425.65
702.379	11460
702.724	11430.84
703.069	11430.17
703.415	11268.59
703.76	11193.79
704.105	11279.89
704.45	11214.58
704.795	11147.24
705.14	11075.82
705.485	11175.48
705.83	11025.2
706.175	11102.04
706.52	11104.3
706.865	11028.14
707.209	10994.47
707.554	10921.7
707.899	10902.5
708.243	10916.96
708.588	10883.29
708.932	10769.17
709.277	10702.05
709.621	10767.58
709.966	10710.18
710.31	10685.1
710.654	10609.62
710.998	10561.94
711.342	10674.93
711.687	10500.47
712.031	10501.83
712.375	10474.48
712.719	10476.52
713.063	10502.73
713.407	10507.93
713.75	10489.4
714.094	10456.63
714.438	10393.36
714.782	10430.64
715.125	10340.25
715.469	10269.29
715.812	10279.01
716.156	10279.69
716.499	10225.9
716.843	10234.26
717.186	10263.87
717.53	10179.58
717.873	10260.93
718.216	10232.91
718.559	10192.46
718.902	10132.57
719.246	10117.21
719.589	10138.22
719.932	10053.93
720.275	10029.3
720.617	10063.65
720.96	10000.37
721.303	10031.33
721.646	10069.52
721.989	9932.8
722.331	10089.86
722.674	9999.69
723.016	9989.3
723.359	9985.23
723.701	9970.99
724.044	9872.01
724.386	9841.73
724.729	9925.35
725.071	9953.14
725.413	9889.19
725.755	9907.49
726.097	9898
726.439	9827.27
726.782	9819.59
727.124	9874.27
727.465	9781.17
727.807	9813.03
728.149	9807.38
728.491	9738.91
728.833	9813.48
729.175	9837.67
729.516	9745.24
729.858	9769.64
730.199	9788.63
730.541	9712.47
730.882	9719.93
731.224	9810.32
731.565	9813.03
731.906	9729.42
732.248	9770.77
732.589	9727.61
732.93	9699.82
733.271	9719.48
733.612	9765.35
733.953	9676.77
734.294	9681.51
734.635	9656.2
734.976	9768.51
735.317	9629.53
735.658	9682.64
735.999	9738.91
736.339	9679.48
736.68	9721.06
737.021	9663.21
737.361	9715.63
737.702	9786.37
738.042	9659.82
738.383	9723.32
738.723	9782.98
739.063	9722.19
739.404	9751.34
739.744	9819.36
740.084	9743.66
740.424	9799.47
740.764	9809.87
741.104	9891.22
741.444	9836.76
741.784	9810.55
742.124	9841.05
742.464	9884.67
742.804	9876.53
743.143	9828.85
743.483	9898.45
743.823	9869.53
744.162	9939.36
744.502	9977.55
744.841	9963.31
745.181	10094.61
745.52	10086.92
745.86	10073.59
746.199	10159.69
746.538	10196.07
746.877	10243.08
747.216	10235.17
747.556	10281.72
747.895	10299.35
748.234	10378.67
748.573	10457.08
748.911	10433.13
749.25	10546.12
749.589	10507.03
749.928	10646.68
750.267	10799.45
750.605	10801.26
750.944	10809.62
751.283	10995.83
751.621	11072.21
751.96	11058.42
752.298	11179.78
752.636	11343.39
752.975	11360.34
753.313	11364.4
753.651	11570.5
753.989	11679.2
754.327	11756.26
754.666	11915.8
755.004	11991.96
755.342	12140.66
755.679	12346.3
756.017	12425.62
756.355	12538.16
756.693	12625.16
757.031	12810.02
757.368	12902.22
757.706	12974.98
758.044	13189.89
758.381	13423.79
