Data from hue_120_FLMS001491_00078.txt Node
Date: Tue Feb 07 16:59:58 GMT 2017
User: dcchb
Spectrometer: FLMS00149
Trigger mode: 0
Integration Time (sec): 2.000000E-2
Scans to average: 10
Electric dark correction enabled: true
Nonlinearity correction enabled: false
Boxcar width: 0
XAxis mode: Wavelengths
Number of Pixels in Spectrum: 2048
>>>>>Begin Spectral Data<<<<<
341.393	-14.89
341.776	-14.89
342.16	-14.89
342.543	-55.79
342.927	-57.6
343.31	-66.86
343.693	-70.25
344.077	-80.65
344.46	-65.28
344.843	-41.78
345.226	-47.2
345.61	-41.1
345.993	-10.37
346.376	-5.4
346.759	4.32
347.142	42.06
347.525	50.42
347.908	56.3
348.291	83.87
348.674	93.13
349.057	98.78
349.44	135.62
349.823	139.23
350.206	189.18
350.588	179.23
350.971	195.5
351.354	235.73
351.737	236.41
352.119	245.45
352.502	244.99
352.884	268.27
353.267	281.6
353.65	282.05
354.032	295.84
354.414	301.26
354.797	327.48
355.179	313.92
355.562	304.65
355.944	319.79
356.326	334.93
356.709	313.92
357.091	337.42
357.473	341.26
357.855	353.69
358.238	339.45
358.62	334.48
359.002	369.51
359.384	347.36
359.766	325.9
360.148	362.28
360.53	336.06
360.912	323.86
361.294	315.73
361.676	329.51
362.057	331.77
362.439	331.32
362.821	297.65
363.203	320.7
363.584	338.55
363.966	353.24
364.348	317.31
364.729	331.54
365.111	326.57
365.493	336.74
365.874	317.31
366.256	322.73
366.637	313.01
367.019	320.02
367.4	321.38
367.781	319.34
368.163	310.08
368.544	325.9
368.925	320.47
369.306	336.97
369.688	320.02
370.069	309.4
370.45	288.16
370.831	319.34
371.212	337.87
371.593	298.55
371.974	321.83
372.355	302.39
372.736	325.67
373.117	304.43
373.498	346.23
373.879	329.06
374.26	312.56
374.641	297.65
375.021	314.82
375.402	310.53
375.783	331.32
376.163	327.7
376.544	326.8
376.925	329.96
377.305	336.97
377.686	319.79
378.066	339
378.447	344.2
378.827	367.02
379.208	332.9
379.588	341.26
379.968	343.97
380.349	340.58
380.729	335.61
381.109	357.08
381.489	360.02
381.87	347.14
382.25	342.39
382.63	348.49
383.01	350.53
383.39	341.94
383.77	360.02
384.15	352.34
384.53	348.27
384.91	357.08
385.29	354.82
385.67	364.99
386.049	348.72
386.429	363.41
386.809	347.14
387.189	348.27
387.568	371.32
387.948	365.89
388.328	357.98
388.707	367.93
389.087	342.84
389.466	388.72
389.846	366.57
390.225	399.79
390.605	349.62
390.984	360.92
391.363	384.88
391.743	388.27
392.122	376.29
392.501	372.9
392.881	388.72
393.26	393.46
393.639	383.52
394.018	387.36
394.397	392.56
394.776	385.55
395.155	401.6
395.534	377.42
395.913	370.87
396.292	397.98
396.671	429.62
397.05	407.02
397.429	405.89
397.808	409.51
398.186	369.28
398.565	400.92
398.944	412.9
399.323	406.12
399.701	410.41
400.08	408.38
400.458	424.88
400.837	418.32
401.215	423.52
401.594	438.89
401.972	401.15
402.351	427.14
402.729	420.36
403.107	416.97
403.486	430.98
403.864	441.37
404.242	435.05
404.62	426.68
404.999	425.55
405.377	453.35
405.755	456.29
406.133	438.66
406.511	460.36
406.889	454.71
407.267	443.18
407.645	440.92
408.023	454.71
408.401	443.86
408.779	486.12
409.156	461.71
409.534	450.41
409.912	476.85
410.29	489.05
410.667	474.14
411.045	493.12
411.422	503.52
411.8	497.42
412.178	517.3
412.555	508.49
412.933	499.22
413.31	489.51
413.687	520.92
414.065	524.53
414.442	496.74
414.819	506.91
415.197	538.55
415.574	517.53
415.951	530.64
416.328	541.93
416.705	520.47
417.082	530.18
417.46	540.8
417.837	548.94
418.214	565.66
418.591	540.8
418.967	580.58
419.344	549.17
419.721	563.18
420.098	574.25
420.475	581.93
420.852	571.31
421.228	568.6
421.605	609.96
421.982	578.32
422.358	594.81
422.735	615.15
423.111	589.39
423.488	602.95
423.864	600.69
424.241	594.59
424.617	624.87
424.994	602.72
425.37	635.04
425.746	631.2
426.123	635.94
426.499	612.67
426.875	640.92
427.251	647.24
427.627	647.47
428.003	671.42
428.379	652.21
428.756	655.6
429.132	684.3
429.507	706.68
429.883	689.28
430.259	687.24
430.635	717.75
431.011	730.18
431.387	695.83
431.763	712.78
432.138	725.88
432.514	730.63
432.89	748.26
433.265	741.03
433.641	754.13
434.016	785.09
434.392	768.14
434.767	764.98
435.143	778.99
435.518	781.93
435.894	792.78
436.269	798.43
436.644	797.3
437.02	822.61
437.395	813.79
437.77	811.08
438.145	830.51
438.52	833.68
438.895	829.16
439.271	838.65
439.646	873.23
440.021	862.83
440.395	849.05
440.77	860.12
441.145	906.45
441.52	886.56
441.895	894.47
442.27	915.94
442.645	898.08
443.019	902.15
443.394	930.4
443.769	908.25
444.143	930.4
444.518	941.02
444.892	958.2
445.267	931.98
445.641	954.58
446.016	981.47
446.39	985.09
446.764	954.58
447.139	970.85
447.513	1005.65
447.887	979.66
448.262	988.25
448.636	990.28
449.01	1003.39
449.384	1014.92
449.758	1018.76
450.132	1044.97
450.506	1036.84
450.88	1039.32
451.254	1059.89
451.628	1034.58
452.002	1073.67
452.376	1057.85
452.75	1097.63
453.123	1114.8
453.497	1140.56
453.871	1135.37
454.244	1138.76
454.618	1134.24
454.992	1169.26
455.365	1173.1
455.739	1186.21
456.112	1192.99
456.486	1204.29
456.859	1211.75
457.232	1231.41
457.606	1240.67
457.979	1257.85
458.352	1265.53
458.725	1297.85
459.099	1310.95
459.472	1317.51
459.845	1313.44
460.218	1350.5
460.591	1392.76
460.964	1380.56
461.337	1403.83
461.71	1452.65
462.083	1432.98
462.456	1451.74
462.829	1472.08
463.201	1482.48
463.574	1524.06
463.947	1520.89
464.32	1544.17
464.692	1574.68
465.065	1597.95
465.438	1628.91
465.81	1636.37
466.183	1663.71
466.555	1695.12
466.928	1711.85
467.3	1744.84
467.672	1764.05
468.045	1818.51
468.417	1826.65
468.789	1827.55
469.161	1857.38
469.534	1875.69
469.906	1946.42
470.278	1966.98
470.65	1983.7
471.022	2041.56
471.394	2062.57
471.766	2107.54
472.138	2132.85
472.51	2196.35
472.882	2237.26
473.253	2261.89
473.625	2329.68
473.997	2403.35
474.369	2430.47
474.74	2478.83
475.112	2524.26
475.484	2575.1
475.855	2642.44
476.227	2704.14
476.598	2783.23
476.97	2840.41
477.341	2896.68
477.713	2954.3
478.084	3020.51
478.455	3134.64
478.827	3179.61
479.198	3302.31
479.569	3338.02
479.94	3453.04
480.311	3526.26
480.682	3650.1
481.053	3754.51
481.424	3871.34
481.795	3888.29
482.166	4023.2
482.537	4068.17
482.908	4243.08
483.279	4290.76
483.65	4477.2
484.021	4583.86
484.391	4728.04
484.762	4795.61
485.133	4871.76
485.503	5011.42
485.874	5166.22
486.244	5279.21
486.615	5441.47
486.985	5533.22
487.356	5686.43
487.726	5814.56
488.097	5979.53
488.467	6057.04
488.837	6242.8
489.207	6402.12
489.578	6565.96
489.948	6751.49
490.318	6828.1
490.688	6882.79
491.058	7038.49
491.428	7278.48
491.798	7485.48
492.168	7626.04
492.538	7660.17
492.908	7826.04
493.278	8046.82
493.648	8142.64
494.017	8313.48
494.387	8445.68
494.757	8612.46
495.126	8746.46
495.496	8782.17
495.866	8932.45
496.235	9124.08
496.605	9247.24
496.974	9450.4
497.344	9559.1
497.713	9608.36
498.082	9761.35
498.452	9864.85
498.821	9992.99
499.19	10142.59
499.559	10249.02
499.928	10455.57
500.298	10439.53
500.667	10544.61
501.036	10650.37
501.405	10770.82
501.774	10821.21
502.143	10937.82
502.512	11142.56
502.88	11171.94
503.249	11227.3
503.618	11280.86
503.987	11490.35
504.356	11585.49
504.724	11633.17
505.093	11679.27
505.462	11783.45
505.83	11905.25
506.199	12006.04
506.567	12136.43
506.936	12208.52
507.304	12383.66
507.672	12482.86
508.041	12469.08
508.409	12532.58
508.777	12633.37
509.145	12674.5
509.514	12725.57
509.882	12853.02
510.25	12909.07
510.618	12968.95
510.986	13026.13
511.354	13084.2
511.722	13253.92
512.09	13316.97
512.458	13258.66
512.826	13420.92
513.193	13460.92
513.561	13511.99
513.929	13577.07
514.297	13800.34
514.664	13780.46
515.032	13817.52
515.4	13850.74
515.767	13909.04
516.135	13957.85
516.502	13928.48
516.869	14099.09
517.237	14078.98
517.604	13998.76
517.972	14153.78
518.339	14248.24
518.706	14192.42
519.073	14292.08
519.44	14314
519.808	14408.46
520.175	14442.81
520.542	14471.06
520.909	14604.62
521.276	14537.27
521.643	14561.23
522.009	14678.29
522.376	14761.67
522.743	14777.94
523.11	14852.97
523.477	14916.02
523.843	14933.19
524.21	15157.82
524.577	15150.82
524.943	15126.18
525.31	15202.34
525.676	15315.56
526.043	15321.21
526.409	15276.69
526.776	15404.14
527.142	15376.8
527.508	15416.35
527.874	15504.25
528.241	15459.73
528.607	15497.25
528.973	15582.9
529.339	15522.33
529.705	15536.57
530.071	15691.37
530.437	15612.05
530.803	15643.23
531.169	15644.59
531.535	15606.62
531.901	15603.01
532.267	15657.7
532.632	15748.54
532.998	15746.51
533.364	15729.56
533.73	15653.63
534.095	15779.73
534.461	15800.97
534.826	15767.75
535.192	15756.9
535.557	15794.42
535.923	15750.35
536.288	15711.48
536.653	15760.07
537.019	15567.53
537.384	15700.63
537.749	15548.09
538.114	15576.57
538.479	15590.35
538.845	15579.73
539.21	15544.25
539.575	15524.14
539.94	15484.37
540.305	15484.37
540.67	15450.92
541.034	15496.8
541.399	15492.05
541.764	15467.19
542.129	15360.3
542.494	15321.66
542.858	15399.17
543.223	15234.2
543.587	15373.86
543.952	15329.57
544.316	15273.07
544.681	15185.17
545.045	15250.93
545.41	15211.83
545.774	15200.08
546.138	15094.77
546.503	15106.98
546.867	15087.99
547.231	15142.45
547.595	15028.56
547.959	15096.58
548.324	14961.67
548.688	14998.05
549.052	14935.45
549.416	14959.18
549.779	14833.54
550.143	14857.94
550.507	14904.04
550.871	14860.88
551.235	14811.84
551.599	14884.38
551.962	14711.05
552.326	14714.67
552.689	14786.76
553.053	14711.05
553.417	14665.18
553.78	14866.08
554.143	14602.81
554.507	14671.73
554.87	14622.92
555.234	14690.04
555.597	14600.1
555.96	14677.61
556.323	14732.75
556.686	14643.03
557.05	14642.58
557.413	14713.99
557.776	14565.07
558.139	14630.83
558.502	14639.19
558.865	14608.23
559.228	14641.9
559.59	14617.27
559.953	14706.76
560.316	14730.94
560.679	14661.34
561.041	14678.96
561.404	14732.07
561.767	14770.94
562.129	14656.14
562.492	14756.02
562.854	14797.83
563.217	14653.2
563.579	14657.95
563.941	14749.47
564.304	14839.19
564.666	14822.69
565.028	14823.37
565.39	14831.5
565.753	14906.53
566.115	14888.22
566.477	14928.22
566.839	14932.74
567.201	14958.96
567.563	14943.59
567.925	15019.75
568.287	14949.24
568.648	14986.98
569.01	15076.02
569.372	15128.44
569.734	15090.48
570.095	15133.87
570.457	15183.81
570.819	15087.32
571.18	15185.39
571.542	15216.35
571.903	15303.13
572.265	15183.58
572.626	15199.4
572.987	15194.43
573.349	15191.95
573.71	15230.14
574.071	15331.83
574.432	15327.99
574.794	15414.31
575.155	15414.99
575.516	15263.81
575.877	15414.99
576.238	15330.47
576.599	15436.91
576.96	15356.23
577.32	15375.22
577.681	15488.43
578.042	15452.73
578.403	15393.3
578.763	15480.75
579.124	15468.55
579.485	15592.84
579.845	15530.24
580.206	15455.89
580.566	15424.93
580.927	15527.08
581.287	15440.75
581.648	15390.81
582.008	15533.18
582.368	15423.8
582.728	15443.01
583.089	15335.67
583.449	15452.73
583.809	15496.8
584.169	15462.22
584.529	15384.48
584.889	15550.35
585.249	15485.72
585.609	15368.21
585.969	15527.53
586.329	15379.96
586.688	15406.18
587.048	15434.2
587.408	15328.66
587.768	15334.09
588.127	15322.56
588.487	15322.79
588.846	15458.15
589.206	15370.7
589.565	15262.68
589.925	15327.31
590.284	15306.97
590.643	15342.22
591.003	15318.95
591.362	15315.33
591.721	15316.24
592.08	15358.72
592.44	15316.24
592.799	15310.59
593.158	15333.86
593.517	15373.18
593.876	15285.28
594.235	15350.59
594.593	15259.29
594.952	15294.77
595.311	15172.28
595.67	15354.88
596.029	15317.14
596.387	15387.65
596.746	15300.64
597.104	15261.77
597.463	15237.14
597.822	15304.26
598.18	15314.88
598.538	15263.81
598.897	15348.1
599.255	15101.33
599.613	15226.97
599.972	15314.88
600.33	15304.94
600.688	15203.47
601.046	15199.63
601.404	15253.41
601.762	15323.47
602.12	15304.03
602.478	15268.78
602.836	15298.16
603.194	15227.42
603.552	15273.98
603.91	15249.57
604.268	15306.07
604.625	15210.02
604.983	15246.41
605.341	15196.46
605.698	15290.02
606.056	15323.24
606.413	15321.66
606.771	15340.19
607.128	15343.58
607.485	15266.75
607.843	15278.04
608.2	15406.4
608.557	15422.9
608.914	15354.2
609.272	15559.85
609.629	15443.46
609.986	15495.67
610.343	15413.41
610.7	15533.63
611.057	15435.78
611.414	15473.29
611.771	15543.8
612.127	15654.31
612.484	15546.96
612.841	15548.09
613.198	15509.45
613.554	15543.57
613.911	15671.48
614.267	15588.77
614.624	15504.71
614.98	15575.66
615.337	15563.69
615.693	15579.51
616.05	15655.21
616.406	15716
616.762	15704.7
617.118	15657.7
617.475	15650.01
617.831	15670.12
618.187	15733.4
618.543	15736.34
618.899	15805.49
619.255	15788.77
619.611	15748.99
619.967	15786.51
620.323	15783.12
620.678	15766.17
621.034	15759.39
621.39	15758.94
621.746	15694.98
622.101	15834.87
622.457	15756.9
622.812	15772.27
623.168	15841.19
623.523	15861.53
623.879	15855.88
624.234	15697.69
624.589	15809.78
624.945	15805.49
625.3	15790.35
625.655	15878.71
626.01	15819.95
626.365	15901.08
626.72	15786.51
627.075	15735.43
627.43	15704.47
627.785	15757.81
628.14	15751.25
628.495	15787.18
628.85	15710.8
629.205	15703.8
629.559	15784.25
629.914	15694.98
630.269	15722.78
630.623	15651.14
630.978	15582.44
631.332	15742.21
631.687	15703.57
632.041	15621.54
632.396	15646.4
632.75	15580.41
633.104	15552.16
633.459	15548.77
633.813	15556.68
634.167	15540.41
634.521	15559.39
634.875	15622.67
635.229	15505.16
635.583	15314.65
635.937	15511.94
636.291	15542.67
636.645	15407.08
636.999	15347.87
637.352	15437.14
637.706	15347.87
638.06	15411.15
638.413	15414.99
638.767	15422.9
639.121	15280.08
639.474	15219.06
639.828	15311.04
640.181	15200.08
640.534	15328.21
640.888	15295.22
641.241	15212.74
641.594	15180.87
641.947	15253.86
642.301	15212.96
642.654	15149.46
643.007	15168.89
643.36	15129.8
643.713	15239.4
644.066	15121.89
644.419	15044.38
644.771	14962.8
645.124	14878.96
645.477	14877.83
645.83	14690.26
646.182	14752.63
646.535	14682.58
646.888	14649.13
647.24	14520.55
647.593	14650.26
647.945	14528.46
648.298	14505.64
648.65	14512.19
649.002	14452.08
649.355	14565.97
649.707	14524.62
650.059	14662.02
650.411	14775.91
650.763	14868.79
651.115	14983.14
651.467	14847.55
651.819	14911.73
652.171	14935.23
652.523	14832.63
652.875	14936.36
653.227	14912.4
653.578	14855.68
653.93	14868.11
654.282	14891.84
654.633	14824.5
654.985	14855.46
655.337	14909.24
655.688	14892.74
656.039	14943.36
656.391	14873.99
656.742	14824.05
657.094	14949.01
657.445	14879.41
657.796	14898.39
658.147	14917.83
658.498	14845.06
658.849	14910.14
659.2	14877.6
659.551	14850.71
659.902	14942.46
660.253	14881.9
660.604	14932.29
660.955	14888.45
661.306	14975.91
661.656	14978.17
662.007	14838.28
662.358	14971.39
662.708	14916.7
663.059	14830.15
663.409	14814.1
663.76	14890.26
664.11	14839.86
664.461	14939.75
664.811	14924.16
665.161	14928.9
665.511	14933.19
665.862	14976.36
666.212	14989.92
666.562	14957.83
666.912	14897.26
667.262	14935
667.612	14891.16
667.962	14934.1
668.312	14864.95
668.662	15044.38
669.011	14843.48
669.361	14838.28
669.711	14857.94
670.06	14856.13
670.41	14840.77
670.76	14865.63
671.109	14931.16
671.459	14885.29
671.808	14797.15
672.157	14794.22
672.507	14751.73
672.856	14765.74
673.205	14792.63
673.554	14735.69
673.904	14773.43
674.253	14831.5
674.602	14794.67
674.951	14516.93
675.3	14471.74
675.649	14718.96
675.998	14639.19
676.346	14604.39
676.695	14653.88
677.044	14569.14
677.393	14621.34
677.741	14681.22
678.09	14675.57
678.438	14575.01
678.787	14589.02
679.135	14556.71
679.484	14506.99
679.832	14579.98
680.181	14498.4
680.529	14561.68
680.877	14464.05
681.225	14450.5
681.573	14442.13
681.922	14442.13
682.27	14287.79
682.618	14420.67
682.966	14340.44
683.314	14333.89
683.661	14329.37
684.009	14219.09
684.357	14227
684.705	14239.65
685.053	14241.24
685.4	14168.92
685.748	14095.7
686.095	14053.67
686.443	14023.16
686.79	14029.94
687.138	13974.12
687.485	14070.62
687.832	14001.92
688.18	13893
688.527	13810.96
688.874	13819.78
689.221	13711.98
689.568	13735.49
689.915	13729.38
690.262	13716.96
690.609	13702.27
690.956	13636.73
691.303	13599.22
691.65	13533.46
691.997	13525.77
692.344	13422.73
692.69	13396.74
693.037	13372.56
693.383	13338.66
693.73	13300.02
694.077	13255.05
694.423	13212.11
694.769	13134.15
695.116	13101.6
695.462	13054.15
695.808	13035.39
696.155	13023.19
696.501	12943.42
696.847	12883.53
697.193	12883.31
697.539	12810.54
697.885	12701.62
698.231	12772.8
698.577	12662.29
698.923	12650.32
699.269	12623.65
699.614	12541.39
699.96	12446.48
700.306	12538.68
700.651	12392.02
700.997	12350.44
701.342	12347.27
701.688	12304.34
702.033	12311.12
702.379	12267.73
702.724	12254.4
703.069	12160.39
703.415	12098.02
703.76	12121.07
704.105	12026.38
704.45	12006.04
704.795	11876.1
705.14	11901.18
705.485	11963.33
705.83	11810.11
706.175	11836.1
706.52	11768.08
706.865	11726.27
707.209	11695.77
707.554	11627.75
707.899	11647.63
708.243	11552.49
708.588	11594.07
708.932	11486.96
709.277	11498.48
709.621	11503.45
709.966	11441.08
710.31	11436.34
710.654	11385.27
710.998	11401.54
711.342	11348.43
711.687	11359.96
712.031	11305.72
712.375	11318.15
712.719	11282.44
713.063	11264.14
713.407	11231.37
713.75	11193.86
714.094	11190.69
714.438	11159.28
714.782	11108.21
715.125	11061.21
715.469	11116.12
715.812	11060.98
716.156	11030.47
716.499	10987.08
716.843	10954.99
717.186	10904.83
717.53	10960.42
717.873	10999.29
718.216	10898.5
718.559	10828.9
718.902	10853.3
719.246	10769.01
719.589	10872.51
719.932	10788.45
720.275	10795.9
720.617	10728.79
720.96	10829.12
721.303	10763.59
721.646	10810.82
721.989	10730.37
722.331	10744.83
722.674	10679.75
723.016	10709.13
723.359	10669.8
723.701	10726.07
724.044	10636.81
724.386	10556.81
724.729	10632.52
725.071	10691.72
725.413	10580.09
725.755	10643.36
726.097	10560.65
726.439	10517.27
726.782	10484.05
727.124	10587.09
727.465	10574.89
727.807	10508.45
728.149	10469.81
728.491	10426.42
728.833	10484.95
729.175	10461.9
729.516	10470.49
729.858	10482.69
730.199	10524.5
730.541	10468
730.882	10451.28
731.224	10453.76
731.565	10440.43
731.906	10408.34
732.248	10405.63
732.589	10426.19
732.93	10329.02
733.271	10401.11
733.612	10453.54
733.953	10466.19
734.294	10308.23
734.635	10362.92
734.976	10397.27
735.317	10364.95
735.658	10384.16
735.999	10341.23
736.339	10356.82
736.68	10397.27
737.021	10349.81
737.361	10315.24
737.702	10413.54
738.042	10301
738.383	10351.62
738.723	10421.68
739.063	10414.67
739.404	10377.61
739.744	10402.24
740.084	10344.84
740.424	10414.9
740.764	10364.95
741.104	10411.73
741.444	10367.44
741.784	10343.03
742.124	10485.4
742.464	10392.3
742.804	10444.73
743.143	10447.21
743.483	10462.13
743.823	10468.91
744.162	10566.53
744.502	10592.29
744.841	10594.55
745.181	10685.85
745.52	10648.79
745.86	10695.11
746.199	10656.47
746.538	10687.88
746.877	10784.6
747.216	10889.23
747.556	10928.78
747.895	10935.56
748.234	10999.29
748.573	11063.69
748.911	11073.18
749.25	11126.29
749.589	11226.4
749.928	11320.86
750.267	11396.79
750.605	11391.59
750.944	11439.05
751.283	11558.37
751.621	11627.75
751.96	11690.12
752.298	11766.5
752.636	11966.72
752.975	11931.47
753.313	12043.33
753.651	12173.72
753.989	12219.14
754.327	12344.11
754.666	12419.59
755.004	12531.68
755.342	12682.18
755.679	12825.68
756.017	12966.24
