Data from hue_290_FLMS001491_00086.txt Node
Date: Tue Feb 07 15:53:24 GMT 2017
User: dcchb
Spectrometer: FLMS00149
Trigger mode: 0
Integration Time (sec): 2.000000E-2
Scans to average: 10
Electric dark correction enabled: true
Nonlinearity correction enabled: false
Boxcar width: 0
XAxis mode: Wavelengths
Number of Pixels in Spectrum: 2048
>>>>>Begin Spectral Data<<<<<
341.393	-16.85
341.776	-16.85
342.16	-16.85
342.543	-61.14
342.927	-62.05
343.31	-57.07
343.693	-70.41
344.077	-64.53
344.46	-56.4
344.843	-55.94
345.226	-36.51
345.61	-26.34
345.993	-26.79
346.376	-10.75
346.759	11.4
347.142	31.96
347.525	36.48
347.908	46.65
348.291	66.09
348.674	92.3
349.057	119.87
349.44	135.91
349.823	144.28
350.206	169.59
350.588	208.45
350.971	210.26
351.354	203.03
351.737	229.7
352.119	251.17
352.502	259.75
352.884	271.05
353.267	267.66
353.65	297.49
354.032	290.03
354.414	297.72
354.797	296.59
355.179	327.55
355.562	314.67
355.944	313.54
356.326	342.24
356.709	324.84
357.091	331.62
357.473	339.52
357.855	353.31
358.238	341.33
358.62	329.58
359.002	336.59
359.384	362.12
359.766	330.03
360.148	322.8
360.53	329.36
360.912	339.3
361.294	325.29
361.676	314.89
362.057	309.92
362.439	307.89
362.821	313.54
363.203	304.27
363.584	308.79
363.966	323.93
364.348	332.52
364.729	314.44
365.111	323.48
365.493	325.51
365.874	329.58
366.256	308.34
366.637	323.03
367.019	316.93
367.4	316.47
367.781	316.93
368.163	324.16
368.544	318.96
368.925	300.43
369.306	294.55
369.688	333.88
370.069	296.14
370.45	294.78
370.831	324.38
371.212	306.53
371.593	321.22
371.974	310.6
372.355	318.28
372.736	286.87
373.117	311.73
373.498	306.08
373.879	334.33
374.26	303.14
374.641	314.89
375.021	312.63
375.402	317.38
375.783	329.13
376.163	311.28
376.544	311.5
376.925	332.97
377.305	316.25
377.686	331.16
378.066	306.98
378.447	320.77
378.827	320.77
379.208	313.76
379.588	333.2
379.968	310.83
380.349	344.27
380.729	316.93
381.109	328.68
381.489	332.52
381.87	329.13
382.25	342.69
382.63	341.33
383.01	348.79
383.39	353.99
383.77	328.9
384.15	356.02
384.53	338.17
384.91	336.81
385.29	343.37
385.67	359.41
386.049	347.89
386.429	334.78
386.809	375.23
387.189	353.54
387.568	365.74
387.948	346.08
388.328	361.67
388.707	368.22
389.087	360.32
389.466	362.8
389.846	342.69
390.225	375.23
390.605	362.58
390.984	337.49
391.363	367.77
391.743	372.97
392.122	368.22
392.501	377.04
392.881	382.01
393.26	380.43
393.639	371.16
394.018	401.44
394.397	393.08
394.776	371.61
395.155	383.82
395.534	404.38
395.913	397.15
396.292	381.78
396.671	372.07
397.05	394.44
397.429	410.26
397.808	411.16
398.186	393.08
398.565	373.87
398.944	420.65
399.323	400.77
399.701	389.47
400.08	394.66
400.458	408.68
400.837	407.55
401.215	427.21
401.594	424.04
401.972	431.27
402.351	414.1
402.729	433.08
403.107	436.7
403.486	433.53
403.864	416.36
404.242	446.41
404.62	436.47
404.999	443.7
405.377	446.64
405.755	453.87
406.133	447.77
406.511	441.22
406.889	458.17
407.267	481.44
407.645	470.14
408.023	480.76
408.401	496.58
408.779	472.63
409.156	499.52
409.534	521.22
409.912	511.72
410.29	507.43
410.667	528.45
411.045	514.89
411.422	528.9
411.8	558.28
412.178	544.27
412.555	554.89
412.933	537.26
413.31	573.87
413.687	599.63
414.065	580.2
414.442	561.89
414.819	610.25
415.197	606.86
415.574	603.7
415.951	612.06
416.328	624.26
416.705	638.5
417.082	641.21
417.46	660.65
417.837	658.84
418.214	670.59
418.591	671.95
418.967	679.4
419.344	669.01
419.721	693.64
420.098	701.1
420.475	713.75
420.852	701.32
421.228	732.96
421.605	746.97
421.982	731.83
422.358	761.66
422.735	756.01
423.111	788.1
423.488	776.12
423.864	779.97
424.241	801.89
424.617	807.08
424.994	813.18
425.37	797.14
425.746	828.33
426.123	874.2
426.499	850.7
426.875	879.17
427.251	866.29
427.627	892.96
428.003	892.28
428.379	899.06
428.756	921.66
429.132	909
429.507	926.4
429.883	942.67
430.259	938.15
430.635	951.26
431.011	972.73
431.387	992.39
431.763	1015.21
432.138	1004.82
432.514	1012.28
432.89	1033.52
433.265	1046.17
433.641	1072.39
434.016	1062.22
434.392	1087.53
434.767	1124.36
435.143	1092.27
435.518	1118.04
435.894	1147.41
436.269	1139.96
436.644	1170.01
437.02	1165.49
437.395	1206.85
437.77	1198.49
438.145	1197.13
438.52	1222.44
438.895	1254.76
439.271	1252.27
439.646	1285.49
440.021	1261.76
440.395	1271.93
440.77	1269.67
441.145	1247.3
441.52	1308.31
441.895	1329.33
442.27	1348.54
442.645	1308.31
443.019	1328.88
443.394	1343.11
443.769	1396.45
444.143	1359.16
444.518	1361.19
444.892	1355.09
445.267	1346.05
445.641	1362.77
446.016	1397.12
446.39	1395.32
446.764	1388.31
447.139	1412.27
447.513	1426.95
447.887	1432.6
448.262	1437.12
448.636	1408.65
449.01	1472.15
449.384	1472.15
449.758	1459.72
450.132	1460.4
450.506	1495.65
450.88	1495.65
451.254	1490.68
451.628	1497.46
452.002	1505.14
452.376	1537.69
452.75	1533.17
453.123	1523.9
453.497	1569.32
453.871	1585.37
454.244	1583.79
454.618	1581.98
454.992	1607.06
455.365	1621.07
455.739	1624.91
456.112	1644.8
456.486	1661.07
456.859	1679.38
457.232	1719.15
457.606	1677.12
457.979	1694.07
458.352	1747.4
458.725	1738.36
459.099	1771.13
459.472	1797.11
459.845	1775.87
460.218	1772.26
460.591	1803.44
460.964	1807.51
461.337	1832.59
461.71	1877.11
462.083	1875.98
462.456	1886.83
462.829	1871.24
463.201	1907.85
463.574	1908.52
463.947	1913.27
464.32	1999.37
464.692	1983.1
465.065	2018.35
465.438	2017.45
465.81	2033.72
466.183	2050.89
466.555	2082.98
466.928	2101.51
467.3	2052.25
467.672	2118.46
468.045	2140.61
468.417	2156.65
468.789	2146.48
469.161	2175.41
469.534	2184.22
469.906	2233.71
470.278	2279.59
470.65	2227.84
471.022	2314.61
471.394	2344.22
471.766	2329.98
472.138	2370.21
472.51	2397.55
472.882	2412.24
473.253	2451.33
473.625	2471.9
473.997	2506.7
474.369	2536.53
474.74	2525.68
475.112	2574.95
475.484	2594.83
475.855	2646.58
476.227	2642.97
476.598	2712.8
476.97	2726.35
477.341	2740.37
477.713	2789.18
478.084	2807.71
478.455	2834.6
478.827	2846.8
479.198	2926.12
479.569	2935.16
479.94	2967.7
480.311	2987.59
480.682	3064.43
481.053	3107.36
481.424	3109.4
481.795	3177.19
482.166	3173.8
482.537	3209.28
482.908	3255.15
483.279	3312.1
483.65	3338.77
484.021	3385.55
484.391	3386.45
484.762	3409.73
485.133	3460.57
485.503	3480.91
485.874	3585.09
486.244	3588.71
486.615	3631.87
486.985	3670.74
487.356	3723.39
487.726	3722.71
488.097	3759.77
488.467	3750.51
488.837	3818.76
489.207	3886.55
489.578	3918.41
489.948	3910.28
490.318	3949.83
490.688	3957.96
491.058	4068.01
491.428	4087.68
491.798	4081.57
492.168	4182.81
492.538	4224.85
492.908	4215.13
493.278	4303.26
493.648	4208.35
494.017	4277.05
494.387	4299.87
494.757	4368.35
495.126	4359.08
495.496	4381.9
495.866	4424.84
496.235	4438.85
496.605	4488.12
496.974	4474.78
497.344	4515.46
497.713	4517.27
498.082	4568.34
498.452	4580.77
498.821	4570.15
499.19	4605.63
499.559	4657.6
499.928	4693.99
500.298	4712.29
500.667	4679.52
501.036	4687.66
501.405	4761.78
501.774	4696.7
502.143	4804.04
502.512	4825.96
502.88	4840.65
503.249	4877.03
503.618	4842.23
503.987	4877.71
504.356	4878.84
504.724	4874.55
505.093	4984.15
505.462	4953.87
505.83	4960.19
506.199	4982.11
506.567	5052.85
506.936	5010.59
507.304	5079.97
507.672	5096.91
508.041	5101.89
508.409	5116.8
508.777	5131.04
509.145	5208.1
509.514	5158.61
509.882	5157.93
510.25	5194.76
510.618	5214.43
510.986	5210.58
511.354	5308.66
511.722	5322.44
512.09	5343.69
512.458	5258.72
512.826	5373.74
513.193	5353.4
513.561	5375.78
513.929	5389.56
514.297	5392.73
514.664	5410.58
515.032	5447.41
515.4	5431.59
515.767	5495.32
516.135	5528.09
516.502	5478.15
516.869	5590.69
517.237	5533.06
517.604	5518.82
517.972	5556.34
518.339	5578.48
518.706	5625.49
519.073	5573.06
519.44	5576.45
519.808	5668.65
520.175	5628.2
520.542	5667.07
520.909	5743.9
521.276	5728.08
521.643	5745.94
522.009	5768.08
522.376	5784.81
522.743	5820.96
523.11	5893.73
523.477	5921.75
523.843	5906.16
524.21	5933.28
524.577	5897.8
524.943	6006.27
525.31	5974.18
525.676	6091.69
526.043	6077.23
526.409	6157.9
526.776	6171.24
527.142	6147.73
527.508	6195.42
527.874	6138.92
528.241	6218.69
528.607	6282.19
528.973	6283.55
529.339	6244.45
529.705	6333.27
530.071	6374.39
530.437	6375.75
530.803	6334.4
531.169	6385.92
531.535	6442.87
531.901	6393.83
532.267	6466.14
532.632	6482.19
532.998	6503.2
533.364	6537.1
533.73	6542.75
534.095	6592.47
534.461	6593.6
534.826	6621.39
535.192	6604.22
535.557	6678.79
535.923	6646.48
536.288	6727.15
536.653	6720.37
537.019	6692.8
537.384	6782.75
537.749	6781.39
538.114	6835.63
538.479	6790.65
538.845	6839.47
539.21	6821.84
539.575	6928.05
539.94	6895.96
540.305	6922.63
540.67	6925.57
541.034	6911.56
541.399	6978.45
541.764	6959.92
542.129	6990.88
542.494	7035.39
542.858	7014.6
543.223	7051.21
543.587	7053.7
543.952	7059.12
544.316	7084.66
544.681	7091.89
545.045	7140.48
545.41	7213.47
545.774	7200.36
546.138	7212.56
546.503	7262.51
546.867	7241.72
547.231	7291.88
547.595	7269.51
547.959	7285.78
548.324	7312.9
548.688	7334.82
549.052	7350.19
549.416	7370.53
549.779	7365.33
550.143	7375.05
550.507	7455.27
550.871	7431.77
551.235	7431.09
551.599	7488.04
551.962	7464.08
552.326	7490.07
552.689	7558.09
553.053	7511.31
553.417	7540.69
553.78	7612.1
554.143	7561.71
554.507	7568.94
554.87	7620.46
555.234	7629.5
555.597	7588.83
555.96	7683.74
556.323	7655.72
556.686	7768.71
557.05	7757.41
557.413	7742.49
557.776	7706.34
558.139	7800.57
558.502	7808.03
558.865	7799.67
559.228	7897.74
559.59	7939.1
559.953	7921.92
560.316	7977.06
560.679	7956.5
561.041	7974.35
561.404	7978.65
561.767	8021.81
562.129	8028.59
562.492	8094.58
562.854	8110.85
563.217	8052.32
563.579	8119.21
563.941	8149.94
564.304	8185.19
564.666	8205.08
565.028	8175.25
565.39	8260.22
565.753	8212.76
566.115	8304.74
566.477	8329.82
566.839	8382.48
567.201	8380.44
567.563	8359.2
567.925	8481.01
568.287	8499.54
568.648	8476.03
569.01	8492.08
569.372	8549.7
569.734	8569.59
570.095	8573.43
570.457	8661.34
570.819	8667.89
571.18	8675.8
571.542	8746.76
571.903	8779.76
572.265	8782.69
572.626	8784.5
572.987	8876.7
573.349	8884.84
573.71	8812.97
574.071	8972.29
574.432	8932.75
574.794	9026.08
575.155	9086.64
575.516	9130.25
575.877	9202.57
576.238	9240.76
576.599	9256.58
576.96	9273.3
577.32	9344.94
577.681	9478.27
578.042	9472.39
578.403	9503.58
578.763	9497.02
579.124	9620.86
579.485	9707.41
579.845	9817.47
580.206	9712.61
580.566	9825.15
580.927	9985.6
581.287	10033.73
581.648	10045.94
582.008	10164.13
582.368	10250.68
582.728	10334.52
583.089	10394.4
583.449	10473.95
583.809	10574.06
584.169	10713.04
584.529	10797.33
584.889	10980.83
585.249	11005.23
585.609	11100.15
585.969	11172.01
586.329	11344.89
586.688	11410.65
587.048	11483.41
587.408	11603.41
587.768	11786
588.127	11941.48
588.487	12011.31
588.846	12207.24
589.206	12216.5
589.565	12326.33
589.925	12551.18
590.284	12606.32
590.643	12747.56
591.003	12924.28
591.362	13111.17
591.721	13187.55
592.08	13339.41
592.44	13471.61
592.799	13581.21
593.158	13759.06
593.517	13867.3
593.876	13994.31
594.235	14058.26
594.593	14193.62
594.952	14397.91
595.311	14439.95
595.67	14628.64
596.029	14830.67
596.387	14966.71
596.746	15102.07
597.104	15227.5
597.463	15198.8
597.822	15512.01
598.18	15528.5
598.538	15659.35
598.897	15800.14
599.255	15875.39
599.613	16132.33
599.972	16120.58
600.33	16209.62
600.688	16326.45
601.046	16554.47
601.404	16678.3
601.762	16669.94
602.12	16928.47
602.478	17026.54
602.836	17106.99
603.194	17078.75
603.552	17212.53
603.91	17244.17
604.268	17462.46
604.625	17465.18
604.983	17663.36
605.341	17551.95
605.698	17840.53
606.056	17933.19
606.413	17931.83
606.771	18128.21
607.128	18200.07
607.485	18224.93
607.843	18333.63
608.2	18570.68
608.557	18557.58
608.914	18550.57
609.272	18766.61
609.629	18833.5
609.986	18947.17
610.343	18920.51
610.7	19129.54
611.057	19140.61
611.414	19171.8
611.771	19229.2
612.127	19450.43
612.484	19403.88
612.841	19493.15
613.198	19453.6
613.554	19555.97
613.911	19604.1
614.267	19691.56
614.624	19713.25
614.98	19778.79
615.337	19864.21
615.693	19900.82
616.05	19972.46
616.406	20135.61
616.762	20097.2
617.118	20119.12
617.475	20191.43
617.831	20222.17
618.187	20220.81
618.543	20332.67
618.899	20550.97
619.255	20430.75
619.611	20482.95
619.967	20556.17
620.323	20579.22
620.678	20645.88
621.034	20573.57
621.39	20645.21
621.746	20626.68
622.101	20966.1
622.457	20724.53
622.812	20869.38
623.168	20890.4
623.523	20968.14
623.879	21043.39
624.234	20764.98
624.589	20978.76
624.945	20968.36
625.3	21013.11
625.655	21104.85
626.01	21099.66
626.365	21114.35
626.72	21001.35
627.075	21107.11
627.43	21097.62
627.785	21178.53
628.14	21245.42
628.495	21195.7
628.85	21136.04
629.205	21086.55
629.559	21291.97
629.914	21075.93
630.269	21176.27
630.623	21132.2
630.978	21084.06
631.332	21192.31
631.687	21187.34
632.041	21108.92
632.396	21193.44
632.75	21088.81
633.104	21223.95
633.459	21001.58
633.813	21069.6
634.167	20962.71
634.521	21017.4
634.875	21118.87
635.229	21083.84
635.583	20923.39
635.937	21006.55
636.291	20967.23
636.645	21026.44
636.999	21006.33
637.352	21011.98
637.706	20856.5
638.06	20914.58
638.413	20934.46
638.767	20885.88
639.121	20928.14
639.474	20890.85
639.828	20878.19
640.181	20832.77
640.534	20809.04
640.888	20830.06
641.241	20758.2
641.594	20831.87
641.947	20861.92
642.301	20841.13
642.654	20821.7
643.007	20900.34
643.36	20936.05
643.713	20686.79
644.066	20795.94
644.419	20703.28
644.771	20567.92
645.124	20303.75
645.477	20383.29
645.83	20359.79
646.182	20212.22
646.535	20207.03
646.888	20265.78
647.24	20053.13
647.593	20257.65
647.945	20183.97
648.298	20105.33
648.65	20019.23
649.002	20045.22
649.355	20154.82
649.707	20101.94
650.059	20235.72
650.411	20460.8
650.763	20440.24
651.115	20614.7
651.467	20586.9
651.819	20603.85
652.171	20594.81
652.523	20606.11
652.875	20651.31
653.227	20515.72
653.578	20698.09
653.93	20647.47
654.282	20551.42
654.633	20507.58
654.985	20521.59
655.337	20643.17
655.688	20564.98
656.039	20703.96
656.391	20496.51
656.742	20543.74
657.094	20440.92
657.445	20576.73
657.796	20620.35
658.147	20602.04
658.498	20642.49
658.849	20608.14
659.2	20610.18
659.551	20613.79
659.902	20739.44
660.253	20591.42
660.604	20606.11
660.955	20528.37
661.306	20659.22
661.656	20657.86
662.007	20620.12
662.358	20556.62
662.708	20614.02
663.059	20658.54
663.409	20516.17
663.76	20664.64
664.11	20721.59
664.461	20675.71
664.811	20642.27
665.161	20699.89
665.511	20631.19
665.862	20671.87
666.212	20686.33
666.562	20668.48
666.912	20645.43
667.262	20662.38
667.612	20676.84
667.962	20731.98
668.312	20621.03
668.662	20736.73
669.011	20714.13
669.361	20642.95
669.711	20658.99
670.06	20620.12
670.41	20639.56
670.76	20585.77
671.109	20717.52
671.459	20574.93
671.808	20490.63
672.157	20579.44
672.507	20483.85
672.856	20419.9
673.205	20529.5
673.554	20510.52
673.904	20537.41
674.253	20559.78
674.602	20456.74
674.951	20201.15
675.3	20172.45
675.649	20419.67
675.998	20422.84
676.346	20384.42
676.695	20522.72
677.044	20300.36
677.393	20295.16
677.741	20329.06
678.09	20419.67
678.438	20331.32
678.787	20328.38
679.135	20300.58
679.484	20129.51
679.832	20312.11
680.181	20134.94
680.529	20231.21
680.877	20253.35
681.225	20059.68
681.573	20146.01
681.922	20000.02
682.27	19951.66
682.618	19957.54
682.966	19965.68
683.314	19938.11
683.661	19886.81
684.009	19812.01
684.357	19768.17
684.705	19758.22
685.053	19844.32
685.4	19707.38
685.748	19642.97
686.095	19651.11
686.443	19589.41
686.79	19511.22
687.138	19612.01
687.485	19572.92
687.832	19442.07
688.18	19516.87
688.527	19267.84
688.874	19316.88
689.221	19254.96
689.568	19269.87
689.915	19100.16
690.262	19060.84
690.609	19066.72
690.956	19048.19
691.303	18978.81
691.65	18889.09
691.997	18874.18
692.344	18687.74
692.69	18661.53
693.037	18666.5
693.383	18552.38
693.73	18534.98
694.077	18500.4
694.423	18463.57
694.769	18437.81
695.116	18320.75
695.462	18266.74
695.808	18310.8
696.155	18281.65
696.501	18121.66
696.847	18091.15
697.193	17930.7
697.539	18048.21
697.885	17845.73
698.231	17867.43
698.577	17845.96
698.923	17865.62
699.269	17680.09
699.614	17542.24
699.96	17583.82
700.306	17450.26
700.651	17435.8
700.997	17357.61
701.342	17264.28
701.688	17218.86
702.033	17242.81
702.379	17128.69
702.724	17134.79
703.069	17194
703.415	16980.44
703.76	17062.02
704.105	16994.91
704.45	16956.04
704.795	16792.65
705.14	16727.12
705.485	16736.38
705.83	16678.08
706.175	16710.39
706.52	16530.74
706.865	16542.26
707.209	16504.07
707.554	16462.72
707.899	16413.9
708.243	16391.76
708.588	16328.03
708.932	16177.53
709.277	16179.11
709.621	16215.72
709.966	16057.53
710.31	16091.88
710.654	15972.11
710.998	16034.48
711.342	15894.37
711.687	15937.98
712.031	15891.21
712.375	15794.49
712.719	15850.76
713.063	15737.09
713.407	15712.45
713.75	15712.68
714.094	15707.71
714.438	15683.08
714.782	15746.8
715.125	15555.17
715.469	15629.97
715.812	15415.96
716.156	15433.37
716.499	15430.2
716.843	15380.26
717.186	15368.51
717.53	15419.13
717.873	15365.12
718.216	15411.67
718.559	15368.28
718.902	15165.8
719.246	15201.28
719.589	15161.73
719.932	15236.31
720.275	15110.21
720.617	15216.87
720.96	15182.75
721.303	15154.73
721.646	15144.56
721.989	15046.93
722.331	15192.24
722.674	15063.88
723.016	15037.67
723.359	15030.21
723.701	15031.34
724.044	14900.95
724.386	14910.44
724.729	14910.67
725.071	14833.38
725.413	14907.96
725.755	14856.88
726.097	14868.18
726.439	14815.53
726.782	14821.63
727.124	14914.96
727.465	14725.59
727.807	14736.21
728.149	14781.63
728.491	14690.56
728.833	14816.66
729.175	14682.65
729.516	14736.66
729.858	14709.77
730.199	14729.88
730.541	14787.73
730.882	14697.34
731.224	14764
731.565	14598.81
731.906	14586.38
732.248	14627.51
732.589	14627.74
732.93	14602.43
733.271	14665.48
733.612	14575.53
733.953	14633.61
734.294	14638.81
734.635	14582.54
734.976	14607.62
735.317	14480.17
735.658	14551.58
735.999	14578.02
736.339	14610.34
736.68	14601.75
737.021	14506.38
737.361	14419.38
737.702	14594.74
738.042	14453.05
738.383	14530.56
738.723	14525.14
739.063	14505.93
739.404	14670.67
739.744	14551.13
740.084	14542.09
740.424	14620.51
740.764	14551.58
741.104	14600.17
741.444	14600.39
741.784	14542.09
742.124	14685.59
742.464	14625.48
742.804	14641.07
743.143	14629.54
743.483	14668.41
743.823	14625.25
744.162	14609.88
744.502	14706.38
744.841	14702.31
745.181	14752.03
745.52	14756.32
745.86	14809.2
746.199	14876.09
746.538	14949.76
746.877	15035.18
747.216	15005.13
747.556	15048.74
747.895	15017.56
748.234	15035.64
748.573	15096.43
748.911	15195.86
749.25	15301.84
749.589	15287.38
749.928	15316.08
750.267	15593.81
750.605	15488.05
750.944	15608.28
751.283	15678.78
751.621	15719.69
751.96	15756.97
752.298	15780.25
752.636	15996.29
752.975	15952.9
753.313	15991.32
753.651	16257.07
753.989	16153.35
754.327	16296.17
754.666	16294.13
755.004	16511.3
755.342	16588.14
755.679	16731.64
756.017	16662.49
756.355	16875.81
756.693	16941.12
757.031	17069.71
757.368	17092.53
757.706	17210.04
758.044	17398.51
758.381	17465.63
758.719	17529.58
759.056	17677.15
