Data from hue_350_FLMS001491_65.txt Node
Date: Mon Feb 06 15:38:21 GMT 2017
User: dcchb
Spectrometer: FLMS00149
Trigger mode: 0
Integration Time (sec): 2.000000E-2
Scans to average: 10
Electric dark correction enabled: true
Nonlinearity correction enabled: false
Boxcar width: 0
XAxis mode: Wavelengths
Number of Pixels in Spectrum: 2048
>>>>>Begin Spectral Data<<<<<
341.393	-12.9
341.776	-12.9
342.16	-12.9
342.543	-43.4
342.927	-73.01
343.31	-65.78
343.693	-87.7
344.077	-72.78
344.46	-57.19
344.843	-49.28
345.226	-28.94
345.61	-29.17
345.993	-21.26
346.376	0.44
346.759	15.8
347.142	34.34
347.525	38.18
347.908	51.74
348.291	85.41
348.674	78.4
349.057	107.78
349.44	123.82
349.823	138.51
350.206	185.74
350.588	178.74
350.971	211.51
351.354	209.47
351.737	225.74
352.119	257.83
352.502	275.68
352.884	272.3
353.267	277.72
353.65	300.77
354.032	295.8
354.414	294.44
354.797	308.9
355.179	350.26
355.562	307.1
355.944	319.53
356.326	335.34
356.709	329.24
357.091	335.57
357.473	366.76
357.855	369.92
358.238	361.78
358.62	344.38
359.002	340.77
359.384	341.22
359.766	337.15
360.148	351.84
360.53	334.44
360.912	332.18
361.294	313.88
361.676	341.45
362.057	323.59
362.439	327.43
362.821	321.56
363.203	321.56
363.584	328.11
363.966	339.64
364.348	315.91
364.729	316.14
365.111	298.51
365.493	304.16
365.874	324.95
366.256	302.58
366.637	321.56
367.019	324.05
367.4	313.2
367.781	303.71
368.163	288.57
368.544	323.59
368.925	316.14
369.306	316.59
369.688	316.14
370.069	319.07
370.45	328.79
370.831	308
371.212	314.33
371.593	324.05
371.974	324.05
372.355	330.6
372.736	303.25
373.117	320.88
373.498	313.42
373.879	327.43
374.26	317.72
374.641	323.37
375.021	333.99
375.402	338.28
375.783	312.75
376.163	312.75
376.544	316.36
376.925	328.34
377.305	305.97
377.686	324.27
378.066	333.54
378.447	337.15
378.827	313.42
379.208	330.6
379.588	317.27
379.968	315.46
380.349	332.18
380.729	330.15
381.109	332.86
381.489	356.36
381.87	341.45
382.25	333.54
382.63	335.12
383.01	327.89
383.39	329.02
383.77	334.44
384.15	322.69
384.53	336.93
384.91	327.66
385.29	362.91
385.67	337.83
386.049	353.42
386.429	340.77
386.809	342.8
387.189	362.24
387.568	352.52
387.948	356.81
388.328	349.36
388.707	333.99
389.087	343.93
389.466	350.71
389.846	364.72
390.225	358.62
390.605	356.59
390.984	374.89
391.363	361.33
391.743	361.78
392.122	349.36
392.501	349.36
392.881	379.64
393.26	378.51
393.639	372.63
394.018	369.92
394.397	343.71
394.776	373.08
395.155	381.22
395.534	375.57
395.913	350.94
396.292	398.39
396.671	369.24
397.05	388
397.429	346.19
397.808	365.85
398.186	361.33
398.565	391.84
398.944	416.02
399.323	368.79
399.701	394.33
400.08	390.48
400.458	395
400.837	382.8
401.215	374.67
401.594	385.51
401.972	382.8
402.351	400.43
402.729	407.43
403.107	397.94
403.486	396.59
403.864	409.47
404.242	393.42
404.62	391.16
404.999	390.26
405.377	382.12
405.755	419.41
406.133	408.56
406.511	403.82
406.889	410.14
407.267	408.79
407.645	406.3
408.023	408.11
408.401	422.12
408.779	421.9
409.156	421.67
409.534	425.51
409.912	433.19
410.29	446.75
410.667	443.14
411.045	433.87
411.422	430.26
411.8	443.36
412.178	469.58
412.555	457.15
412.933	451.73
413.31	462.8
413.687	465.28
414.065	471.84
414.442	465.06
414.819	461.22
415.197	494.44
415.574	446.08
415.951	485.85
416.328	470.93
416.705	506.64
417.082	477.26
417.46	490.59
417.837	487.66
418.214	499.18
418.591	509.35
418.967	513.64
419.344	503.02
419.721	513.42
420.098	515.23
420.475	519.97
420.852	515.23
421.228	516.13
421.605	529.01
421.982	518.62
422.358	528.33
422.735	541.67
423.111	555.23
423.488	534.89
423.864	528.56
424.241	555.9
424.617	546.19
424.994	539.86
425.37	561.55
425.746	578.95
426.123	575.11
426.499	561.78
426.875	569.01
427.251	568.11
427.627	574.89
428.003	581.44
428.379	595.68
428.756	594.32
429.132	590.03
429.507	624.38
429.883	594.55
430.259	616.92
430.635	601.78
431.011	589.57
431.387	623.02
431.763	628.22
432.138	628.9
432.514	650.36
432.89	674.54
433.265	652.85
433.641	675.22
434.016	650.82
434.392	679.52
434.767	677.93
435.143	678.16
435.518	681.55
435.894	664.15
436.269	682.91
436.644	698.95
437.02	705.28
437.395	698.95
437.77	690.14
438.145	695.56
438.52	706.86
438.895	717.03
439.271	717.48
439.646	735.79
440.021	746.18
440.395	757.71
440.77	743.47
441.145	732.62
441.52	759.97
441.895	748.21
442.27	770.14
442.645	771.72
443.019	783.47
443.394	785.5
443.769	753.86
444.143	762.45
444.518	789.12
444.892	785.95
445.267	816.01
445.641	792.73
446.016	794.54
446.39	790.47
446.764	777.82
447.139	791.83
447.513	806.74
447.887	798.83
448.262	817.59
448.636	830.02
449.01	827.31
449.384	841.32
449.758	828.66
450.132	866.4
450.506	834.09
450.88	824.6
451.254	838.16
451.628	865.27
452.002	848.33
452.376	867.31
452.75	886.06
453.123	848.1
453.497	887.65
453.871	884.26
454.244	878.38
454.618	931.03
454.992	922.67
455.365	908.66
455.739	908.66
456.112	919.74
456.486	937.14
456.859	916.12
457.232	958.83
457.606	945.95
457.979	958.83
458.352	962.22
458.725	968.77
459.099	982.78
459.472	1009.68
459.845	998.15
460.218	1053.52
460.591	1024.59
460.964	1028.89
461.337	1067.08
461.71	1046.51
462.083	1078.6
462.456	1055.1
462.829	1082.22
463.201	1111.6
463.574	1098.94
463.947	1084.25
464.32	1117.24
464.692	1120.63
465.065	1129.45
465.438	1162.89
465.81	1148.43
466.183	1194.98
466.555	1194.98
466.928	1212.16
467.3	1202.89
467.672	1208.32
468.045	1232.72
468.417	1256.9
468.789	1233.63
469.161	1285.6
469.534	1278.82
469.906	1332.83
470.278	1310.46
470.65	1345.49
471.022	1357.01
471.394	1361.98
471.766	1392.72
472.138	1420.97
472.51	1431.81
472.882	1433.85
473.253	1482.66
473.625	1507.97
473.997	1519.49
474.369	1505.71
474.74	1526.5
475.112	1589.77
475.484	1606.27
475.855	1589.1
476.227	1625.71
476.598	1654.63
476.97	1647.63
477.341	1683.78
477.713	1740.51
478.084	1732.37
478.455	1805.36
478.827	1804.68
479.198	1858.47
479.569	1863.21
479.94	1900.95
480.311	1926.71
480.682	1957
481.053	2019.59
481.424	2051.01
481.795	2056.43
482.166	2107.95
482.537	2124.9
482.908	2168.74
483.279	2178.91
483.65	2222.75
484.021	2273.37
484.391	2290.1
484.762	2319.25
485.133	2336.65
485.503	2360.15
485.874	2445.35
486.244	2436.98
486.615	2472.01
486.985	2517.21
487.356	2568.28
487.726	2592.69
488.097	2666.81
488.467	2640.59
488.837	2717.65
489.207	2726.69
489.578	2768.05
489.948	2800.59
490.318	2839.23
490.688	2877.65
491.058	2906.58
491.428	2926.69
491.798	2929.63
492.168	3024.99
492.538	3021.15
492.908	3057.98
493.278	3121.03
493.648	3146.8
494.017	3136.4
494.387	3200.13
494.757	3195.83
495.126	3253.91
495.496	3278.54
495.866	3310.86
496.235	3345.21
496.605	3376.39
496.974	3402.83
497.344	3396.51
497.713	3437.86
498.082	3441.25
498.452	3476.28
498.821	3495.49
499.19	3528.93
499.559	3547.46
499.928	3611.42
500.298	3602.38
500.667	3619.55
501.036	3615.03
501.405	3661.81
501.774	3704.97
502.143	3698.87
502.512	3704.52
502.88	3783.84
503.249	3742.94
503.618	3781.13
503.987	3806.44
504.356	3812.09
504.724	3860.68
505.093	3860.22
505.462	3825.42
505.83	3927.34
506.199	3920.11
506.567	3990.84
506.936	3950.16
507.304	3989.26
507.672	4013.44
508.041	3994.01
508.409	4060.44
508.777	4013.44
509.145	4083.27
509.514	4098.86
509.882	4081.91
510.25	4106.54
510.618	4142.7
510.986	4166.2
511.354	4177.96
511.722	4183.83
512.09	4192.64
512.458	4205.75
512.826	4221.12
513.193	4256.82
513.561	4300.89
513.929	4275.58
514.297	4305.86
514.664	4323.71
515.032	4332.53
515.4	4354
515.767	4336.82
516.135	4386.09
516.502	4415.24
516.869	4466.99
517.237	4431.96
517.604	4421.79
517.972	4473.99
518.339	4527.32
518.706	4463.82
519.073	4502.47
519.44	4543.82
519.808	4546.53
520.175	4559.87
520.542	4587.44
520.909	4601.9
521.276	4593.54
521.643	4631.73
522.009	4642.58
522.376	4721.67
522.743	4682.8
523.11	4752.18
523.477	4762.35
523.843	4817.71
524.21	4858.16
524.577	4864.04
524.943	4800.09
525.31	4853.64
525.676	4946.75
526.043	4969.8
526.409	4935.22
526.776	4979.06
527.142	4968.67
527.508	4972.51
527.874	5072.17
528.241	5097.93
528.607	5047.99
528.973	5117.14
529.339	5136.12
529.705	5183.8
530.071	5213.63
530.437	5198.04
530.803	5216.35
531.169	5257.25
531.535	5282.33
531.901	5274.88
532.267	5285.27
532.632	5365.95
532.998	5365.49
533.364	5414.31
533.73	5402.1
534.095	5434.87
534.461	5487.3
534.826	5450.24
535.192	5544.7
535.557	5558.71
535.923	5551.7
536.288	5578.37
536.653	5570.69
537.019	5607.97
537.384	5619.27
537.749	5652.72
538.114	5688.42
538.479	5679.61
538.845	5653.85
539.21	5720.51
539.575	5766.16
539.94	5749.89
540.305	5798.48
540.67	5776.78
541.034	5828.08
541.399	5880.51
541.764	5895.2
542.129	5970
542.494	5900.85
542.858	5979.04
543.223	5930.45
543.587	6043.89
543.952	5989.43
544.316	6074.85
544.681	6048.19
545.045	6063.56
545.41	6099.71
545.774	6158.47
546.138	6126.15
546.503	6168.86
546.867	6190.56
547.231	6207.51
547.595	6311.68
547.959	6301.29
548.324	6296.32
548.688	6352.81
549.052	6340.38
549.416	6341.51
549.779	6390.55
550.143	6381.06
550.507	6400.04
550.871	6440.95
551.235	6453.15
551.599	6494.28
551.962	6489.08
552.326	6528.18
552.689	6575.18
553.053	6486.82
553.417	6569.98
553.78	6583.99
554.143	6605.01
554.507	6649.53
554.87	6657.21
555.234	6678.91
555.597	6695.18
555.96	6723.65
556.323	6750.54
556.686	6738.57
557.05	6771.79
557.413	6790.54
557.776	6808.85
558.139	6874.16
558.502	6927.71
558.865	6902.86
559.228	6900.6
559.59	6956.19
559.953	6932.68
560.316	7020.14
560.679	6999.8
561.041	7062.17
561.404	7099.01
561.767	7111.66
562.129	7091.78
562.492	7105.11
562.854	7134.49
563.217	7155.05
563.579	7181.94
563.941	7210.42
564.304	7223.75
564.666	7265.56
565.028	7305.56
565.39	7345.78
565.753	7353.92
566.115	7312.79
566.477	7360.24
566.839	7415.16
567.201	7468.72
567.563	7462.61
567.925	7592.78
568.287	7506.68
568.648	7585.32
569.01	7661.25
569.372	7630.52
569.734	7655.83
570.095	7708.26
570.457	7722.72
570.819	7787.8
571.18	7753.23
571.542	7820.57
571.903	7849.05
572.265	7888.82
572.626	7928.14
572.987	7975.37
573.349	7995.03
573.71	8114.57
574.071	8129.26
574.432	8118.42
574.794	8289.49
575.155	8277.06
575.516	8257.85
575.877	8317.73
576.238	8438.41
576.599	8511.4
576.96	8500.1
577.32	8561.79
577.681	8663.49
578.042	8748.46
578.403	8818.96
578.763	8856.02
579.124	8901.45
579.485	9060.99
579.845	9174.89
580.206	9208.56
580.566	9364.03
580.927	9473.18
581.287	9514.99
581.648	9611.03
582.008	9837.47
582.368	9935.77
582.728	10070
583.089	10186.61
583.449	10213.95
583.809	10475.64
584.169	10606.94
584.529	10843.77
584.889	10969.64
585.249	11140.26
585.609	11361.04
585.969	11469.51
586.329	11662.28
586.688	11906.79
587.048	12071.53
587.408	12274.01
587.768	12464.29
588.127	12711.97
588.487	12835.81
588.846	13081
589.206	13314.66
589.565	13560.31
589.925	13816.35
590.284	14072.61
590.643	14324.13
591.003	14667.17
591.362	14959.14
591.721	15115.97
592.08	15440.71
592.44	15625.79
592.799	15852
593.158	16155.72
593.517	16534.24
593.876	16767.68
594.235	17042.93
594.593	17355.01
594.952	17525.17
595.311	17750.03
595.67	18222.33
596.029	18502.32
596.387	18749.1
596.746	19138.47
597.104	19317.44
597.463	19680.15
597.822	19948.16
598.18	20149.74
598.538	20432.22
598.897	20769.61
599.255	20995.59
599.613	21563.49
599.972	21676.25
600.33	21936.81
600.688	22209.12
601.046	22599.84
601.404	22887.75
601.762	23135.42
602.12	23427.84
602.478	23696.31
602.836	23945.34
603.194	24092.01
603.552	24527.93
603.91	24716.85
604.268	24993.23
604.625	25212.2
604.983	25483.61
605.341	25778.07
605.698	26049.92
606.056	26378.95
606.413	26561.77
606.771	26875.66
607.128	27088.09
607.485	27247.86
607.843	27570.56
608.2	27808.52
608.557	28218
608.914	28263.65
609.272	28507.03
609.629	28664.99
609.986	29119.45
610.343	29113.12
610.7	29509.94
611.057	29693.22
611.414	29744.06
611.771	30056.37
612.127	30419.3
612.484	30493.42
612.841	30880.53
613.198	30868.33
613.554	31120.98
613.911	31317.81
614.267	31436.67
614.624	31658.14
614.98	31758.92
615.337	32163.43
615.693	32231.45
616.05	32370.43
616.406	32618.34
616.762	32593.03
617.118	32621.95
617.475	32802.06
617.831	33094.71
618.187	33180.81
618.543	33358.2
618.899	33781.24
619.255	33627.8
619.611	33881.35
619.967	34095.81
620.323	34208.58
620.678	34137.85
621.034	34140.11
621.39	34309.14
621.746	34405.86
622.101	34900.76
622.457	34608.79
622.812	34918.62
623.168	34955.68
623.523	35119.97
623.879	35348.43
624.234	35121.77
624.589	35353.86
624.945	35550.69
625.3	35573.74
625.655	35638.14
626.01	35738.26
626.365	35920.4
626.72	35813.51
627.075	35987.97
627.43	36075.42
627.785	35921.08
628.14	36215.3
628.495	36124.69
628.85	36189.99
629.205	36085.36
629.559	36391.57
629.914	36277.68
630.269	36348.18
630.623	36220.5
630.978	36325.36
631.332	36565.13
631.687	36462.53
632.041	36320.39
632.396	36477.22
632.75	36547.27
633.104	36596.76
633.459	36386.6
633.813	36470.67
634.167	36463.43
634.521	36586.82
634.875	36682.86
635.229	36693.94
635.583	36542.08
635.937	36531.23
636.291	36550.21
636.645	36608.51
636.999	36442.42
637.352	36617.33
637.706	36411.01
638.06	36725.35
638.413	36612.81
638.767	36412.59
639.121	36656.42
639.474	36427.95
639.828	36450.78
640.181	36627.27
640.534	36572.13
640.888	36653.03
641.241	36488.07
641.594	36463.21
641.947	36528.97
642.301	36484.68
642.654	36552.25
643.007	36433.15
643.36	36584.11
643.713	36537.33
644.066	36521.74
644.419	36404.68
644.771	36258.02
645.124	35841.76
645.477	35889.89
645.83	35597.47
646.182	35581.65
646.535	35449
646.888	35396.12
647.24	35195.67
647.593	35481.54
647.945	35401.99
648.298	35303.69
648.65	35285.39
649.002	35211.49
649.355	35346.63
649.707	35320.64
650.059	35427.75
650.411	35851.02
650.763	35909.78
651.115	36210.33
651.467	36072.03
651.819	36117.23
652.171	36047.17
652.523	35993.84
652.875	35986.84
653.227	35917.01
653.578	36085.36
653.93	36079.94
654.282	35828.2
654.633	35747.75
654.985	35850.12
655.337	35809.44
655.688	35847.86
656.039	36082.43
656.391	35667.97
656.742	35816.45
657.094	35832.49
657.445	35810.8
657.796	35834.98
658.147	35796.33
658.498	35749.55
658.849	35866.16
659.2	35795.88
659.551	35714.98
659.902	35880.4
660.253	35736.22
660.604	35878.36
660.955	35718.59
661.306	35855.77
661.656	35719.5
662.007	35759.05
662.358	35677.01
662.708	35730.12
663.059	35624.81
663.409	35519.05
663.76	35801.76
664.11	35772.38
664.461	35757.24
664.811	35621.87
665.161	35743.45
665.511	35625.04
665.862	35606.96
666.212	35673.62
666.562	35794.07
666.912	35681.08
667.262	35635.21
667.612	35665.94
667.962	35681.53
668.312	35682.21
668.662	35722.21
669.011	35620.74
669.361	35636.11
669.711	35513.63
670.06	35546.62
670.41	35518.15
670.76	35427.53
671.109	35614.42
671.459	35498.71
671.808	35454.87
672.157	35626.39
672.507	35245.39
672.856	35320.41
673.205	35310.7
673.554	35437.92
673.904	35304.82
674.253	35379.17
674.602	35401.77
674.951	34897.37
675.3	34680.66
675.649	35353.41
675.998	35207.87
676.346	35084.71
676.695	35305.27
677.044	35161.77
677.393	35274.54
677.741	35284.71
678.09	35169.46
678.438	35213.98
678.787	35053.3
679.135	35282
679.484	34955.45
679.832	35029.57
680.181	34907.09
680.529	34936.47
680.877	34813.08
681.225	34814.66
681.573	35048.56
681.922	34738.96
682.27	34708
682.618	34721.33
682.966	34509.36
683.314	34663.71
683.661	34538.96
684.009	34536.7
684.357	34327.67
684.705	34327.9
685.053	34330.16
685.4	34182.14
685.748	34155.25
686.095	34044.06
686.443	33955.93
686.79	34032.76
687.138	34088.36
687.485	34047
687.832	33861.24
688.18	33903.95
688.527	33740.79
688.874	33660.12
689.221	33560.91
689.568	33522.95
689.915	33460.12
690.262	33460.57
690.609	33335.83
690.956	33332.67
691.303	33114.6
691.65	33055.84
691.997	33079.79
692.344	32946.24
692.69	32848.16
693.037	32903.75
693.383	32557.1
693.73	32794.83
694.077	32447.95
694.423	32554.84
694.769	32487.95
695.116	32287.95
695.462	32328.63
695.808	32336.54
696.155	32226.94
696.501	32054.06
696.847	32098.35
697.193	31884.57
697.539	31867.62
697.885	31553.73
698.231	31627.4
698.577	31552.38
698.923	31584.24
699.269	31409.33
699.614	31237.13
699.96	31190.58
700.306	31154.42
700.651	31169.79
700.997	30934.99
701.342	30953.97
701.688	30985.84
702.033	30840.08
702.379	30795.33
702.724	30695.45
703.069	30805.5
703.415	30301.34
703.76	30417.49
704.105	30358.96
704.45	30302.69
704.795	30141.57
705.14	30184.5
705.485	29923.49
705.83	29903.15
706.175	29878.97
706.52	29808.02
706.865	29721.24
707.209	29767.79
707.554	29653.67
707.899	29690.28
708.243	29548.36
708.588	29500.23
708.932	29298.65
709.277	29274.02
709.621	29357.63
709.966	29127.58
710.31	29294.58
710.654	28899.56
710.998	28973.01
711.342	28993.8
711.687	28910.19
712.031	28661.61
712.375	28689.85
712.719	28742.96
713.063	28521.95
713.407	28747.7
713.75	28573.02
714.094	28585
714.438	28395.17
714.782	28455.06
715.125	28282.63
715.469	28285.8
715.812	28286.7
716.156	28037.67
716.499	28112.69
716.843	28255.29
717.186	27908.4
717.53	28145.23
717.873	28062.98
718.216	28062.98
718.559	27788.86
718.902	27613.27
719.246	27805.36
719.589	27636.1
719.932	27553.16
720.275	27552.48
720.617	27453.95
720.96	27461.64
721.303	27414.63
721.646	27364.69
721.989	27237.01
722.331	27362.66
722.674	27214.41
723.016	27293.51
723.359	27163.11
723.701	27231.59
724.044	27001.08
724.386	26881.54
724.729	26998.82
725.071	26964.93
725.413	26895.55
725.755	26880.41
726.097	26728.77
726.439	26684.71
726.782	26681.54
727.124	26766.06
727.465	26598.38
727.807	26667.31
728.149	26492.17
728.491	26459.86
728.833	26525.62
729.175	26447.2
729.516	26360.65
729.858	26357.03
730.199	26275
730.541	26257.6
730.882	26292.63
731.224	26231.39
731.565	26102.12
731.906	26103.03
732.248	26113.42
732.589	25917.27
732.93	25827.78
733.271	25908.23
733.612	25972.64
733.953	25951.39
734.294	25830.95
734.635	25788.69
734.976	25828.69
735.317	25671.63
735.658	25691.74
735.999	25711.4
736.339	25561.35
736.68	25753.43
737.021	25608.8
737.361	25435.93
737.702	25645.64
738.042	25445.42
738.383	25469.6
738.723	25456.49
739.063	25297.63
739.404	25446.55
739.744	25322.94
740.084	25145.31
740.424	25231.64
740.764	25183.73
741.104	25332.2
741.444	25080
741.784	25023.73
742.124	25099.21
742.464	25024.86
742.804	24984.64
743.143	25006.79
743.483	24937.64
743.823	24864.19
744.162	24821.03
744.502	24880.91
744.841	24784.87
745.181	24941.7
745.52	24702.16
745.86	24819.22
746.199	24659.22
746.538	24706.91
746.877	24604.31
747.216	24586.91
747.556	24446.12
747.895	24434.6
748.234	24372
748.573	24438.67
748.911	24355.05
749.25	24381.94
749.589	24315.73
749.928	24358.44
750.267	24296.3
750.605	24225.34
750.944	24127.04
751.283	24055.4
751.621	24116.19
751.96	24029.64
752.298	23934.27
752.636	23926.36
752.975	23888.17
753.313	23826.48
753.651	23886.59
753.989	23777.44
754.327	23709.19
754.666	23614.51
755.004	23712.58
755.342	23695.63
755.679	23509.88
756.017	23406.38
756.355	23520.95
756.693	23307.17
757.031	23382.65
757.368	23264.46
757.706	23146.04
758.044	23150.34
758.381	23272.82
758.719	23129.1
759.056	23124.8
759.394	23086.84
759.731	22894.07
760.068	22804.58
760.405	22853.4
760.743	22714.87
761.08	22757.58
