Data from hue_70_FLMS001491_51.txt Node
Date: Mon Feb 06 15:21:06 GMT 2017
User: dcchb
Spectrometer: FLMS00149
Trigger mode: 0
Integration Time (sec): 2.000000E-2
Scans to average: 10
Electric dark correction enabled: true
Nonlinearity correction enabled: false
Boxcar width: 0
XAxis mode: Wavelengths
Number of Pixels in Spectrum: 2048
>>>>>Begin Spectral Data<<<<<
341.393	-0.23
341.776	-0.23
342.16	-0.23
342.543	-52.65
342.927	-79.09
343.31	-86.55
343.693	-68.47
344.077	-57.85
344.46	-56.27
344.843	-62.82
345.226	-43.39
345.61	-33.9
345.993	-20.11
346.376	8.81
346.759	25.54
347.142	16.72
347.525	30.73
347.908	52.65
348.291	91.07
348.674	98.75
349.057	105.08
349.44	115.48
349.823	130.84
350.206	171.52
350.588	190.28
350.971	228.69
351.354	212.65
351.737	236.6
352.119	230.05
352.502	268.92
352.884	278.86
353.267	269.6
353.65	281.12
354.032	302.59
354.414	293.1
354.797	322.93
355.179	331.97
355.562	331.97
355.944	337.84
356.326	338.97
356.709	328.8
357.091	330.61
357.473	322.7
357.855	345.75
358.238	328.58
358.62	331.74
359.002	351.86
359.384	331.52
359.766	349.82
360.148	347.34
360.53	322.25
360.912	341.46
361.294	334.68
361.676	340.1
362.057	324.96
362.439	331.97
362.821	315.02
363.203	328.35
363.584	339.43
363.966	320.44
364.348	318.18
364.729	317.51
365.111	319.54
365.493	306.43
365.874	329.48
366.256	309.37
366.637	318.41
367.019	305.98
367.4	336.04
367.781	302.14
368.163	320.9
368.544	324.96
368.925	301.24
369.306	310.73
369.688	307.34
370.069	304.85
370.45	322.03
370.831	305.53
371.212	338.75
371.593	312.99
371.974	317.05
372.355	313.66
372.736	308.01
373.117	303.95
373.498	323.16
373.879	309.14
374.26	317.96
374.641	306.21
375.021	307.11
375.402	316.38
375.783	319.09
376.163	316.83
376.544	317.28
376.925	318.86
377.305	304.62
377.686	320.22
378.066	321.8
378.447	328.58
378.827	321.35
379.208	326.77
379.588	311.4
379.968	327.22
380.349	330.61
380.729	315.25
381.109	324.51
381.489	348.01
381.87	324.51
382.25	322.48
382.63	326.32
383.01	325.19
383.39	334.68
383.77	322.93
384.15	317.51
384.53	335.13
384.91	360.22
385.29	333.32
385.67	317.28
386.049	334.23
386.429	340.56
386.809	345.75
387.189	355.92
387.568	338.07
387.948	358.86
388.328	362.02
388.707	331.97
389.087	361.8
389.466	363.83
389.846	350.05
390.225	373.55
390.605	345.53
390.984	345.3
391.363	357.73
391.743	355.24
392.122	350.05
392.501	348.01
392.881	364.28
393.26	356.37
393.639	357.05
394.018	358.63
394.397	356.83
394.776	355.24
395.155	352.08
395.534	369.26
395.913	385.3
396.292	372.42
396.671	357.28
397.05	356.37
397.429	376.71
397.808	383.72
398.186	370.61
398.565	368.8
398.944	364.96
399.323	368.13
399.701	377.39
400.08	393.89
400.458	380.33
400.837	376.26
401.215	393.21
401.594	368.35
401.972	397.28
402.351	386.66
402.729	392.76
403.107	395.92
403.486	388.92
403.864	370.39
404.242	389.37
404.62	406.77
404.999	394.34
405.377	376.04
405.755	408.35
406.133	404.28
406.511	386.2
406.889	394.34
407.267	410.16
407.645	391.63
408.023	408.58
408.401	411.29
408.779	415.81
409.156	425.98
409.534	449.48
409.912	423.72
410.29	421.01
410.667	397.05
411.045	430.72
411.422	405.41
411.8	418.97
412.178	416.49
412.555	445.41
412.933	453.1
413.31	426.66
413.687	437.73
414.065	460.78
414.442	428.46
414.819	451.74
415.197	439.31
415.574	443.38
415.951	467.78
416.328	463.04
416.705	478.86
417.082	467.11
417.46	454.9
417.837	481.57
418.214	478.41
418.591	478.18
418.967	467.78
419.344	472.53
419.721	479.31
420.098	478.86
420.475	492.87
420.852	487.44
421.228	493.77
421.605	510.95
421.982	497.16
422.358	516.6
422.735	508.91
423.111	501.68
423.488	491.96
423.864	512.08
424.241	524.96
424.617	513.21
424.994	508.24
425.37	532.19
425.746	544.17
426.123	521.57
426.499	535.13
426.875	538.52
427.251	546.2
427.627	543.71
428.003	545.75
428.379	539.87
428.756	550.95
429.132	564.96
429.507	570.38
429.883	550.04
430.259	566.99
430.635	571.51
431.011	559.31
431.387	579.87
431.763	580.55
432.138	571.28
432.514	580.55
432.89	612.87
433.265	587.33
433.641	579.87
434.016	600.44
434.392	607.67
434.767	599.53
435.143	618.97
435.518	609.02
435.894	615.13
436.269	621.9
436.644	622.81
437.02	654.9
437.395	647.44
437.77	646.54
438.145	648.57
438.52	656.93
438.895	660.1
439.271	656.93
439.646	680.43
440.021	682.47
440.395	661.45
440.77	648.34
441.145	680.43
441.52	703.94
441.895	712.98
442.27	682.69
442.645	692.86
443.019	721.11
443.394	728.57
443.769	719.53
444.143	702.58
444.518	740.55
444.892	727.89
445.267	724.95
445.641	732.41
446.016	716.59
446.39	720.43
446.764	725.86
447.139	733.54
447.513	756.82
447.887	729.92
448.262	749.58
448.636	743.48
449.01	775.12
449.384	753.65
449.758	741.68
450.132	743.94
450.506	762.47
450.88	797.04
451.254	788.23
451.628	789.81
452.002	792.75
452.376	792.75
452.75	828.23
453.123	816.48
453.497	820.54
453.871	815.35
454.244	842.92
454.618	822.13
454.992	863.03
455.365	856.7
455.739	881.56
456.112	859.64
456.486	886.08
456.859	903.25
457.232	912.07
457.606	896.25
457.979	900.32
458.352	933.76
458.725	955.23
459.099	940.31
459.472	964.04
459.845	966.98
460.218	979.64
460.591	968.56
460.964	988
461.337	1026.64
461.71	1037.03
462.083	1070.03
462.456	1026.64
462.829	1040.2
463.201	1056.47
463.574	1058.28
463.947	1079.97
464.32	1090.37
464.692	1114.55
465.065	1112.29
465.438	1115.45
465.81	1140.53
466.183	1160.87
466.555	1181.89
466.928	1197.93
467.3	1225.05
467.672	1230.7
468.045	1290.36
468.417	1256.01
468.789	1278.61
469.161	1284.71
469.534	1321.55
469.906	1329.91
470.278	1362.9
470.65	1400.19
471.022	1414.2
471.394	1449.91
471.766	1487.87
472.138	1503.69
472.51	1502.33
472.882	1548.21
473.253	1589.79
473.625	1612.84
473.997	1660.3
474.369	1680.18
474.74	1719.28
475.112	1773.51
475.484	1802.44
475.855	1837.24
476.227	1887.18
476.598	1935.54
476.97	1991.36
477.341	2054.41
477.713	2097.12
478.084	2120.85
478.455	2196.55
478.827	2222.31
479.198	2341.86
479.569	2368.98
479.94	2477.67
480.311	2516.54
480.682	2576.66
481.053	2689.87
481.424	2722.87
481.795	2834.95
482.166	2885.35
482.537	2946.82
482.908	3083.08
483.279	3138.22
483.65	3234.04
484.021	3347.26
484.391	3411.66
484.762	3505.22
485.133	3577.76
485.503	3698.43
485.874	3862.72
486.244	3887.13
486.615	4057.52
486.985	4128.7
487.356	4284.63
487.726	4380.22
488.097	4547.68
488.467	4628.35
488.837	4744.51
489.207	4868.35
489.578	4970.49
489.948	5088
490.318	5258.39
490.688	5359.63
491.058	5501.78
491.428	5645.73
491.798	5807.08
492.168	5945.83
492.538	6081.65
492.908	6177.46
493.278	6336.1
493.648	6451.58
494.017	6621.75
494.387	6740.84
494.757	6846.15
495.126	7015.63
495.496	7124.11
495.866	7228.74
496.235	7386.92
496.605	7541.27
496.974	7637.31
497.344	7805.22
497.713	8002.5
498.082	8104.19
498.452	8294.02
498.821	8305.32
499.19	8498.99
499.559	8577.4
499.928	8782.59
500.298	8818.07
500.667	8994.79
501.036	9122.7
501.405	9187.78
501.774	9325.63
502.143	9438.4
502.512	9510.48
502.88	9683.81
503.249	9762.68
503.618	9942.79
503.987	10011.71
504.356	10135.55
504.724	10293.51
505.093	10303.91
505.462	10415.77
505.83	10575.32
506.199	10739.15
506.567	10888.08
506.936	10882.88
507.304	11112.25
507.672	11216.88
508.041	11227.28
508.409	11444.22
508.777	11539.81
509.145	11642.41
509.514	11711.78
509.882	11813.93
510.25	11888.73
510.618	12057.99
510.986	12033.81
511.354	12182.96
511.722	12292.78
512.09	12468.15
512.458	12448.94
512.826	12557.86
513.193	12780
513.561	12816.84
513.929	12928.25
514.297	13050.5
514.664	13176.6
515.032	13227
515.4	13349.03
515.767	13402.81
516.135	13519.19
516.502	13401.46
516.869	13731.84
517.237	13777.94
517.604	13699.98
517.972	13870.6
518.339	14033.08
518.706	14096.8
519.073	14172.96
519.44	14204.82
519.808	14273.3
520.175	14328.21
520.542	14553.06
520.909	14626.73
521.276	14654.08
521.643	14803.68
522.009	14870.34
522.376	14898.37
522.743	15059.49
523.11	15170.67
523.477	15340.39
523.843	15391.01
524.21	15515.3
524.577	15615.41
524.943	15647.05
525.31	15772.01
525.676	15892.69
526.043	15978.34
526.409	16039.13
526.776	16144.21
527.142	16223.75
527.508	16269.4
527.874	16423.75
528.241	16516.4
528.607	16518.21
528.973	16631.43
529.339	16581.26
529.705	16704.87
530.071	16818.99
530.437	16921.36
530.803	16930.18
531.169	17062.38
531.535	17061.7
531.901	17079.55
532.267	17080.91
532.632	17144.18
532.998	17267.12
533.364	17299.88
533.73	17299.66
534.095	17520.44
534.461	17408.36
534.826	17496.72
535.192	17522.25
535.557	17654.9
535.923	17652.19
536.288	17685.18
536.653	17603.83
537.019	17696.48
537.384	17730.38
537.749	17758.18
538.114	17819.64
538.479	17863.26
538.845	17837.95
539.21	17787.78
539.575	17906.65
539.94	17908.46
540.305	18016.7
540.67	17878.17
541.034	18065.51
541.399	18072.52
541.764	18019.41
542.129	18049.47
542.494	18152.74
542.858	18114.33
543.223	18147.32
543.587	18276.81
543.952	18192.97
544.316	18205.85
544.681	18211.05
545.045	18305.06
545.41	18310.93
545.774	18299.86
546.138	18319.74
546.503	18328.11
546.867	18251.5
547.231	18527.65
547.595	18384.6
547.959	18512.51
548.324	18454.43
548.688	18441.55
549.052	18522.22
549.416	18555.67
549.779	18522.68
550.143	18478.38
550.507	18712.05
550.871	18549.57
551.235	18620.3
551.599	18684.93
551.962	18606.97
552.326	18719.28
552.689	18744.14
553.053	18663.92
553.417	18795.21
553.78	18923.12
554.143	18900.07
554.507	18843.8
554.87	18963.57
555.234	19061.19
555.597	18912.95
555.96	19021.65
556.323	19032.72
556.686	19105.94
557.05	19110.23
557.413	19202.66
557.776	19127.86
558.139	19328.31
558.502	19300.74
558.865	19360.62
559.228	19449.43
559.59	19364.46
559.953	19413.27
560.316	19669.54
560.679	19607.17
561.041	19691.23
561.404	19728.29
561.767	19880.16
562.129	19783.21
562.492	19891.68
562.854	19873.6
563.217	19940.94
563.579	19985.01
563.941	20140.26
564.304	20114.27
564.666	20337.54
565.028	20308.62
565.39	20261.16
565.753	20410.54
566.115	20388.84
566.477	20467.26
566.839	20522.85
567.201	20529.18
567.563	20648.5
567.925	20693.92
568.287	20700.92
568.648	20727.14
569.01	20765.56
569.372	20928.72
569.734	20949.96
570.095	21020.69
570.457	20965.1
570.819	21093.91
571.18	21064.76
571.542	21153.12
571.903	21188.6
572.265	21237.63
572.626	21386.1
572.987	21441.47
573.349	21383.84
573.71	21476.72
574.071	21440.57
574.432	21527.12
574.794	21618.19
575.155	21657.51
575.516	21591.3
575.877	21748.35
576.238	21686.21
576.599	21798.75
576.96	21793.1
577.32	21829.03
577.681	21860.22
578.042	21963.94
578.403	21838.3
578.763	21887.11
579.124	21913.77
579.485	22057.73
579.845	21992.87
580.206	21922.36
580.566	22063.37
580.927	22099.08
581.287	22142.92
581.648	22173.65
582.008	22158.51
582.368	22134.56
582.728	22144.05
583.089	22162.58
583.449	22122.36
583.809	22065.86
584.169	22118.97
584.529	22102.02
584.889	22294.1
585.249	22033.32
585.609	22078.52
585.969	22254.78
586.329	22105.41
586.688	22247.32
587.048	22200.55
587.408	22106.76
587.768	22062.7
588.127	22144.95
588.487	22077.39
588.846	22209.13
589.206	22109.25
589.565	22143.15
589.925	22141.11
590.284	22103.15
590.643	22156.48
591.003	22185.63
591.362	22231.28
591.721	22301.79
592.08	22124.84
592.44	22279.19
592.799	22285.06
593.158	22178.63
593.517	22254.78
593.876	22329.36
594.235	22226.99
594.593	22170.49
594.952	22182.47
595.311	22193.77
595.67	22258.17
596.029	22296.81
596.387	22344.27
596.746	22445.51
597.104	22219.98
597.463	22244.16
597.822	22331.84
598.18	22232.86
598.538	22205.74
598.897	22375.68
599.255	22207.55
599.613	22556.02
599.972	22383.82
600.33	22365.06
600.688	22213.2
601.046	22329.81
601.404	22406.19
601.762	22424.27
602.12	22473.08
602.478	22643.7
602.836	22450.94
603.194	22463.82
603.552	22521.44
603.91	22351.95
604.268	22548.56
604.625	22495
604.983	22523.25
605.341	22485.06
605.698	22613.87
606.056	22682.57
606.413	22613.19
606.771	22662.45
607.128	22644.38
607.485	22624.04
607.843	22592.85
608.2	22798.72
608.557	22806.41
608.914	22725.96
609.272	22788.55
609.629	22912.39
609.986	22882.56
610.343	22826.74
610.7	22966.63
611.057	22963.24
611.414	22926.18
611.771	22957.59
612.127	23122.33
612.484	23045.95
612.841	23083.23
613.198	23132.73
613.554	23080.98
613.911	23240.74
614.267	23281.42
614.624	23201.88
614.98	23334.3
615.337	23396
615.693	23326.39
616.05	23290.01
616.406	23492.04
616.762	23370.01
617.118	23326.17
617.475	23360.97
617.831	23360.52
618.187	23532.71
618.543	23427.18
618.899	23615.42
619.255	23588.53
619.611	23647.29
619.967	23756.66
620.323	23678.93
620.678	23569.1
621.034	23623.79
621.39	23567.06
621.746	23533.17
622.101	23866.49
622.457	23684.57
622.812	23758.02
623.168	23734.74
623.523	23825.59
623.879	23797.79
624.234	23700.39
624.589	23823.33
624.945	23824.01
625.3	23836.21
625.655	23845.25
626.01	23874.63
626.365	23860.84
626.72	23794.63
627.075	23801.18
627.43	23848.41
627.785	23749.66
628.14	23826.27
628.495	23795.53
628.85	23699.26
629.205	23817.45
629.559	23926.38
629.914	23750.79
630.269	23834.85
630.623	23694.52
630.978	23696.33
631.332	23768.87
631.687	23866.49
632.041	23727.74
632.396	23765.7
632.75	23675.76
633.104	23727.96
633.459	23572.04
633.813	23658.59
634.167	23551.7
634.521	23630.11
634.875	23670.11
635.229	23662.88
635.583	23426.5
635.937	23572.94
636.291	23453.39
636.645	23506.5
636.999	23404.36
637.352	23530.91
637.706	23382.44
638.06	23442.32
638.413	23337.24
638.767	23290.91
639.121	23334.53
639.474	23257.02
639.828	23254.3
640.181	23209.33
640.534	23250.91
640.888	23187.86
641.241	23095.66
641.594	23205.27
641.947	23130.24
642.301	23087.98
642.654	23257.92
643.007	23163.68
643.36	23137.24
643.713	23193.06
644.066	23208.66
644.419	23046.63
644.771	22966.63
645.124	22773.41
645.477	22491.84
645.83	22483.02
646.182	22474.21
646.535	22293.88
646.888	22496.81
647.24	22256.36
647.593	22447.77
647.945	22329.81
648.298	22203.94
648.65	22167.1
649.002	22193.99
649.355	22158.97
649.707	22265.86
650.059	22287.32
650.411	22608.9
650.763	22638.05
651.115	22936.8
651.467	22801.89
651.819	22736.8
652.171	22717.37
652.523	22725.73
652.875	22718.5
653.227	22650.48
653.578	22866.29
653.93	22826.97
654.282	22641.21
654.633	22512.18
654.985	22721.66
655.337	22659.07
655.688	22631.04
656.039	22761.89
656.391	22537.71
656.742	22685.73
657.094	22536.13
657.445	22660.87
657.796	22614.77
658.147	22630.59
658.498	22612.06
658.849	22704.94
659.2	22699.06
659.551	22530.71
659.902	22618.84
660.253	22704.26
660.604	22650.93
660.955	22620.87
661.306	22625.85
661.656	22628.11
662.007	22634.21
662.358	22613.42
662.708	22573.87
663.059	22599.86
663.409	22472.18
663.76	22629.91
664.11	22579.52
664.461	22558.5
664.811	22579.52
665.161	22549.24
665.511	22454.1
665.862	22542.23
666.212	22515.11
666.562	22527.09
666.912	22604.38
667.262	22541.78
667.612	22583.14
667.962	22643.25
668.312	22493.87
668.662	22617.03
669.011	22582.68
669.361	22545.17
669.711	22504.04
670.06	22470.6
670.41	22473.99
670.76	22428.34
671.109	22547.88
671.459	22517.37
671.808	22491.16
672.157	22480.31
672.507	22311.5
672.856	22389.92
673.205	22364.61
673.554	22535.23
673.904	22383.82
674.253	22487.32
674.602	22429.47
674.951	22032.42
675.3	21973.21
675.649	22277.38
675.998	22287.32
676.346	22284.16
676.695	22281
677.044	22266.76
677.393	22282.8
677.741	22237.16
678.09	22249.13
678.438	22086.88
678.787	22238.96
679.135	22248
679.484	22020.21
679.832	22194.44
680.181	21962.13
680.529	22097.05
680.877	22032.87
681.225	21912.64
681.573	22139.3
681.922	21912.87
682.27	21930.72
682.618	21917.39
682.966	21781.8
683.314	21850.5
683.661	21726.89
684.009	21663.61
684.357	21646.89
684.705	21552.2
685.053	21564.63
685.4	21530.73
685.748	21436.27
686.095	21436.05
686.443	21302.94
686.79	21374.58
687.138	21454.13
687.485	21387.69
687.832	21238.99
688.18	21237.41
688.527	21219.1
688.874	21131.42
689.221	21063.17
689.568	21027.92
689.915	21062.05
690.262	21021.37
690.609	20846.91
690.956	20945.21
691.303	20809.62
691.65	20768.04
691.997	20767.14
692.344	20570.08
692.69	20603.3
693.037	20448.28
693.383	20360.82
693.73	20494.15
694.077	20363.76
694.423	20232.46
694.769	20280.14
695.116	20086.03
695.462	20150.88
695.808	20038.57
696.155	20028.4
696.501	19978.23
696.847	19885.35
697.193	19822.3
697.539	19841.96
697.885	19639.03
698.231	19665.7
698.577	19549.99
698.923	19531.01
699.269	19449.21
699.614	19289.89
699.96	19244.24
700.306	19288.31
700.651	19174.86
700.997	19090.57
701.342	19135.09
701.688	19066.62
702.033	18960.86
702.379	19036.11
702.724	18962.44
703.069	18910.01
703.415	18717.47
703.76	18663.24
704.105	18637.25
704.45	18697.36
704.795	18531.04
705.14	18493.3
705.485	18405.84
705.83	18381.21
706.175	18453.3
706.52	18298.73
706.865	18190.26
707.209	18145.29
707.554	18152.97
707.899	18231.39
708.243	18094.21
708.588	18043.82
708.932	18073.2
709.277	17924.73
709.621	18010.83
709.966	17833.2
710.31	17859.19
710.654	17703.72
710.998	17760.44
711.342	17671.4
711.687	17575.36
712.031	17517.51
712.375	17503.49
712.719	17541.46
713.063	17510.05
713.407	17587.11
713.75	17465.98
714.094	17429.6
714.438	17430.28
714.782	17392.76
715.125	17297.85
715.469	17366.32
715.812	17203.62
716.156	17108.02
716.499	17063.05
716.843	17169.72
717.186	17061.25
717.53	17100.12
717.873	17178.31
718.216	17056.5
718.559	16979.44
718.902	16852.66
719.246	17030.96
719.589	16841.37
719.932	16821.03
720.275	16852.89
720.617	16799.78
720.96	16866.9
721.303	16656.74
721.646	16757.53
721.989	16617.42
722.331	16692.44
722.674	16605.44
723.016	16578.32
723.359	16647.02
723.701	16614.25
724.044	16505.78
724.386	16371.09
724.729	16615.83
725.071	16503.52
725.413	16474.14
725.755	16442.73
726.097	16275.28
726.439	16333.36
726.782	16334.26
727.124	16329.74
727.465	16285.67
727.807	16315.96
728.149	16210.2
728.491	16214.94
728.833	16320.47
729.175	16294.03
729.516	16256.3
729.858	16207.03
730.199	16143.98
730.541	16154.38
730.882	16242.06
731.224	16148.5
731.565	16102.85
731.906	16134.94
732.248	16138.11
732.589	16051.56
732.93	15990.54
733.271	16043.87
733.612	16068.73
733.953	16091.1
734.294	15982.86
734.635	15956.87
734.976	16033.25
735.317	15931.11
735.658	15960.94
735.999	15985.34
736.339	15967.49
736.68	15991.67
737.021	15933.82
737.361	15917.32
737.702	15993.25
738.042	15850.66
738.383	15908.06
738.723	15924.1
739.063	15881.62
739.404	15990.09
739.744	15849.07
740.084	15789.19
740.424	15874.16
740.764	15856.08
741.104	15938.56
741.444	15875.06
741.784	15779.47
742.124	15911.22
742.464	15800.26
742.804	15848.4
743.143	15881.16
743.483	15821.05
743.823	15792.35
744.162	15816.99
744.502	15898.34
744.841	15840.94
745.181	15941.5
745.52	15866.25
745.86	15971.33
746.199	16016.3
746.538	15988.05
746.877	16075.74
747.216	16077.32
747.556	15992.57
747.895	16073.02
748.234	16029.64
748.573	16020.14
748.911	16099.46
749.25	16177.43
749.589	16169.74
749.928	16164.32
750.267	16265.56
750.605	16218.56
750.944	16304.66
751.283	16317.76
751.621	16419
751.96	16436.18
752.298	16483.86
752.636	16570.19
752.975	16520.24
753.313	16585.55
753.651	16708.04
753.989	16681.37
754.327	16798.2
754.666	16814.47
755.004	16888.14
755.342	16929.72
755.679	16998.2
756.017	17027.35
756.355	17225.08
756.693	17186.44
757.031	17246.1
