Data from hue_28_FLMS001491_00045.txt Node
Date: Tue Feb 07 17:17:20 GMT 2017
User: dcchb
Spectrometer: FLMS00149
Trigger mode: 0
Integration Time (sec): 2.000000E-2
Scans to average: 10
Electric dark correction enabled: true
Nonlinearity correction enabled: false
Boxcar width: 0
XAxis mode: Wavelengths
Number of Pixels in Spectrum: 2048
>>>>>Begin Spectral Data<<<<<
341.393	-10.58
341.776	-10.58
342.16	-10.58
342.543	-48.32
342.927	-63.46
343.31	-64.14
343.693	-61.65
344.077	-65.94
344.46	-61.42
344.843	-47.87
345.226	-49.67
345.61	-14.87
345.993	-35.66
346.376	-2.44
346.759	5.69
347.142	20.61
347.525	50.66
347.908	52.92
348.291	75.07
348.674	95.18
349.057	103.54
349.44	104.67
349.823	139.47
350.206	154.84
350.588	197.55
350.971	217.21
351.354	235.74
351.737	236.19
352.119	262.86
352.502	280.94
352.884	272.58
353.267	280.04
353.65	289.75
354.032	299.24
354.414	313.71
354.797	321.16
355.179	326.59
355.562	342.86
355.944	332.91
356.326	343.76
356.709	347.38
357.091	361.84
357.473	350.32
357.855	369.98
358.238	355.29
358.62	347.38
359.002	345.57
359.384	336.3
359.766	339.92
360.148	350.99
360.53	362.52
360.912	353.03
361.294	329.75
361.676	348.51
362.057	317.1
362.439	330.43
362.821	338.34
363.203	328.4
363.584	322.97
363.966	347.38
364.348	318.23
364.729	331.79
365.111	329.07
365.493	322.75
365.874	320.71
366.256	311.9
366.637	318.9
367.019	325.23
367.4	325.46
367.781	302.86
368.163	310.77
368.544	290.66
368.925	318.23
369.306	343.99
369.688	325.01
370.069	323.65
370.45	312.12
370.831	333.37
371.212	319.81
371.593	307.38
371.974	343.31
372.355	321.39
372.736	336.98
373.117	327.94
373.498	327.94
373.879	331.33
374.26	314.84
374.641	323.2
375.021	321.62
375.402	319.13
375.783	317.77
376.163	327.04
376.544	342.63
376.925	300.15
377.305	336.3
377.686	338.79
378.066	343.54
378.447	324.55
378.827	311.22
379.208	327.94
379.588	331.56
379.968	338.34
380.349	330.43
380.729	358.68
381.109	342.86
381.489	342.63
381.87	332.01
382.25	327.04
382.63	347.6
383.01	344.21
383.39	344.21
383.77	350.99
384.15	338.11
384.53	352.12
384.91	358.9
385.29	337.66
385.67	349.19
386.049	341.95
386.429	357.55
386.809	372.91
387.189	329.53
387.568	358.68
387.948	352.35
388.328	363.42
388.707	354.61
389.087	367.94
389.466	354.84
389.846	344.44
390.225	368.39
390.605	358.9
390.984	376.98
391.363	378.79
391.743	390.99
392.122	368.17
392.501	358.23
392.881	371.78
393.26	388.05
393.639	367.94
394.018	373.59
394.397	369.52
394.776	379.24
395.155	374.04
395.534	369.52
395.913	393.03
396.292	382.18
396.671	409.07
397.05	385.12
397.429	409.75
397.808	398.22
398.186	383.54
398.565	375.63
398.944	401.84
399.323	412.69
399.701	403.2
400.08	402.29
400.458	419.69
400.837	411.56
401.215	406.13
401.594	408.17
401.972	417.88
402.351	399.58
402.729	423.99
403.107	413.59
403.486	400.03
403.864	419.01
404.242	430.99
404.62	435.29
404.999	427.38
405.377	428.28
405.755	423.53
406.133	421.73
406.511	433.25
406.889	420.14
407.267	430.31
407.645	429.18
408.023	425.34
408.401	438.45
408.779	439.13
409.156	442.74
409.534	442.29
409.912	450.43
410.29	458.34
410.667	455.85
411.045	470.09
411.422	475.74
411.8	461.05
412.178	502.63
412.555	482.06
412.933	470.99
413.31	468.96
413.687	463.31
414.065	489.97
414.442	482.06
414.819	497.66
415.197	469.41
415.574	479.58
415.951	486.36
416.328	471.67
416.705	488.62
417.082	499.46
417.46	504.21
417.837	507.37
418.214	505.79
418.591	501.05
418.967	522.97
419.344	533.59
419.721	515.06
420.098	518.67
420.475	518.9
420.852	527.49
421.228	541.05
421.605	536.3
421.982	537.2
422.358	546.47
422.735	541.95
423.111	535.62
423.488	552.57
423.864	550.76
424.241	563.64
424.617	536.98
424.994	560.93
425.37	561.38
425.746	579.46
426.123	587.37
426.499	558.22
426.875	583.53
427.251	595.96
427.627	607.71
428.003	605.22
428.379	590.08
428.756	597.31
429.132	591.44
429.507	615.39
429.883	615.85
430.259	614.04
430.635	643.19
431.011	632.12
431.387	631.21
431.763	634.83
432.138	647.03
432.514	650.87
432.89	654.71
433.265	660.14
433.641	648.61
434.016	662.62
434.392	677.76
434.767	703.75
435.143	678.44
435.518	681.61
435.894	705.79
436.269	696.52
436.644	713.24
437.02	705.56
437.395	715.73
437.77	714.6
438.145	720.02
438.52	714.6
438.895	732.9
439.271	725
439.646	729.51
440.021	729.74
440.395	731.77
440.77	736.07
441.145	771.1
441.52	760.25
441.895	758.89
442.27	775.84
442.645	761.15
443.019	792.79
443.394	776.52
443.769	796.63
444.143	780.81
444.518	798.21
444.892	788.72
445.267	781.26
445.641	803.41
446.016	800.93
446.39	825.33
446.764	800.25
447.139	838.66
447.513	830.3
447.887	829.4
448.262	833.01
448.636	832.56
449.01	842.28
449.384	863.97
449.758	832.11
450.132	850.42
450.506	850.42
450.88	887.25
451.254	876.86
451.628	876.18
452.002	888.38
452.376	889.74
452.75	907.59
453.123	892.45
453.497	925.67
453.871	919.11
454.244	949.17
454.618	919.57
454.992	951.43
455.365	947.59
455.739	948.72
456.112	980.13
456.486	952.11
456.859	981.71
457.232	981.49
457.606	992.78
457.979	996.63
458.352	1038.21
458.725	1015.61
459.099	1041.82
459.472	1043.86
459.845	1054.48
460.218	1073.69
460.591	1073.23
460.964	1091.77
461.337	1095.61
461.71	1113.91
462.083	1120.69
462.456	1155.49
462.829	1148.26
463.201	1149.62
463.574	1165.89
463.947	1178.99
464.32	1188.94
464.692	1224.42
465.065	1256.51
465.438	1239.78
465.81	1254.7
466.183	1265.55
466.555	1286.11
466.928	1308.26
467.3	1272.33
467.672	1296.51
468.045	1343.74
468.417	1359.78
468.789	1378.99
469.161	1363.4
469.534	1392.32
469.906	1436.84
470.278	1414.69
470.65	1441.59
471.022	1447.24
471.394	1499.21
471.766	1520
472.138	1526.33
472.51	1548.48
472.882	1585.31
473.253	1603.84
473.625	1615.59
473.997	1665.54
474.369	1667.8
474.74	1675.7
475.112	1697.4
475.484	1761.35
475.855	1799.77
476.227	1812.2
476.598	1875.02
476.97	1880.44
477.341	1951.4
477.713	1928.13
478.084	1969.71
478.455	2033.66
478.827	2028.92
479.198	2082.7
479.569	2105.75
479.94	2167.44
480.311	2226.42
480.682	2268.01
481.053	2329.25
481.424	2346.87
481.795	2406.08
482.166	2410.6
482.537	2449.92
482.908	2507.55
483.279	2579.18
483.65	2622.35
484.021	2702.57
484.391	2694.66
484.762	2766.75
485.133	2786.18
485.503	2849.68
485.874	2887.88
486.244	2943.47
486.615	3040.87
486.985	3063.92
487.356	3148.43
487.726	3198.83
488.097	3231.82
488.467	3264.59
488.837	3366.73
489.207	3393.4
489.578	3447.86
489.948	3488.09
490.318	3562.89
490.688	3585.48
491.058	3659.83
491.428	3688.98
491.798	3761.07
492.168	3840.17
492.538	3861.41
492.908	3914.29
493.278	3979.15
493.648	4049.2
494.017	4050.56
494.387	4094.85
494.757	4130.56
495.126	4246.48
495.496	4259.14
495.866	4323.32
496.235	4408.29
496.605	4413.49
496.974	4472.47
497.344	4506.36
497.713	4524.44
498.082	4570.09
498.452	4617.77
498.821	4654.16
499.19	4676.53
499.559	4701.39
499.928	4735.06
500.298	4800.82
500.667	4845.79
501.036	4800.82
501.405	4933.92
501.774	4892.34
502.143	4932.57
502.512	4992.45
502.88	5053.47
503.249	5076.29
503.618	5086.24
503.987	5152.68
504.356	5180.92
504.724	5229.06
505.093	5189.51
505.462	5229.74
505.83	5271.54
506.199	5375.27
506.567	5411.65
506.936	5407.36
507.304	5489.84
507.672	5453.01
508.041	5501.37
508.409	5533.91
508.777	5543.63
509.145	5647.13
509.514	5623.17
509.882	5647.35
510.25	5676.96
510.618	5704.98
510.986	5709.5
511.354	5740.46
511.722	5837.85
512.09	5828.36
512.458	5859.1
512.826	5947.46
513.193	5924.18
513.561	5865.2
513.929	6013.44
514.297	6033.78
514.664	6089.6
515.032	6091.86
515.4	6091.41
515.767	6133.89
516.135	6176.6
516.502	6178.19
516.869	6256.83
517.237	6257.73
517.604	6208.47
517.972	6259.09
518.339	6351.06
518.706	6298.18
519.073	6362.59
519.44	6378.41
519.808	6453.21
520.175	6431.06
520.542	6487.78
520.909	6533.43
521.276	6532.3
521.643	6593.99
522.009	6635.35
522.376	6684.39
522.743	6681.67
523.11	6750.83
523.477	6831.28
523.843	6826.53
524.21	6899.97
524.577	6945.85
524.943	6967.09
525.31	7010.25
525.676	7073.3
526.043	7074.21
526.409	7097.93
526.776	7175.67
527.142	7186.75
527.508	7201.89
527.874	7281.21
528.241	7329.34
528.607	7308.78
528.973	7367.76
529.339	7338.61
529.705	7437.59
530.071	7457.25
530.437	7522.33
530.803	7587.64
531.169	7591.03
531.535	7618.83
531.901	7629.45
532.267	7665.83
532.632	7775.88
532.998	7772.49
533.364	7810.46
533.73	7840.29
534.095	7885.94
534.461	7897.69
534.826	7949.89
535.192	7916.22
535.557	8063.11
535.923	8024.46
536.288	8088.64
536.653	8061.53
537.019	8096.33
537.384	8188.98
537.749	8230.33
538.114	8225.36
538.479	8189.43
538.845	8302.65
539.21	8298.58
539.575	8378.81
539.94	8374.29
540.305	8471.01
540.67	8457
541.034	8450.67
541.399	8527.28
541.764	8517.56
542.129	8562.08
542.494	8592.81
542.858	8629.19
543.223	8612.7
543.587	8775.4
543.952	8721.62
544.316	8763.88
544.681	8726.82
545.045	8886.59
545.41	8876.19
545.774	8941.05
546.138	8951.9
546.503	8964.78
546.867	8920.49
547.231	9053.36
547.595	9071.89
547.959	9075.28
548.324	9075.74
548.688	9214.72
549.052	9177.2
549.416	9267.37
549.779	9233.7
550.143	9257.43
550.507	9310.98
550.871	9341.27
551.235	9304.66
551.599	9462.39
551.962	9395.28
552.326	9435.5
552.689	9554.37
553.053	9469.62
553.417	9550.3
553.78	9686.57
554.143	9679.56
554.507	9659.45
554.87	9688.6
555.234	9764.98
555.597	9764.76
555.96	9736.06
556.323	9756.85
556.686	9873.23
557.05	9825.09
557.413	9903.51
557.776	9956.84
558.139	10021.7
558.502	10014.02
558.865	10035.48
559.228	10118.42
559.59	10099.66
559.953	10120.68
560.316	10237.74
560.679	10224.18
561.041	10314.12
561.404	10384.4
561.767	10395.02
562.129	10348.92
562.492	10489.94
562.854	10451.52
563.217	10403.84
563.579	10546.21
563.941	10606.32
564.304	10616.71
564.666	10664.62
565.028	10675.92
565.39	10771.06
565.753	10753.66
566.115	10758.18
566.477	10829.36
566.839	10846.76
567.201	10968.79
567.563	10951.84
567.925	11037.72
568.287	11039.75
568.648	11100.99
569.01	11123.37
569.372	11246.07
569.734	11146.42
570.095	11206.53
570.457	11260.54
570.819	11332.63
571.18	11384.83
571.542	11515.9
571.903	11467.99
572.265	11432.51
572.626	11620.53
572.987	11639.96
573.349	11684.48
573.71	11806.29
574.071	11802.22
574.432	11968.54
574.794	12034.08
575.155	12100.52
575.516	12042.66
575.877	12164.92
576.238	12187.74
576.599	12320.62
576.96	12387.29
577.32	12409.89
577.681	12545.48
578.042	12726.04
578.403	12733.72
578.763	12859.37
579.124	12981.62
579.485	13003.09
579.845	13191.79
580.206	13243.31
580.566	13384.78
580.927	13464.77
581.287	13662.73
581.648	13818.89
582.008	13997.41
582.368	14107.47
582.728	14211.19
583.089	14440.34
583.449	14558.76
583.809	14722.14
584.169	14838.97
584.529	15040.1
584.889	15403.03
585.249	15415.46
585.609	15597.6
585.969	15933.41
586.329	16056.34
586.688	16306.73
587.048	16457.69
587.408	16667.17
587.768	16942.65
588.127	17154.39
588.487	17343.54
588.846	17729.75
589.206	17867.14
589.565	18107.36
589.925	18435.04
590.284	18706.9
590.643	18923.39
591.003	19227.11
591.362	19566.76
591.721	19784.61
592.08	20038.84
592.44	20359.28
592.799	20787.52
593.158	20985.03
593.517	21139.15
593.876	21445.13
594.235	21734.16
594.593	22122.85
594.952	22458.21
595.311	22630.63
595.67	22933.68
596.029	23421.57
596.387	23650.27
596.746	24007.32
597.104	24185.17
597.463	24493.41
597.822	24872.38
598.18	25081.42
598.538	25374.06
598.897	25624.45
599.255	25874.39
599.613	26565.45
599.972	26613.58
600.33	26970.41
600.688	27065.09
601.046	27622.59
601.404	27803.83
601.762	28005.18
602.12	28470.93
602.478	28747.08
602.836	28948.66
603.194	29201.76
603.552	29497.57
603.91	29597.68
604.268	30026.37
604.625	30098.46
604.983	30455.96
605.341	30596.07
605.698	31042.39
606.056	31405.32
606.413	31550.17
606.771	31892.09
607.128	32237.61
607.485	32280.78
607.843	32302.24
608.2	32804.6
608.557	33193.97
608.914	33266.29
609.272	33626.28
609.629	33832.37
609.986	34079.6
610.343	34099.94
610.7	34464.9
611.057	34630.54
611.414	34638
611.771	34925.23
612.127	35251.77
612.484	35426.23
612.841	35697.63
613.198	35665.32
613.554	35946.89
613.911	36364.06
614.267	36385.98
614.624	36468.24
614.98	36714.78
615.337	37073.19
615.693	37249.01
616.05	37350.7
616.406	37670.24
616.762	37549.79
617.118	37884.24
617.475	37803.57
617.831	38020.96
618.187	38371.01
618.543	38438.13
618.899	38703.21
619.255	38772.13
619.611	38806.48
619.967	38995.4
620.323	39145.68
620.678	39159.24
621.034	39065.68
621.39	39316.97
621.746	39187.49
622.101	39720.35
622.457	39685.1
622.812	39717.87
623.168	39902.95
623.523	40000.57
623.879	40135.48
624.234	39941.59
624.589	40167.35
624.945	40338.19
625.3	40363.73
625.655	40467.9
626.01	40577.51
626.365	40575.25
626.72	40678.52
627.075	40682.59
627.43	40860.44
627.785	40796.94
628.14	40885.97
628.495	40999.42
628.85	40947.44
629.205	40938.17
629.559	41260.65
629.914	41066.76
630.269	41203.7
630.623	41089.81
630.978	40914.22
631.332	41389.69
631.687	41393.3
632.041	41316.24
632.396	41378.84
632.75	41218.17
633.104	41382.46
633.459	41218.85
633.813	41209.13
634.167	41367.99
634.521	41264.49
634.875	41262.46
635.229	41250.94
635.583	41190.37
635.937	41224.72
636.291	41289.13
636.645	41423.59
636.999	41299.52
637.352	41404.6
637.706	41130.71
638.06	41455
638.413	41225.63
638.767	41307.2
639.121	41384.94
639.474	41128.68
639.828	41236.7
640.181	41240.99
640.534	41407.54
640.888	41231.73
641.241	41057.49
641.594	41153.76
641.947	41232.86
642.301	41183.59
642.654	41177.72
643.007	41313.31
643.36	41186.3
643.713	41172.97
644.066	41337.03
644.419	41071.5
644.771	40771.63
645.124	40416.38
645.477	40344.74
645.83	40159.44
646.182	40028.37
646.535	39883.06
646.888	40041.93
647.24	39817.07
647.593	40060.01
647.945	39978.43
648.298	39945.66
648.65	39728.72
649.002	39578.66
649.355	39968.03
649.707	39722.61
650.059	40140.91
650.411	40636.26
650.763	40616.83
651.115	40959.42
651.467	40806.43
651.819	40682.59
652.171	40661.57
652.523	40612.31
652.875	40571.18
653.227	40378.19
653.578	40769.37
653.93	40519.88
654.282	40382.94
654.633	40429.71
654.985	40507.23
655.337	40553.78
655.688	40560.11
656.039	40511.75
656.391	40273.33
656.742	40373.9
657.094	40488.24
657.445	40578.64
657.796	40551.74
658.147	40363.95
658.498	40411.86
658.849	40461.35
659.2	40432.2
659.551	40385.2
659.902	40444.63
660.253	40376.16
660.604	40421.8
660.955	40265.65
661.306	40472.88
661.656	40375.25
662.007	40459.77
662.358	40348.59
662.708	40316.72
663.059	40323.5
663.409	40197.18
663.76	40386.33
664.11	40477.85
664.461	40319.43
664.811	40380.9
665.161	40242.83
665.511	40287.57
665.862	40464.97
666.212	40438.75
666.562	40423.84
666.912	40317.17
667.262	40281.47
667.612	40330.73
667.962	40357.4
668.312	40262.49
668.662	40375.03
669.011	40366.89
669.361	40224.52
669.711	40170.06
670.06	40215.03
670.41	40006.9
670.76	40107.24
671.109	40301.81
671.459	40108.82
671.808	39951.31
672.157	40182.71
672.507	39900.46
672.856	39918.09
673.205	39906.11
673.554	39922.16
673.904	39819.33
674.253	40107.24
674.602	39896.39
674.951	39445.33
675.3	39206.24
675.649	39800.58
675.998	39787.92
676.346	39677.19
676.695	39971.42
677.044	39726.91
677.393	39721.26
677.741	39895.94
678.09	39819.33
678.438	39627.02
678.787	39718.32
679.135	39674.25
679.484	39459.8
679.832	39669.73
680.181	39307.94
680.529	39462.73
680.877	39430.42
681.225	39443.98
681.573	39518.33
681.922	39296.18
682.27	39313.36
682.618	39225
682.966	39050.54
683.314	39199.46
683.661	39073.37
684.009	38899.36
684.357	38909.75
684.705	38800.38
685.053	38918.12
685.4	38902.07
685.748	38742.75
686.095	38675.86
686.443	38545.02
686.79	38468.64
687.138	38441.07
687.485	38552.93
687.832	38563.77
688.18	38380.73
688.527	38169.66
688.874	38207.4
689.221	37976.9
689.568	38164.91
689.915	37902.32
690.262	37778.94
690.609	37857.8
690.956	37627.53
691.303	37641.31
691.65	37496.68
691.997	37551.15
692.344	37426.85
692.69	37229.12
693.037	37256.46
693.383	36911.39
693.73	37127.65
694.077	36801.33
694.423	36942.12
694.769	36886.53
695.116	36547.1
695.462	36661.9
695.808	36603.15
696.155	36704.16
696.501	36374.45
696.847	36284.51
697.193	36081.58
697.539	36349.37
697.885	36020.34
698.231	35889.04
698.577	35860.34
698.923	35777.86
699.269	35700.35
699.614	35342.39
699.96	35481.82
700.306	35364.99
700.651	35303.07
700.997	35087.71
701.342	35027.6
701.688	35173.35
702.033	35023.75
702.379	34894.27
702.724	34867.6
703.069	34911.67
703.415	34616.99
703.76	34681.84
704.105	34684.78
704.45	34484.11
704.795	34240.72
705.14	34157.56
705.485	34151.69
705.83	34064.23
706.175	34090.9
706.52	34037.79
706.865	33735.43
707.209	33737.01
707.554	33749.21
707.899	33691.81
708.243	33540.86
708.588	33472.16
708.932	33406.4
709.277	33304.93
709.621	33133.86
709.966	33048.66
710.31	33105.39
710.654	32785.62
710.998	32962.57
711.342	32866.07
711.687	32800.54
712.031	32728.67
712.375	32503.59
712.719	32713.08
713.063	32648
713.407	32701.33
713.75	32496.14
714.094	32425.86
714.438	32362.81
714.782	32321
715.125	32222.25
715.469	32225.86
715.812	32101.8
716.156	31850.5
716.499	31949.71
716.843	31934.57
717.186	31846.66
717.53	31854.35
717.873	31946.1
718.216	31940.67
718.559	31642.83
718.902	31352.21
719.246	31531.42
719.589	31429.95
719.932	31371.42
720.275	31369.39
720.617	31342.27
720.96	31181.82
721.303	31166.68
721.646	31169.62
721.989	30908.16
722.331	31167.36
722.674	30918.33
723.016	30985.44
723.359	31036.97
723.701	31015.95
724.044	30865.67
724.386	30763.08
724.729	30786.35
725.071	30723.3
725.413	30782.74
725.755	30629.29
726.097	30420.49
726.439	30469.75
726.782	30341.62
727.124	30510.88
727.465	30281.05
727.807	30385.46
728.149	30266.37
728.491	30203.32
728.833	30240.83
729.175	30131.23
729.516	30099.36
729.858	29936.2
730.199	30059.82
730.541	29948.63
730.882	30019.37
731.224	29866.38
731.565	29821.18
731.906	29723.55
732.248	29888.97
732.589	29732.59
732.93	29579.6
733.271	29732.37
733.612	29618.25
733.953	29525.82
734.294	29489.66
734.635	29447.86
734.976	29534.86
735.317	29361.98
735.658	29306.84
735.999	29203.79
736.339	29145.94
736.68	29255.32
737.021	29165.38
737.361	29009
737.702	29125.15
738.042	29077.92
738.383	28979.62
738.723	29009
739.063	28924.93
739.404	28988.88
739.744	28987.75
740.084	28811.04
740.424	28879.96
740.764	28740.76
741.104	28834.09
741.444	28651.04
741.784	28622.57
742.124	28544.83
742.464	28603.13
742.804	28520.65
743.143	28382.12
743.483	28483.14
743.823	28362.69
744.162	28278.17
744.502	28338.73
744.841	28181
745.181	28369.47
745.52	28188
745.86	28242.46
746.199	28146.19
746.538	28163.14
746.877	28155.01
747.216	28062.13
747.556	28043.15
747.895	27970.38
748.234	28004.05
748.573	27874.56
748.911	27778.07
749.25	27686.32
749.589	27709.6
749.928	27733.55
750.267	27751.86
750.605	27641.8
750.944	27623.95
751.283	27510.96
751.621	27633.21
751.96	27371.3
752.298	27379.66
752.636	27463.28
752.975	27231.64
753.313	27223.73
753.651	27375.59
753.989	27149.61
754.327	27086.56
754.666	26972.89
755.004	26957.3
755.342	27073.45
755.679	27025.09
756.017	26887.02
756.355	26918.43
756.693	26716.63
757.031	26733.35
757.368	26624.2
757.706	26508.72
758.044	26551.21
758.381	26525.22
758.719	26381.72
759.056	26470.76
759.394	26416.52
