Data from hue_220_FLMS001491_00049.txt Node
Date: Tue Feb 07 16:39:32 GMT 2017
User: dcchb
Spectrometer: FLMS00149
Trigger mode: 0
Integration Time (sec): 2.000000E-2
Scans to average: 10
Electric dark correction enabled: true
Nonlinearity correction enabled: false
Boxcar width: 0
XAxis mode: Wavelengths
Number of Pixels in Spectrum: 2048
>>>>>Begin Spectral Data<<<<<
341.393	-30.54
341.776	-30.54
342.16	-30.54
342.543	-50.2
342.927	-75.73
343.31	-62.63
343.693	-60.37
344.077	-68.05
344.46	-68.5
344.843	-52
345.226	-48.39
345.61	-52.91
345.993	-9.29
346.376	-6.36
346.759	17.82
347.142	37.71
347.525	59.41
347.908	66.18
348.291	65.28
348.674	103.7
349.057	78.39
349.44	120.42
349.823	131.04
350.206	169.23
350.588	200.42
350.971	199.97
351.354	208.55
351.737	229.57
352.119	220.76
352.502	257.59
352.884	280.64
353.267	283.58
353.65	263.24
354.032	285.84
354.414	316.57
354.797	310.92
355.179	317.48
355.562	323.58
355.944	322.45
356.326	331.26
356.709	339.85
357.091	335.78
357.473	348.89
357.855	335.78
358.238	349.12
358.62	357.93
359.002	330.36
359.384	333.3
359.766	362
360.148	347.76
360.53	346.63
360.912	333.3
361.294	354.76
361.676	332.62
362.057	339.62
362.439	328.78
362.821	311.38
363.203	337.82
363.584	331.26
363.966	334.2
364.348	319.29
364.729	312.51
365.111	303.24
365.493	312.51
365.874	304.6
366.256	335.33
366.637	324.26
367.019	316.8
367.4	318.16
367.781	319.96
368.163	320.87
368.544	307.53
368.925	327.87
369.306	311.15
369.688	312.05
370.069	312.73
370.45	314.09
370.831	303.01
371.212	311.83
371.593	323.13
371.974	313.41
372.355	336.01
372.736	324.03
373.117	330.58
373.498	295.33
373.879	321.77
374.26	319.29
374.641	325.84
375.021	312.28
375.402	323.58
375.783	337.14
376.163	324.26
376.544	314.99
376.925	340.53
377.305	330.13
377.686	332.39
378.066	336.69
378.447	327.87
378.827	334.2
379.208	341.66
379.588	324.93
379.968	344.37
380.349	352.5
380.729	345.05
381.109	345.73
381.489	352.05
381.87	326.74
382.25	351.6
382.63	332.17
383.01	363.58
383.39	365.61
383.77	352.73
384.15	344.82
384.53	358.15
384.91	354.76
385.29	354.09
385.67	357.48
386.049	364.48
386.429	360.41
386.809	365.61
387.189	373.3
387.568	340.3
387.948	359.96
388.328	355.44
388.707	374.2
389.087	370.36
389.466	366.52
389.846	377.36
390.225	387.53
390.605	370.13
390.984	364.71
391.363	373.97
391.743	352.05
392.122	377.59
392.501	394.31
392.881	389.34
393.26	399.74
393.639	387.98
394.018	375.33
394.397	403.8
394.776	385.95
395.155	390.92
395.534	384.82
395.913	396.12
396.292	398.38
396.671	406.51
397.05	390.92
397.429	391.37
397.808	385.27
398.186	406.74
398.565	389.57
398.944	390.92
399.323	434.76
399.701	412.16
400.08	437.93
400.458	430.02
400.837	413.52
401.215	428.21
401.594	422.11
401.972	428.89
402.351	429.34
402.729	436.12
403.107	463.01
403.486	429.11
403.864	442.9
404.242	447.64
404.62	464.37
404.999	484.93
405.377	469.34
405.755	477.02
406.133	477.7
406.511	449.68
406.889	494.87
407.267	472.95
407.645	504.37
408.023	493.52
408.401	502.56
408.779	507.3
409.156	523.8
409.534	533.52
409.912	515.44
410.29	543.69
410.667	549.34
411.045	565.38
411.422	551.6
411.8	579.62
412.178	558.15
412.555	574.87
412.933	575.78
413.31	588.88
413.687	580.75
414.065	620.52
414.442	622.78
414.819	627.98
415.197	643.8
415.574	641.54
415.951	652.61
416.328	681.99
416.705	697.13
417.082	697.13
417.46	701.42
417.837	700.74
418.214	699.16
418.591	728.54
418.967	710.46
419.344	717.02
419.721	740.52
420.098	748.43
420.475	759.73
420.852	759.95
421.228	801.08
421.605	792.72
421.982	805.37
422.358	799.05
422.735	824.81
423.111	821.87
423.488	877.46
423.864	871.59
424.241	904.13
424.617	878.37
424.994	915.2
425.37	916.33
425.746	933.73
426.123	951.81
426.499	947.52
426.875	982.54
427.251	998.14
427.627	983.22
428.003	1017.12
428.379	1012.37
428.756	1034.29
429.132	1065.71
429.507	1054.18
429.883	1062.09
430.259	1105.25
430.635	1107.51
431.011	1128.08
431.387	1125.14
431.763	1138.25
432.138	1170.79
432.514	1135.76
432.89	1230.67
433.265	1246.72
433.641	1259.15
434.016	1241.3
434.392	1284.01
434.767	1310.67
435.143	1316.1
435.518	1340.28
435.894	1380.27
436.269	1405.81
436.644	1428.86
437.02	1434.96
437.395	1449.65
437.77	1474.96
438.145	1511.57
438.52	1521.06
438.895	1528.07
439.271	1561.06
439.646	1592.25
440.021	1609.87
440.395	1647.61
440.77	1604.68
441.145	1641.28
441.52	1674.96
441.895	1692.13
442.27	1705.01
442.645	1717.21
443.019	1759.47
443.394	1765.58
443.769	1770.55
444.143	1745.91
444.518	1794.5
444.892	1817.33
445.267	1834.5
445.641	1839.02
446.016	1880.6
446.39	1888.51
446.764	1936.19
447.139	1907.94
447.513	1938.23
447.887	1928.73
448.262	1970.99
448.636	1948.17
449.01	1973.48
449.384	2004.66
449.758	2022.29
450.132	2055.74
450.506	2065.45
450.88	2053.03
451.254	2083.98
451.628	2075.4
452.002	2107.49
452.376	2138.67
452.75	2153.59
453.123	2157.88
453.497	2214.15
453.871	2203.53
454.244	2259.8
454.618	2289.86
454.992	2303.19
455.365	2310.65
455.739	2352.45
456.112	2382.06
456.486	2412.79
456.859	2410.76
457.232	2460.47
457.606	2477.42
457.979	2418.44
458.352	2501.6
458.725	2533.01
459.099	2571.2
459.472	2621.6
459.845	2628.6
460.218	2642.39
460.591	2673.35
460.964	2703.18
461.337	2749.5
461.71	2735.27
462.083	2768.49
462.456	2814.14
462.829	2843.96
463.201	2857.98
463.574	2898.65
463.947	2942.49
464.32	2971.42
464.692	3011.42
465.065	3024.98
465.438	3072.66
465.81	3103.62
466.183	3141.13
466.555	3191.3
466.928	3233.33
467.3	3236.5
467.672	3258.42
468.045	3356.04
468.417	3334.8
468.789	3366.89
469.161	3405.98
469.534	3457.51
469.906	3544.74
470.278	3544.06
470.65	3538.41
471.022	3646.2
471.394	3682.59
471.766	3723.72
472.138	3767.56
472.51	3840.32
472.882	3878.51
473.253	3859.98
473.625	3947.89
473.997	4037.38
474.369	4083.03
474.74	4151.5
475.112	4163.03
475.484	4266.53
475.855	4242.8
476.227	4286.64
476.598	4390.14
476.97	4432.4
477.341	4502.68
477.713	4559.63
478.084	4570.93
478.455	4693.86
478.827	4688.66
479.198	4842.56
479.569	4876.45
479.94	5024.92
480.311	4979.05
480.682	5113.51
481.053	5207.29
481.424	5266.5
481.795	5299.72
482.166	5392.6
482.537	5477.57
482.908	5567.51
483.279	5583.55
483.65	5626.94
484.021	5797.79
484.391	5845.02
484.762	5829.65
485.133	5934.96
485.503	5991.23
485.874	6077.1
486.244	6080.04
486.615	6195.97
486.985	6313.25
487.356	6362.74
487.726	6432.34
488.097	6534.04
488.467	6538.1
488.837	6659.46
489.207	6724.99
489.578	6774.03
489.948	6883.41
490.318	6921.37
490.688	6944.87
491.058	7040.01
491.428	7139.9
491.798	7172.44
492.168	7344.19
492.538	7312.1
492.908	7345.09
493.278	7455.82
493.648	7440.91
494.017	7538.98
494.387	7565.87
494.757	7640
495.126	7741.46
495.496	7777.17
495.866	7744.4
496.235	7802.03
496.605	7919.31
496.974	7977.39
497.344	8012.19
497.713	8024.17
498.082	8096.26
498.452	8112.53
498.821	8146.2
499.19	8184.84
499.559	8221.45
499.928	8276.14
500.298	8298.51
500.667	8374.44
501.036	8268.23
501.405	8371.28
501.774	8355.01
502.143	8432.74
502.512	8406.76
502.88	8556.36
503.249	8484.27
503.618	8556.36
503.987	8571.5
504.356	8550.71
504.724	8638.16
505.093	8639.52
505.462	8729.23
505.83	8689.91
506.199	8737.37
506.567	8869.34
506.936	8892.39
507.304	8897.36
507.672	8852.17
508.041	8928.78
508.409	8939.17
508.777	8983.46
509.145	9025.95
509.514	9005.38
509.882	9044.71
510.25	8979.17
510.618	9025.05
510.986	9046.74
511.354	9159.96
511.722	9236.79
512.09	9249.22
512.458	9140.07
512.826	9232.27
513.193	9307.07
513.561	9271.14
513.929	9304.81
514.297	9399.72
514.664	9392.72
515.032	9385.49
515.4	9385.49
515.767	9471.81
516.135	9445.83
516.502	9371.7
516.869	9445.37
517.237	9493.96
517.604	9463.9
517.972	9456.67
518.339	9460.74
518.706	9538.03
519.073	9466.62
519.44	9453.73
519.808	9596.78
520.175	9498.03
520.542	9545.94
520.909	9619.61
521.276	9555.43
521.643	9664.35
522.009	9636.55
522.376	9658.47
522.743	9671.58
523.11	9797.45
523.477	9787.06
523.843	9724.91
524.21	9811.01
524.577	9838.13
524.943	9801.07
525.31	9815.08
525.676	9884.91
526.043	9912.93
526.409	9844.46
526.776	9968.52
527.142	9961.74
527.508	10015.75
527.874	9998.35
528.241	10032.93
528.607	9950.44
528.973	10027.5
529.339	10002.42
529.705	10068.41
530.071	10082.19
530.437	10088.29
530.803	10062.53
531.169	10091.91
531.535	10008.07
531.901	10062.53
532.267	9961.74
532.632	10009.65
532.998	10029.31
533.364	10031.35
533.73	10020.73
534.095	10113.38
534.461	10066.6
534.826	9996.55
535.192	9996.09
535.557	9991.12
535.923	10037.67
536.288	9947.96
536.653	9973.72
537.019	9912.25
537.384	9941.63
537.749	9937.34
538.114	9922.42
538.479	9968.07
538.845	9902.54
539.21	9834.97
539.575	9891.92
539.94	9824.8
540.305	9823.89
540.67	9835.42
541.034	9835.42
541.399	9770.56
541.764	9774.4
542.129	9700.06
542.494	9785.93
542.858	9740.51
543.223	9727.4
543.587	9752.03
543.952	9702.32
544.316	9685.82
544.681	9632.94
545.045	9600.85
545.41	9670.68
545.774	9594.97
546.138	9604.46
546.503	9561.53
546.867	9556.78
547.231	9555.2
547.595	9531.25
547.959	9555.43
548.324	9449.89
548.688	9448.76
549.052	9447.18
549.416	9479.5
549.779	9357.92
550.143	9439.5
550.507	9399.5
550.871	9444.7
551.235	9336
551.599	9328.09
551.962	9344.58
552.326	9401.31
552.689	9351.36
553.053	9274.53
553.417	9285.83
553.78	9385.94
554.143	9277.02
554.507	9247.41
554.87	9232.5
555.234	9331.25
555.597	9198.37
555.96	9271.14
556.323	9248.54
556.686	9191.37
557.05	9259.62
557.413	9251.48
557.776	9273.4
558.139	9201.09
558.502	9247.64
558.865	9257.13
559.228	9214.64
559.59	9260.75
559.953	9184.59
560.316	9317.92
560.679	9243.34
561.041	9244.47
561.404	9307.98
561.767	9275.43
562.129	9240.18
562.492	9323.57
562.854	9284.47
563.217	9260.75
563.579	9303.46
563.941	9287.64
564.304	9339.39
564.666	9364.47
565.028	9309.78
565.39	9355.88
565.753	9405.6
566.115	9310.69
566.477	9399.72
566.839	9391.82
567.201	9399.5
567.563	9500.29
567.925	9473.39
568.287	9489.21
568.648	9462.1
569.01	9439.5
569.372	9581.19
569.734	9457.8
570.095	9529.44
570.457	9542.55
570.819	9601.08
571.18	9577.8
571.542	9611.7
571.903	9599.27
572.265	9638.14
572.626	9682.88
572.987	9630
573.349	9711.58
573.71	9672.49
574.071	9740.28
574.432	9747.06
574.794	9807.4
575.155	9773.05
575.516	9727.4
575.877	9874.29
576.238	9847.62
576.599	9874.74
576.96	9847.4
577.32	9892.37
577.681	9859.37
578.042	9924.23
578.403	9919.48
578.763	9965.81
579.124	9971.23
579.485	10009.2
579.845	10025.02
580.206	10015.3
580.566	10098.46
580.927	10068.86
581.287	10078.58
581.648	10060.72
582.008	10125.81
582.368	10119.71
582.728	10136.88
583.089	10152.25
583.449	10145.02
583.809	10216.65
584.169	10207.61
584.529	10199.93
584.889	10297.78
585.249	10177.33
585.609	10233.37
585.969	10235.18
586.329	10268.63
586.688	10313.6
587.048	10304.33
587.408	10309.08
587.768	10262.75
588.127	10354.73
588.487	10269.31
588.846	10430.88
589.206	10325.12
589.565	10357.89
589.925	10409.64
590.284	10397.89
590.643	10482.18
591.003	10438.79
591.362	10499.13
591.721	10431.56
592.08	10428.85
592.44	10516.53
592.799	10481.28
593.158	10511.33
593.517	10455.74
593.876	10518.34
594.235	10586.36
594.593	10523.76
594.952	10511.33
595.311	10574.83
595.67	10583.42
596.029	10586.13
596.387	10566.93
596.746	10648.73
597.104	10568.96
597.463	10581.39
597.822	10614.83
598.18	10469.3
598.538	10547.94
598.897	10670.65
599.255	10576.42
599.613	10759.46
599.972	10674.04
600.33	10614.61
600.688	10572.8
601.046	10638.56
601.404	10737.54
601.762	10703.87
602.12	10787.48
602.478	10730.31
602.836	10820.7
603.194	10774.15
603.552	10691.67
603.91	10675.62
604.268	10759.24
604.625	10655.74
604.983	10787.94
605.341	10712.46
605.698	10664.1
606.056	10770.08
606.413	10727.83
606.771	10841.95
607.128	10770.31
607.485	10744.55
607.843	10815.28
608.2	10822.06
608.557	10884.21
608.914	10856.41
609.272	10889.18
609.629	10815.51
609.986	10950.87
610.343	10843.08
610.7	10934.15
611.057	10963.98
611.414	10907.48
611.771	10975.95
612.127	10977.76
612.484	10969.4
612.841	11038.55
613.198	10982.06
613.554	10996.52
613.911	11059.79
614.267	11072.67
614.624	10998.33
614.98	11024.09
615.337	11029.74
615.693	11035.61
616.05	11031.32
616.406	11058.66
616.762	11081.71
617.118	11095.95
617.475	11107.93
617.831	11155.84
618.187	11089.85
618.543	11154.25
618.899	11134.59
619.255	11180.47
619.611	11208.49
619.967	11183.18
620.323	11229.96
620.678	11193.12
621.034	11131.2
621.39	11167.59
621.746	11045.11
622.101	11249.62
622.457	11188.38
622.812	11143.18
623.168	11179.79
623.523	11160.58
623.879	11214.59
624.234	11130.53
624.589	11193.35
624.945	11211.88
625.3	11257.08
625.655	11136.4
626.01	11177.3
626.365	11171.88
626.72	11212.33
627.075	11149.28
627.43	11184.76
627.785	11161.03
628.14	11152.45
628.495	11161.26
628.85	11143.63
629.205	11140.47
629.559	11175.05
629.914	11173.01
630.269	11125.55
630.623	11060.02
630.978	11072.45
631.332	11106.35
631.687	11138.21
632.041	11003.07
632.396	11038.1
632.75	11024.77
633.104	11024.31
633.459	11033.35
633.813	10983.41
634.167	10987.48
634.521	10994.48
634.875	10977.76
635.229	10942.28
635.583	10907.48
635.937	10887.37
636.291	10809.18
636.645	10881.27
636.999	10773.7
637.352	10909.29
637.706	10876.07
638.06	10922.62
638.413	10834.72
638.767	10806.24
639.121	10801.27
639.474	10788.39
639.828	10767.82
640.181	10768.05
640.534	10757.2
640.888	10742.29
641.241	10696.87
641.594	10705.9
641.947	10795.39
642.301	10653.7
642.654	10717.66
643.007	10792.91
643.36	10752.01
643.713	10713.81
644.066	10709.97
644.419	10674.95
644.771	10620.94
645.124	10570.32
645.477	10497.55
645.83	10495.74
646.182	10408.29
646.535	10438.79
646.888	10389.53
647.24	10335.29
647.593	10365.8
647.945	10309.08
648.298	10331.9
648.65	10200.61
649.002	10225.01
649.355	10301.4
649.707	10288.74
650.059	10370.09
650.411	10500.94
650.763	10476.76
651.115	10547.72
651.467	10542.29
651.819	10577.55
652.171	10569.86
652.523	10485.35
652.875	10566.47
653.227	10477.21
653.578	10607.15
653.93	10559.02
654.282	10452.58
654.633	10538.45
654.985	10505.68
655.337	10545.01
655.688	10600.82
656.039	10542.75
656.391	10430.21
656.742	10533.03
657.094	10503.42
657.445	10593.59
657.796	10568.28
658.147	10563.08
658.498	10561.05
658.849	10529.86
659.2	10558.11
659.551	10608.05
659.902	10541.16
660.253	10581.39
660.604	10608.28
660.955	10527.6
661.306	10520.15
661.656	10566.7
662.007	10521.05
662.358	10557.89
662.708	10568.73
663.059	10585.68
663.409	10490.09
663.76	10575.06
664.11	10542.07
664.461	10579.13
664.811	10582.74
665.161	10623.65
665.511	10544.78
665.862	10584.1
666.212	10599.92
666.562	10575.06
666.912	10570.99
667.262	10529.41
667.612	10524.44
667.962	10596.53
668.312	10530.54
668.662	10618
669.011	10556.76
669.361	10530.77
669.711	10488.06
670.06	10542.75
670.41	10528.28
670.76	10494.61
671.109	10585.46
671.459	10529.41
671.808	10450.54
672.157	10570.99
672.507	10470.66
672.856	10497.55
673.205	10460.26
673.554	10553.82
673.904	10450.09
674.253	10495.06
674.602	10493.71
674.951	10349.08
675.3	10261.4
675.649	10440.6
675.998	10361.06
676.346	10408.29
676.695	10404.67
677.044	10351.56
677.393	10307.72
677.741	10429.08
678.09	10338.01
678.438	10340.26
678.787	10365.12
679.135	10390.88
679.484	10240.38
679.832	10299.36
680.181	10283.54
680.529	10284.9
680.877	10251.45
681.225	10194.96
681.573	10248.74
681.922	10138.01
682.27	10144.34
682.618	10167.61
682.966	10102.76
683.314	10157.22
683.661	10109.76
684.009	10058.01
684.357	9971.46
684.705	10046.26
685.053	10071.35
685.4	10005.58
685.748	9946.83
686.095	9967.17
686.443	9893.27
686.79	9874.06
687.138	9922.87
687.485	9961.07
687.832	9810.11
688.18	9841.75
688.527	9772.82
688.874	9725.82
689.221	9732.15
689.568	9771.01
689.915	9674.29
690.262	9692.6
690.609	9621.87
690.956	9602.21
691.303	9525.15
691.65	9580.74
691.997	9555.43
692.344	9524.92
692.69	9429.55
693.037	9452.15
693.383	9347.52
693.73	9352.72
694.077	9261.42
694.423	9225.49
694.769	9252.61
695.116	9264.36
695.462	9254.19
695.808	9165.61
696.155	9180.52
696.501	9120.86
696.847	9143.01
697.193	9037.93
697.539	9070.02
697.885	8970.81
698.231	8901.43
698.577	8905.27
698.923	8959.06
699.269	8875.22
699.614	8893.52
699.96	8816.69
700.306	8764.71
700.651	8771.94
700.997	8722.68
701.342	8716.13
701.688	8665.96
702.033	8564.72
702.379	8578.96
702.724	8605.62
703.069	8585.28
703.415	8503.03
703.76	8493.99
704.105	8529.01
704.45	8504.15
704.795	8382.35
705.14	8380.09
705.485	8370.37
705.83	8341.45
706.175	8301.9
706.52	8293.54
706.865	8237.5
707.209	8250.6
707.554	8189.13
707.899	8272.07
708.243	8188.23
708.588	8140.32
708.932	8147.33
709.277	8126.09
709.621	8078.18
709.966	8079.99
710.31	8016.71
710.654	7962.02
710.998	8010.61
711.342	7978.97
711.687	7972.87
712.031	7877.05
712.375	7879.09
712.719	7899.65
713.063	7910.27
713.407	7903.72
713.75	7786.43
714.094	7780.56
714.438	7798.18
714.782	7869.82
715.125	7785.53
715.469	7782.59
715.812	7738.07
716.156	7695.14
716.499	7725.42
716.843	7722.03
717.186	7647.45
717.53	7741.69
717.873	7668.47
718.216	7640.9
718.559	7578.76
718.902	7628.47
719.246	7591.18
719.589	7547.57
719.932	7583.5
720.275	7607.91
720.617	7595.03
720.96	7528.14
721.303	7534.01
721.646	7568.13
721.989	7489.27
722.331	7479.78
722.674	7566.78
723.016	7545.76
723.359	7491.53
723.701	7486.33
724.044	7440.91
724.386	7439.55
724.729	7479.32
725.071	7432.09
725.413	7440
725.755	7455.37
726.097	7451.3
726.439	7396.16
726.782	7390.51
727.124	7467.8
727.465	7341.02
727.807	7318.2
728.149	7394.13
728.491	7395.26
728.833	7393.9
729.175	7322.04
729.516	7327.69
729.858	7345.77
730.199	7406.33
730.541	7335.82
730.882	7386.44
731.224	7394.58
731.565	7337.18
731.906	7386.9
732.248	7335.6
732.589	7345.54
732.93	7344.86
733.271	7316.39
733.612	7358.2
733.953	7391.87
734.294	7332.43
734.635	7345.09
734.976	7371.08
735.317	7320.01
735.658	7321.81
735.999	7372.43
736.339	7341.93
736.68	7388.93
737.021	7383.05
737.361	7364.52
737.702	7390.29
738.042	7357.52
738.383	7373.34
738.723	7413.56
739.063	7410.4
739.404	7444.3
739.744	7456.72
740.084	7418.31
740.424	7472.77
740.764	7388.48
741.104	7524.29
741.444	7486.33
741.784	7452.21
742.124	7438.87
742.464	7479.55
742.804	7499.21
743.143	7513.22
743.483	7591.18
743.823	7564.29
744.162	7561.13
744.502	7604.52
744.841	7588.92
745.181	7628.7
745.52	7685.42
745.86	7717.51
746.199	7730.16
746.538	7760.67
746.877	7804.96
747.216	7866.66
747.556	8012.64
747.895	7900.78
748.234	8003.83
748.573	8065.97
748.911	8085.63
749.25	8147.1
749.589	8201.34
749.928	8237.5
750.267	8351.84
750.605	8275.23
750.944	8440.88
751.283	8493.76
751.621	8649.24
751.96	8673.42
752.298	8743.92
752.636	8895.33
752.975	8923.58
753.313	9016.46
753.651	9175.55
753.989	9185.94
754.327	9268.65
754.666	9436.56
755.004	9596.33
755.342	9666.61
755.679	9840.39
756.017	9867.73
756.355	10061.63
756.693	10143.43
757.031	10362.41
757.368	10418.68
757.706	10584.55
758.044	10725.34
758.381	10899.57
758.719	11037.87
759.056	11218.89
759.394	11317.87
759.731	11426.79
760.068	11595.37
760.405	11721.47
760.743	11977.51
761.08	12167.79
761.417	12292.76
761.754	12423.6
762.091	12644.84
762.428	12806.41
762.765	12966.18
