Data from hue_90_FLMS001491_97.txt Node
Date: Mon Feb 06 15:25:57 GMT 2017
User: dcchb
Spectrometer: FLMS00149
Trigger mode: 0
Integration Time (sec): 2.000000E-2
Scans to average: 10
Electric dark correction enabled: true
Nonlinearity correction enabled: false
Boxcar width: 0
XAxis mode: Wavelengths
Number of Pixels in Spectrum: 2048
>>>>>Begin Spectral Data<<<<<
341.393	-11.72
341.776	-11.72
342.16	-11.72
342.543	-39.29
342.927	-54.21
343.31	-72.29
343.693	-67.54
344.077	-65.73
344.46	-61.89
344.843	-50.82
345.226	-50.59
345.61	-18.95
345.993	-4.04
346.376	-9.24
346.759	14.94
347.142	11.55
347.525	44.77
347.908	58.33
348.291	63.3
348.674	85
349.057	123.19
349.44	134.04
349.823	143.98
350.206	173.58
350.588	183.3
350.971	215.84
351.354	236.41
351.737	232.56
352.119	261.26
352.502	259.91
352.884	292.22
353.267	267.37
353.65	291.09
354.032	300.81
354.414	313.24
354.797	312.79
355.179	308.04
355.562	324.09
355.944	306.91
356.326	313.01
356.709	348.04
357.091	326.57
357.473	353.47
357.855	357.53
358.238	348.04
358.62	346.69
359.002	344.2
359.384	332.45
359.766	355.5
360.148	335.61
360.53	335.39
360.912	337.42
361.294	343.3
361.676	328.61
362.057	318.44
362.439	333.8
362.821	324.54
363.203	316.18
363.584	324.31
363.966	342.39
364.348	312.56
364.729	310.3
365.111	328.83
365.493	305.56
365.874	303.75
366.256	304.43
366.637	314.6
367.019	308.49
367.4	310.08
367.781	326.35
368.163	332.67
368.544	342.39
368.925	311.43
369.306	317.08
369.688	307.14
370.069	338.32
370.45	313.92
370.831	320.25
371.212	319.79
371.593	313.47
371.974	298.1
372.355	316.4
372.736	296.74
373.117	313.01
373.498	313.01
373.879	306.91
374.26	323.18
374.641	298.55
375.021	307.59
375.402	320.92
375.783	323.64
376.163	313.01
376.544	321.83
376.925	324.99
377.305	343.3
377.686	327.7
378.066	329.74
378.447	332.67
378.827	341.94
379.208	319.34
379.588	344.2
379.968	351.43
380.349	317.53
380.729	329.96
381.109	329.29
381.489	345.56
381.87	357.98
382.25	337.19
382.63	340.36
383.01	343.3
383.39	348.95
383.77	358.21
384.15	344.88
384.53	365.44
384.91	360.92
385.29	355.95
385.67	381.71
386.049	355.95
386.429	343.07
386.809	336.29
387.189	359.79
387.568	364.09
387.948	374.71
388.328	358.66
388.707	359.11
389.087	359.79
389.466	363.18
389.846	370.87
390.225	380.36
390.605	365.22
390.984	361.6
391.363	363.41
391.743	361.83
392.122	360.7
392.501	373.35
392.881	362.05
393.26	409.28
393.639	394.59
394.018	369.96
394.397	389.4
394.776	372.9
395.155	384.65
395.534	385.1
395.913	381.04
396.292	382.17
396.671	405.89
397.05	378.1
397.429	385.33
397.808	381.26
398.186	401.6
398.565	404.54
398.944	390.07
399.323	400.92
399.701	375.16
400.08	391.43
400.458	407.93
400.837	401.15
401.215	401.83
401.594	396.85
401.972	411.09
402.351	413.12
402.729	416.06
403.107	400.24
403.486	406.35
403.864	423.97
404.242	438.66
404.62	422.62
404.999	430.53
405.377	417.64
405.755	427.36
406.133	428.94
406.511	424.2
406.889	415.84
407.267	439.34
407.645	449.28
408.023	441.37
408.401	438.21
408.779	444.76
409.156	452.45
409.534	442.73
409.912	429.85
410.29	468.04
410.667	449.06
411.045	443.41
411.422	462.61
411.8	445.44
412.178	476.4
412.555	466.68
412.933	496.51
413.31	445.67
413.687	487.25
414.065	493.12
414.442	479.11
414.819	472.78
415.197	502.61
415.574	482.95
415.951	503.97
416.328	500.81
416.705	502.61
417.082	500.13
417.46	505.78
417.837	503.29
418.214	503.29
418.591	522.05
418.967	508.26
419.344	511.43
419.721	517.3
420.098	533.12
420.475	510.07
420.852	532.67
421.228	518.21
421.605	540.8
421.982	556.4
422.358	541.48
422.735	548.04
423.111	565.21
423.488	569.73
423.864	547.36
424.241	571.99
424.617	578.77
424.994	572.22
425.37	565.89
425.746	561.14
426.123	580.8
426.499	574.7
426.875	570.18
427.251	595.04
427.627	581.93
428.003	596.17
428.379	592.33
428.756	632.1
429.132	615.38
429.507	621.71
429.883	600.92
430.259	619.22
430.635	640.46
431.011	620.8
431.387	632.33
431.763	622.84
432.138	645.89
432.514	656.06
432.89	664.19
433.265	681.82
433.641	664.42
434.016	661.93
434.392	687.24
434.767	699.67
435.143	680.46
435.518	709.61
435.894	717.98
436.269	709.16
436.644	741.93
437.02	700.35
437.395	736.28
437.77	733.34
438.145	759.56
438.52	743.51
438.895	760.69
439.271	749.16
439.646	739.67
440.021	760.01
440.395	752.1
440.77	761.59
441.145	772.44
441.52	795.94
441.895	791.87
442.27	799.33
442.645	780.8
443.019	791.65
443.394	795.26
443.769	819.89
444.143	820.35
444.518	823.96
444.892	818.09
445.267	840.01
445.641	858.99
446.016	848.59
446.39	844.07
446.764	839.55
447.139	856.95
447.513	849.05
447.887	855.6
448.262	871.87
448.636	887.69
449.01	901.25
449.384	908.03
449.758	916.84
450.132	922.26
450.506	899.44
450.88	916.16
451.254	939.21
451.628	901.93
452.002	938.31
452.376	948.25
452.75	950.51
453.123	981.02
453.497	973.11
453.871	969.95
454.244	989.83
454.618	990.96
454.992	1004.07
455.365	1007.46
455.739	1037.06
456.112	1039.1
456.486	1054.69
456.859	1070.73
457.232	1081.81
457.606	1078.64
457.979	1109.15
458.352	1125.42
458.725	1091.3
459.099	1124.52
459.472	1138.08
459.845	1145.76
460.218	1162.71
460.591	1162.71
460.964	1192.77
461.337	1195.48
461.71	1232.31
462.083	1209.26
462.456	1254.68
462.829	1270.5
463.201	1290.84
463.574	1289.26
463.947	1299.2
464.32	1340.11
464.692	1327
465.065	1369.94
465.438	1365.87
465.81	1399.54
466.183	1404.51
466.555	1445.41
466.928	1453.32
467.3	1447
467.672	1493.1
468.045	1528.58
468.417	1536.26
468.789	1527.67
469.161	1567.22
469.534	1584.62
469.906	1660.32
470.278	1662.81
470.65	1677.05
471.022	1734.67
471.394	1733.32
471.766	1782.13
472.138	1788.91
472.51	1856.48
472.882	1868
473.253	1912.29
473.625	1909.81
473.997	1955.68
474.369	2011.27
474.74	2041.33
475.112	2104.15
475.484	2161.1
475.855	2176.24
476.227	2232.29
476.598	2315.45
476.97	2340.31
477.341	2402.68
477.713	2454.43
478.084	2502.11
478.455	2611.03
478.827	2642.67
479.198	2715.44
479.569	2775.32
479.94	2867.75
480.311	2911.82
480.682	3001.53
481.053	3113.84
481.424	3180.74
481.795	3270.22
482.166	3316.33
482.537	3407.62
482.908	3521.97
483.279	3613.04
483.65	3676.77
484.021	3825.46
484.391	3868.85
484.762	3997.21
485.133	3996.99
485.503	4153.82
485.874	4239.01
486.244	4384.32
486.615	4502.73
486.985	4600.59
487.356	4677.19
487.726	4798.55
488.097	4993.57
488.467	5071.99
488.837	5199.89
489.207	5276.27
489.578	5441.92
489.948	5540.22
490.318	5664.74
490.688	5802.14
491.058	5874
491.428	6035.12
491.798	6152.63
492.168	6302.69
492.538	6350.82
492.908	6516.69
493.278	6644.37
493.648	6746.52
494.017	6891.82
494.387	6980.41
494.757	7122.33
495.126	7247.52
495.496	7287.75
495.866	7423.11
496.235	7587.63
496.605	7673.95
496.974	7792.59
497.344	7908.07
497.713	7983.55
498.082	8135.18
498.452	8178.8
498.821	8251.34
499.19	8376.76
499.559	8540.37
499.928	8635.73
500.298	8679.12
500.667	8825.11
501.036	8879.34
501.405	8893.13
501.774	8997.76
502.143	9197.3
502.512	9186.68
502.88	9383.28
503.249	9362.72
503.618	9440.01
503.987	9558.2
504.356	9641.81
504.724	9779.66
505.093	9755.7
505.462	9744.63
505.83	9929.48
506.199	9973.33
506.567	10077.28
506.936	10161.12
507.304	10270.04
507.672	10290.15
508.041	10373.99
508.409	10444.73
508.777	10606.08
509.145	10602.91
509.514	10591.84
509.882	10688.33
510.25	10710.71
510.618	10849.01
510.986	10783.25
511.354	10913.87
511.722	11030.25
512.09	11137.14
512.458	11110.24
512.826	11220.07
513.193	11314.76
513.561	11279.73
513.929	11307.3
514.297	11387.75
514.664	11524.47
515.032	11508.88
515.4	11523.79
515.767	11566.05
516.135	11655.09
516.502	11603.34
516.869	11726.95
517.237	11705.03
517.604	11736.67
517.972	11822.77
518.339	11865.48
518.706	11838.14
519.073	11857.12
519.44	12013.72
519.808	12053.27
520.175	11974.63
520.542	12120.39
520.909	12111.12
521.276	12173.49
521.643	12273.38
522.009	12232.25
522.376	12226.15
522.743	12347.73
523.11	12436.09
523.477	12497.1
523.843	12469.98
524.21	12508.63
524.577	12627.72
524.943	12637.66
525.31	12722.41
525.676	12733.48
526.043	12702.29
526.409	12751.56
526.776	12775.29
527.142	12809.86
527.508	12784.1
527.874	12768.28
528.241	12879.46
528.607	12889.41
528.973	12949.07
529.339	12930.99
529.705	13025.22
530.071	12968.05
530.437	13005.79
530.803	13069.06
531.169	12948.61
531.535	12865.68
531.901	12900.48
532.267	13049.18
532.632	13017.31
532.998	12987.48
533.364	13041.72
533.73	13011.44
534.095	13078.33
534.461	13008.95
534.826	12974.15
535.192	13025.45
535.557	13099.12
535.923	12962.85
536.288	13016.86
536.653	13025.45
537.019	12910.2
537.384	12956.75
537.749	12932.57
538.114	12978.44
538.479	12894.15
538.845	12951.33
539.21	12831.1
539.575	12869.97
539.94	12857.32
540.305	12903.64
540.67	12800.14
541.034	12772.12
541.399	12769.41
541.764	12705.46
542.129	12746.13
542.494	12730.09
542.858	12689.86
543.223	12643.99
543.587	12724.21
543.952	12618.23
544.316	12667.49
544.681	12540.04
545.045	12590.43
545.41	12605.12
545.774	12487.84
546.138	12476.31
546.503	12479.7
546.867	12453.49
547.231	12518.8
547.595	12419.59
547.959	12420.27
548.324	12410.1
548.688	12309.31
549.052	12326.48
549.416	12301.4
549.779	12330.55
550.143	12259.14
550.507	12352.92
550.871	12315.18
551.235	12225.02
551.599	12310.89
551.962	12221.18
552.326	12169.43
552.689	12169.65
553.053	12145.7
553.417	12134.62
553.78	12204.91
554.143	12157.45
554.507	12152.93
554.87	12131.01
555.234	12261.63
555.597	12070.45
555.96	12044.01
556.323	12112.7
556.686	12113.83
557.05	12113.61
557.413	12102.76
557.776	12067.73
558.139	12126.49
558.502	12067.28
558.865	12103.89
559.228	12084.68
559.59	12027.06
559.953	12114.74
560.316	12143.21
560.679	12098.69
561.041	12186.6
561.404	12131.01
561.767	12149.54
562.129	12109.31
562.492	12174.62
562.854	12181.4
563.217	12102.76
563.579	12105.02
563.941	12179.14
564.304	12241.06
564.666	12328.97
565.028	12238.12
565.39	12238.58
565.753	12262.98
566.115	12366.26
566.477	12262.3
566.839	12366.03
567.201	12332.81
567.563	12310.44
567.925	12427.05
568.287	12382.08
568.648	12394.28
569.01	12446.03
569.372	12508.85
569.734	12424.56
570.095	12409.87
570.457	12439.02
570.819	12486.03
571.18	12501.39
571.542	12557.21
571.903	12504.33
572.265	12500.26
572.626	12580.94
572.987	12636.98
573.349	12590.88
573.71	12590.21
574.071	12608.96
574.432	12690.32
574.794	12733.48
575.155	12605.12
575.516	12699.81
575.877	12614.61
576.238	12634.5
576.599	12735.06
576.96	12739.81
577.32	12680.82
577.681	12695.51
578.042	12693.71
578.403	12694.38
578.763	12725.34
579.124	12788.39
579.485	12751.78
579.845	12833.59
580.206	12729.64
580.566	12765.34
580.927	12665.91
581.287	12753.14
581.648	12785.23
582.008	12786.36
582.368	12841.05
582.728	12730.77
583.089	12780.71
583.449	12759.24
583.809	12808.96
584.169	12775.96
584.529	12684.21
584.889	12837.43
585.249	12745
585.609	12701.16
585.969	12719.47
586.329	12735.74
586.688	12705
587.048	12754.95
587.408	12646.25
587.768	12631.11
588.127	12665.23
588.487	12668.4
588.846	12635.85
589.206	12620.94
589.565	12650.32
589.925	12665.46
590.284	12658.23
590.643	12612.58
591.003	12671.79
591.362	12695.06
591.721	12634.95
592.08	12582.3
592.44	12589.3
592.799	12615.52
593.158	12696.19
593.517	12668.62
593.876	12590.21
594.235	12553.37
594.593	12588.17
594.952	12518.57
595.311	12444.67
595.67	12582.75
596.029	12603.99
596.387	12659.36
596.746	12594.05
597.104	12543.2
597.463	12483.09
597.822	12575.06
598.18	12506.37
598.538	12502.75
598.897	12589.75
599.255	12500.94
599.613	12643.76
599.972	12524.67
600.33	12529.64
600.688	12526.03
601.046	12545.46
601.404	12637.44
601.762	12518.8
602.12	12653.48
602.478	12598.34
602.836	12578.23
603.194	12505.01
603.552	12602.41
603.91	12464.56
604.268	12542.3
604.625	12433.83
604.983	12491
605.341	12492.13
605.698	12611
606.056	12604.89
606.413	12527.61
606.771	12610.32
607.128	12621.84
607.485	12514.28
607.843	12562.18
608.2	12611.67
608.557	12639.24
608.914	12596.53
609.272	12652.35
609.629	12629.07
609.986	12655.74
610.343	12669.53
610.7	12736.42
611.057	12668.62
611.414	12695.51
611.771	12637.89
612.127	12746.81
612.484	12709.52
612.841	12757.21
613.198	12691.9
613.554	12618.68
613.911	12760.14
614.267	12712.91
614.624	12734.16
614.98	12686.7
615.337	12874.72
615.693	12735.51
616.05	12780.71
616.406	12901.38
616.762	12770.54
617.118	12852.8
617.475	12771.22
617.831	12898.9
618.187	12866.36
618.543	12944.77
618.899	12937.99
619.255	12876.07
619.611	12845.57
619.967	12958.11
620.323	12972.12
620.678	12935.96
621.034	12909.07
621.39	12918.78
621.746	12914.49
622.101	13024.77
622.457	12867.49
622.812	12921.72
623.168	12962.17
623.523	12985.22
623.879	13055.28
624.234	12928.28
624.589	12973.25
624.945	13002.62
625.3	12941.83
625.655	12899.8
626.01	13020.48
626.365	12908.39
626.72	12870.65
627.075	12946.13
627.43	12886.92
627.785	12892.34
628.14	12884.66
628.495	12892.57
628.85	12891.44
629.205	12900.25
629.559	12914.04
629.914	12863.19
630.269	12919.01
630.623	12871.78
630.978	12853.02
631.332	12833.14
631.687	12822.29
632.041	12741.61
632.396	12818.67
632.75	12732.35
633.104	12775.96
633.459	12651
633.813	12648.74
634.167	12763.31
634.521	12626.59
634.875	12668.62
635.229	12702.97
635.583	12620.49
635.937	12647.61
636.291	12659.58
636.645	12664.78
636.999	12608.51
637.352	12576.87
637.706	12561.51
638.06	12638.34
638.413	12575.97
638.767	12522.64
639.121	12502.52
639.474	12454.84
639.828	12537.1
640.181	12519.25
640.534	12498.46
640.888	12417.55
641.241	12454.62
641.594	12468.17
641.947	12420.72
642.301	12336.2
642.654	12450.55
643.007	12404.22
643.36	12414.62
643.713	12446.25
644.066	12430.66
644.419	12335.3
644.771	12266.37
645.124	12140.05
645.477	12161.52
645.83	12117.45
646.182	12077.22
646.535	11977.79
646.888	12016.89
647.24	11980.96
647.593	12026.15
647.945	11959.71
648.298	11892.14
648.65	11928.75
649.002	11886.5
649.355	11912.26
649.707	11917.23
650.059	11925.36
650.411	12135.08
650.763	12132.14
651.115	12277.22
651.467	12268.18
651.819	12198.13
652.171	12275.41
652.523	12216.88
652.875	12226.83
653.227	12157
653.578	12202.19
653.93	12275.64
654.282	12208.07
654.633	12107.28
654.985	12087.62
655.337	12166.71
655.688	12208.97
656.039	12095.98
656.391	12123.1
656.742	12163.1
657.094	12161.52
657.445	12208.52
657.796	12168.97
658.147	12195.64
658.498	12200.39
658.849	12157.9
659.2	12141.63
659.551	12086.26
659.902	12153.61
660.253	12099.15
660.604	12191.35
660.955	12117.9
661.306	12189.54
661.656	12151.8
662.007	12123.33
662.358	12111.57
662.708	12179.37
663.059	12092.82
663.409	12063.67
663.76	12214.4
664.11	12238.35
664.461	12166.49
664.811	12235.86
665.161	12163.1
665.511	12147.73
665.862	12156.54
666.212	12192.02
666.562	12268.18
666.912	12181.4
667.262	12187.73
667.612	12152.03
667.962	12214.62
668.312	12231.12
668.662	12236.77
669.011	12273.38
669.361	12166.94
669.711	12164
670.06	12160.61
670.41	12085.81
670.76	12099.15
671.109	12238.12
671.459	12250.55
671.808	12131.01
672.157	12143.44
672.507	12130.33
672.856	12106.38
673.205	12166.04
673.554	12149.31
673.904	12058.69
674.253	12161.52
674.602	12050.56
674.951	11935.53
675.3	11863.45
675.649	12000.62
675.998	11932.6
676.346	11997
676.695	12089.88
677.044	11919.49
677.393	11961.07
677.741	11943.67
678.09	11907.06
678.438	11887.63
678.787	11924.69
679.135	11953.16
679.484	11756.1
679.832	11899.38
680.181	11864.8
680.529	11885.82
680.877	11777.57
681.225	11755.43
681.573	11827.51
681.922	11805.14
682.27	11750.68
682.618	11829.32
682.966	11776.44
683.314	11773.73
683.661	11666.61
684.009	11633.17
684.357	11623.23
684.705	11532.61
685.053	11571.7
685.4	11583.45
685.748	11528.31
686.095	11573.51
686.443	11498.71
686.79	11330.58
687.138	11481.53
687.485	11397.92
687.832	11351.14
688.18	11417.81
688.527	11349.79
688.874	11301.2
689.221	11316.11
689.568	11252.39
689.915	11242.67
690.262	11227.53
690.609	11151.83
690.956	11119.96
691.303	11062.11
691.65	11065.27
691.997	11038.16
692.344	10927.65
692.69	10961.77
693.037	10945.5
693.383	10879.29
693.73	10825.28
694.077	10821.44
694.423	10823.7
694.769	10752.74
695.116	10709.58
695.462	10729.69
695.808	10686.53
696.155	10720.2
696.501	10556.13
696.847	10597.49
697.193	10535.8
697.539	10504.61
697.885	10436.59
698.231	10415.57
698.577	10412.41
698.923	10362.47
699.269	10338.74
699.614	10227.33
699.96	10180.1
700.306	10250.83
700.651	10230.95
700.997	10160.89
701.342	10150.95
701.688	10107.33
702.033	10022.59
702.379	9969.94
702.724	9997.51
703.069	9992.76
703.415	9862.37
703.76	9905.3
704.105	9887.9
704.45	9852.65
704.795	9710.28
705.14	9736.95
705.485	9708.47
705.83	9790.73
706.175	9692.2
706.52	9689.04
706.865	9587.8
707.209	9615.14
707.554	9536.5
707.899	9597.52
708.243	9580.57
708.588	9451.98
708.932	9411.98
709.277	9387.8
709.621	9434.58
709.966	9381.02
710.31	9440.46
710.654	9271.42
710.998	9277.3
711.342	9299.44
711.687	9278.65
712.031	9211.99
712.375	9181.71
712.719	9248.37
713.063	9164.76
713.407	9228.49
713.75	9128.6
714.094	9204.53
714.438	9083.41
714.782	9092.67
715.125	9073.69
715.469	9066.91
715.812	9029.85
716.156	8945.1
716.499	8999.11
716.843	9016.29
717.186	8904.65
717.53	8963.41
717.873	8979.68
718.216	8954.14
718.559	8912.34
718.902	8820.36
719.246	8883.64
719.589	8844.54
719.932	8808.38
720.275	8885.9
720.617	8797.09
720.96	8845.45
721.303	8815.84
721.646	8768.84
721.989	8776.52
722.331	8755.05
722.674	8743.75
723.016	8724.77
723.359	8726.35
723.701	8812.9
724.044	8648.61
724.386	8686.58
724.729	8690.87
725.071	8673.02
725.413	8649.52
725.755	8658.78
726.097	8606.13
726.439	8598.22
726.782	8597.54
727.124	8673.92
727.465	8659.69
727.807	8609.75
728.149	8607.49
728.491	8539.24
728.833	8670.76
729.175	8512.8
729.516	8562.97
729.858	8526.81
730.199	8498.79
730.541	8587.83
730.882	8485.68
731.224	8549.63
731.565	8537.2
731.906	8549.63
732.248	8548.28
732.589	8488.17
732.93	8472.8
733.271	8466.02
733.612	8495.4
733.953	8517.77
734.294	8520.48
734.635	8471.9
734.976	8522.97
735.317	8441.61
735.658	8480.48
735.999	8494.27
736.339	8490.88
736.68	8550.31
737.021	8462.18
737.361	8478.45
737.702	8501.27
738.042	8537.43
738.383	8507.15
738.723	8556.64
739.063	8432.57
739.404	8586.92
739.744	8551.44
740.084	8545.79
740.424	8597.09
740.764	8569.07
741.104	8601.61
741.444	8615.85
741.784	8571.55
742.124	8529.75
742.464	8594.6
742.804	8616.75
743.143	8574.94
743.483	8623.53
743.823	8683.87
744.162	8678.22
744.502	8708.73
744.841	8698.56
745.181	8779.46
745.52	8765.45
745.86	8798.89
746.199	8882.96
746.538	8854.26
746.877	8897.42
747.216	8878.89
747.556	8960.7
747.895	9013.12
748.234	9002.5
748.573	9110.3
748.911	9106.23
749.25	9120.24
749.589	9155.27
749.928	9268.26
750.267	9353.68
750.605	9283.17
750.944	9434.13
751.283	9533.79
751.621	9574.47
751.96	9555.48
752.298	9732.65
752.636	9749.15
752.975	9782.37
753.313	9815.14
753.651	9981.01
753.989	10096.03
754.327	10205.64
754.666	10197.95
755.004	10346.42
755.342	10469.58
755.679	10538.96
756.017	10629.58
756.355	10787.77
756.693	10812.85
757.031	10986.41
757.368	11093.07
757.706	11235.89
758.044	11389.79
758.381	11486.51
758.719	11556.79
759.056	11771.02
759.394	11839.26
759.731	11909.55
