Data from hue_310_FLMS001491_61.txt Node
Date: Mon Feb 06 15:50:00 GMT 2017
User: dcchb
Spectrometer: FLMS00149
Trigger mode: 0
Integration Time (sec): 2.000000E-2
Scans to average: 10
Electric dark correction enabled: true
Nonlinearity correction enabled: false
Boxcar width: 0
XAxis mode: Wavelengths
Number of Pixels in Spectrum: 2048
>>>>>Begin Spectral Data<<<<<
341.393	-29.96
341.776	-29.96
342.16	-29.96
342.543	-48.49
342.927	-70.18
343.31	-89.84
343.693	-64.76
344.077	-58.88
344.46	-42.39
344.843	-67.92
345.226	-27.7
345.61	-31.54
345.993	-29.5
346.376	-6.68
346.759	-7.36
347.142	20.44
347.525	53.43
347.908	74.45
348.291	72.87
348.674	113.77
349.057	91.62
349.44	116.03
349.823	138.85
350.206	150.83
350.588	197.38
350.971	201
351.354	218.85
351.737	222.24
352.119	246.65
352.502	246.65
352.884	251.17
353.267	273.31
353.65	303.59
354.032	269.24
354.414	303.14
354.797	302.46
355.179	294.33
355.562	307.89
355.944	318.06
356.326	324.38
356.709	323.93
357.091	316.47
357.473	321.22
357.855	356.7
358.238	334.55
358.62	341.11
359.002	337.04
359.384	327.32
359.766	344.04
360.148	332.07
360.53	325.29
360.912	340.43
361.294	316.25
361.676	311.73
362.057	328.9
362.439	326.19
362.821	327.55
363.203	292.97
363.584	322.35
363.966	311.5
364.348	317.38
364.729	335.91
365.111	313.76
365.493	344.04
365.874	318.06
366.256	316.02
366.637	293.65
367.019	314.44
367.4	320.99
367.781	316.25
368.163	307.44
368.544	315.34
368.925	321.45
369.306	323.48
369.688	311.28
370.069	314.44
370.45	310.15
370.831	317.6
371.212	311.73
371.593	335.01
371.974	304.27
372.355	306.98
372.736	311.73
373.117	321.67
373.498	321.67
373.879	316.7
374.26	329.13
374.641	321.67
375.021	338.62
375.402	325.74
375.783	319.41
376.163	337.04
376.544	320.54
376.925	299.3
377.305	331.39
377.686	319.19
378.066	318.51
378.447	336.36
378.827	322.8
379.208	331.16
379.588	340.65
379.968	345.63
380.349	337.27
380.729	306.98
381.109	337.27
381.489	328.23
381.87	325.97
382.25	326.64
382.63	339.52
383.01	343.82
383.39	342.69
383.77	328.68
384.15	327.55
384.53	354.44
384.91	327.32
385.29	332.75
385.67	344.5
386.049	340.65
386.429	339.52
386.809	336.59
387.189	358.73
387.568	346.53
387.948	363.93
388.328	360.77
388.707	352.18
389.087	358.06
389.466	359.86
389.846	343.82
390.225	368.22
390.605	351.73
390.984	373.65
391.363	366.64
391.743	357.6
392.122	376.36
392.501	359.64
392.881	376.36
393.26	363.71
393.639	375.68
394.018	375
394.397	376.13
394.776	382.69
395.155	377.04
395.534	361.9
395.913	372.07
396.292	369.35
396.671	379.3
397.05	363.03
397.429	386.76
397.808	390.82
398.186	376.59
398.565	376.13
398.944	407.09
399.323	395.34
399.701	384.72
400.08	391.28
400.458	384.95
400.837	397.83
401.215	408.68
401.594	394.89
401.972	399.18
402.351	402.57
402.729	395.12
403.107	405.96
403.486	410.94
403.864	415.91
404.242	414.55
404.62	411.16
404.999	419.97
405.377	424.72
405.755	421.33
406.133	443.48
406.511	428.79
406.889	454.32
407.267	437.83
407.645	440.31
408.023	453.19
408.401	442.35
408.779	452.74
409.156	482.57
409.534	475.11
409.912	469.92
410.29	484.38
410.667	480.99
411.045	505.4
411.422	505.62
411.8	509.92
412.178	495.68
412.555	516.92
412.933	545.17
413.31	550.37
413.687	529.8
414.065	564.6
414.442	547.66
414.819	566.64
415.197	576.13
415.574	576.81
415.951	546.98
416.328	584.04
416.705	604.15
417.082	592.63
417.46	580.2
417.837	605.73
418.214	625.85
418.591	611.38
418.967	621.33
419.344	644.6
419.721	657.93
420.098	656.13
420.475	652.29
420.852	673.3
421.228	673.3
421.605	684.6
421.982	713.75
422.358	714.88
422.735	693.19
423.111	687.99
423.488	698.39
423.864	710.14
424.241	751.27
424.617	750.81
424.994	762.11
425.37	748.33
425.746	774.77
426.123	756.24
426.499	772.06
426.875	796.69
427.251	798.27
427.627	825.84
428.003	808.44
428.379	820.64
428.756	830.59
429.132	827.42
429.507	840.53
429.883	838.49
430.259	878.72
430.635	862.22
431.011	883.92
431.387	887.99
431.763	897.25
432.138	919.85
432.514	927.76
432.89	942.67
433.265	925.5
433.641	974.54
434.016	962.11
434.392	989.68
434.767	983.12
435.143	1005.27
435.518	1004.59
435.894	984.25
436.269	1029.9
436.644	1027.42
437.02	1060.86
437.395	1081.43
437.77	1059.28
438.145	1092.5
438.52	1103.35
438.895	1096.34
439.271	1098.83
439.646	1128.66
440.021	1101.09
440.395	1126.4
440.77	1123.01
441.145	1140.41
441.52	1170.69
441.895	1160.75
442.27	1147.87
442.645	1140.18
443.019	1156.45
443.394	1170.69
443.769	1172.27
444.143	1172.5
444.518	1174.76
444.892	1177.02
445.267	1195.1
445.641	1191.71
446.016	1200.97
446.39	1212.04
446.764	1222.21
447.139	1212.5
447.513	1232.83
447.887	1242.78
448.262	1226.73
448.636	1218.37
449.01	1234.42
449.384	1257.24
449.758	1282.1
450.132	1268.31
450.506	1271.93
450.88	1290.91
451.254	1273.74
451.628	1309.89
452.002	1301.99
452.376	1327.97
452.75	1303.79
453.123	1316.22
453.497	1326.39
453.871	1331.14
454.244	1362.55
454.618	1370.46
454.992	1372.72
455.365	1376.79
455.739	1375.66
456.112	1385.83
456.486	1389.89
456.859	1394.19
457.232	1430.12
457.606	1394.41
457.979	1432.15
458.352	1439.84
458.725	1436.9
459.099	1479.83
459.472	1490.46
459.845	1483.68
460.218	1471.7
460.591	1504.01
460.964	1536.78
461.337	1547.18
461.71	1545.82
462.083	1551.24
462.456	1559.83
462.829	1575.2
463.201	1568.65
463.574	1611.36
463.947	1617.23
464.32	1629.21
464.692	1627.85
465.065	1648.64
465.438	1664.46
465.81	1677.12
466.183	1706.04
466.555	1680.51
466.928	1713.73
467.3	1697.68
467.672	1757.57
468.045	1763.22
468.417	1745.82
468.789	1782.42
469.161	1770.9
469.534	1812.71
469.906	1807.96
470.278	1832.14
470.65	1828.98
471.022	1844.8
471.394	1887.96
471.766	1886.83
472.138	1877.79
472.51	1936.55
472.882	1948.52
473.253	1986.04
473.625	2004.79
473.997	2001.18
474.369	2021.51
474.74	2020.38
475.112	2041.85
475.484	2068.75
475.855	2150.1
476.227	2124.79
476.598	2164.11
476.97	2157.56
477.341	2216.31
477.713	2220.38
478.084	2241.4
478.455	2288.4
478.827	2293.6
479.198	2315.07
479.569	2323.65
479.94	2392.13
480.311	2427.38
480.682	2428.51
481.053	2465.57
481.424	2497.21
481.795	2529.52
482.166	2529.3
482.537	2571.33
482.908	2587.6
483.279	2642.52
483.65	2660.82
484.021	2683.19
484.391	2679.8
484.762	2768.61
485.133	2737.2
485.503	2772
485.874	2801.83
486.244	2822.62
486.615	2857.42
486.985	2905.11
487.356	2915.5
487.726	2923.19
488.097	2985.56
488.467	2944.65
488.837	2991.88
489.207	3071.66
489.578	3058.1
489.948	3094.71
490.318	3149.17
490.688	3128.38
491.058	3160.69
491.428	3199.56
491.798	3184.42
492.168	3310.29
492.538	3309.39
492.908	3322.05
493.278	3299
493.648	3367.92
494.017	3370.86
494.387	3427.13
494.757	3451.99
495.126	3382.61
495.496	3429.16
495.866	3460.8
496.235	3465.54
496.605	3504.19
496.974	3557.29
497.344	3566.56
497.713	3563.62
498.082	3570.17
498.452	3633.9
498.821	3602.26
499.19	3629.61
499.559	3701.7
499.928	3663.05
500.298	3674.8
500.667	3720
501.036	3678.19
501.405	3698.31
501.774	3678.65
502.143	3739.89
502.512	3774.01
502.88	3756.61
503.249	3759.77
503.618	3796.61
503.987	3821.02
504.356	3815.59
504.724	3835.25
505.093	3868.92
505.462	3863.05
505.83	3882.48
506.199	3861.69
506.567	3910.28
506.936	3914.12
507.304	3941.24
507.672	3938.75
508.041	3971.52
508.409	3968.13
508.777	3992.76
509.145	4000.9
509.514	4019.65
509.882	4045.19
510.25	4013.1
510.618	4095.36
510.986	4069.14
511.354	4068.92
511.722	4098.3
512.09	4122.48
512.458	4134.68
512.826	4124.28
513.193	4160.22
513.561	4152.53
513.929	4170.84
514.297	4211.29
514.664	4245.41
515.032	4232.08
515.4	4225.75
515.767	4229.37
516.135	4281.79
516.502	4199.31
516.869	4267.11
517.237	4253.77
517.604	4299.42
517.972	4271.4
518.339	4292.64
518.706	4329.93
519.073	4334.22
519.44	4331.74
519.808	4418.97
520.175	4374.9
520.542	4434.33
520.909	4410.38
521.276	4446.54
521.643	4446.99
522.009	4472.07
522.376	4469.36
522.743	4470.94
523.11	4533.31
523.477	4520.43
523.843	4545.97
524.21	4622.58
524.577	4605.63
524.943	4594.78
525.31	4665.06
525.676	4670.26
526.043	4663.93
526.409	4730.6
526.776	4724.04
527.142	4752.74
527.508	4767.43
527.874	4789.35
528.241	4813.76
528.607	4824.15
528.973	4847.2
529.339	4873.64
529.705	4850.82
530.071	4892.17
530.437	4928.78
530.803	4948.44
531.169	5017.82
531.535	4946.64
531.901	4994.09
532.267	4967.2
532.632	5044.03
532.998	5103.02
533.364	5128.78
533.73	5173.52
534.095	5151.38
534.461	5206.52
534.826	5169.91
535.192	5205.39
535.557	5265.5
535.923	5267.76
536.288	5324.93
536.653	5361.77
537.019	5305.04
537.384	5371.71
537.749	5374.65
538.114	5381.65
538.479	5392.73
538.845	5411.71
539.21	5399.05
539.575	5429.11
539.94	5473.18
540.305	5461.42
540.67	5487.41
541.034	5545.04
541.399	5540.29
541.764	5576.9
542.129	5592.04
542.494	5639.5
542.858	5637.69
543.223	5672.27
543.587	5690.34
543.952	5728.76
544.316	5717.91
544.681	5768.31
545.045	5698.93
545.41	5801.08
545.774	5774.41
546.138	5839.04
546.503	5896.89
546.867	5888.98
547.231	5906.38
547.595	5967.85
547.959	5920.17
548.324	5935.54
548.688	6033.61
549.052	6026.38
549.416	6009.43
549.779	6020.51
550.143	6023.67
550.507	6121.52
550.871	6080.84
551.235	6112.03
551.599	6134.63
551.962	6169.88
552.326	6217.11
552.689	6192.03
553.053	6238.8
553.417	6240.16
553.78	6314.51
554.143	6295.3
554.507	6335.98
554.87	6291.46
555.234	6335.98
555.597	6330.55
555.96	6401.51
556.323	6377.78
556.686	6391.8
557.05	6405.13
557.413	6482.64
557.776	6446.71
558.139	6490.1
558.502	6501.85
558.865	6535.07
559.228	6550.89
559.59	6559.25
559.953	6632.01
560.316	6642.18
560.679	6646.93
561.041	6683.76
561.404	6677.66
561.767	6772.58
562.129	6676.76
562.492	6761.73
562.854	6816.42
563.217	6737.32
563.579	6773.93
563.941	6822.07
564.304	6860.94
564.666	6928.73
565.028	6864.78
565.39	6894.61
565.753	6953.14
566.115	6924.44
566.477	6968.05
566.839	7018.22
567.201	7025.9
567.563	6999.01
567.925	7146.58
568.287	7109.74
568.648	7085.34
569.01	7202.62
569.372	7192.23
569.734	7178.44
570.095	7213.47
570.457	7271.09
570.819	7342.96
571.18	7319
571.542	7341.6
571.903	7429.06
572.265	7452.11
572.626	7473.8
572.987	7543.4
573.349	7580.92
573.71	7565.32
574.071	7693.23
574.432	7680.35
574.794	7777.75
575.155	7789.72
575.516	7811.42
575.877	7873.56
576.238	8006.22
576.599	7998.76
576.96	8109.49
577.32	8166.21
577.681	8264.06
578.042	8346.32
578.403	8409.37
578.763	8470.16
579.124	8569.37
579.485	8777.95
579.845	8798.96
580.206	8827.44
580.566	8953.99
580.927	9113.31
581.287	9250.7
581.648	9281.66
582.008	9505.39
582.368	9554.42
582.728	9784.47
583.089	9904.02
583.449	10047.97
583.809	10217.01
584.169	10364.8
584.529	10476.21
584.889	10852.92
585.249	10889.08
585.609	11074.84
585.969	11264.66
586.329	11514.15
586.688	11687.25
587.048	11902.61
587.408	12061.25
587.768	12341.47
588.127	12532.88
588.487	12849.03
588.846	13207.89
589.206	13233.65
589.565	13532.17
589.925	13765.16
590.284	14103
590.643	14246.05
591.003	14659.37
591.362	14903.89
591.721	15226.14
592.08	15434.27
592.44	15678.33
592.799	15954.26
593.158	16286.9
593.517	16526.67
593.876	16803.95
594.235	17165.07
594.593	17523.48
594.952	17718.5
595.311	18041.66
595.67	18307.41
596.029	18698.36
596.387	19044.8
596.746	19346.26
597.104	19534.95
597.463	19808.84
597.822	20184.2
598.18	20433.91
598.538	20683.4
598.897	21008.81
599.255	21254.91
599.613	21754.56
599.972	21969.69
600.33	22219.18
600.688	22426.85
601.046	22783.68
601.404	23165.37
601.762	23399.03
602.12	23753.37
602.478	23972.8
602.836	24206.92
603.194	24409.4
603.552	24833.8
603.91	24899.11
604.268	25354.46
604.625	25504.51
604.983	25937.27
605.341	25945.63
605.698	26279.86
606.056	26605.28
606.413	26889.11
606.771	27137.92
607.128	27326.84
607.485	27550.33
607.843	27770.89
608.2	28247.04
608.557	28487.94
608.914	28538.33
609.272	28824.65
609.629	29125.43
609.986	29323.62
610.343	29432.09
610.7	29828.02
611.057	29848.35
611.414	30154.11
611.771	30300.32
612.127	30620.08
612.484	30738.05
612.841	31021.88
613.198	31074.76
613.554	31284.7
613.911	31620.74
614.267	31773.73
614.624	31794.52
614.98	32102.31
615.337	32274.73
615.693	32523.54
616.05	32564.89
616.406	32926.24
616.762	32866.35
617.118	33034.03
617.475	33209.62
617.831	33315.38
618.187	33539.78
618.543	33721.7
618.899	33887.34
619.255	34039.88
619.611	34130.5
619.967	34338.18
620.323	34500.21
620.678	34486.42
621.034	34494.33
621.39	34662.24
621.746	34842.35
622.101	35252.51
622.457	34978.39
622.812	35155.33
623.168	35389.45
623.523	35417.25
623.879	35544.93
624.234	35392.16
624.589	35692.72
624.945	35800.51
625.3	36015.2
625.655	35932.71
626.01	36007.51
626.365	36163.89
626.72	36169.09
627.075	36297
627.43	36465.58
627.785	36393.27
628.14	36489.99
628.495	36532.47
628.85	36555.52
629.205	36389.2
629.559	36722.75
629.914	36653.15
630.269	36688.4
630.623	36648.17
630.978	36663.77
631.332	36857.66
631.687	36859.02
632.041	36876.64
632.396	36957.77
632.75	36785.57
633.104	36938.79
633.459	36802.52
633.813	36968.84
634.167	36962.52
634.521	36873.48
634.875	37102.85
635.229	36973.14
635.583	36899.24
635.937	36932.24
636.291	36972.46
636.645	36952.57
636.999	36966.58
637.352	37121.16
637.706	36910.09
638.06	37019.01
638.413	36912.35
638.767	36930.65
639.121	36925.68
639.474	36856.08
639.828	36973.36
640.181	36989.86
640.534	36983.08
640.888	36905.34
641.241	36873.25
641.594	36880.03
641.947	37028.28
642.301	37003.65
642.654	36906.25
643.007	36902.18
643.36	36816.98
643.713	36922.97
644.066	36961.39
644.419	36885.68
644.771	36673.26
645.124	36346.49
645.477	36322.53
645.83	36177.45
646.182	35935.65
646.535	35831.02
646.888	35998.25
647.24	35756.45
647.593	36117.12
647.945	35904.47
648.298	35776.11
648.65	35724.36
649.002	35712.38
649.355	35737.69
649.707	35775.2
650.059	35849.55
650.411	36295.87
650.763	36315.3
651.115	36735.63
651.467	36558.46
651.819	36628.51
652.171	36502.87
652.523	36432.59
652.875	36502.64
653.227	36309.43
653.578	36676.87
653.93	36456.32
654.282	36365.24
654.633	36325.92
654.985	36344.45
655.337	36368.18
655.688	36253.16
656.039	36509.42
656.391	36124.57
656.742	36304.46
657.094	36313.04
657.445	36395.53
657.796	36409.99
658.147	36220.84
658.498	36243.44
658.849	36428.52
659.2	36242.99
659.551	36254.74
659.902	36365.02
660.253	36254.06
660.604	36382.87
660.955	36027.4
661.306	36386.49
661.656	36170
662.007	36139.26
662.358	36371.57
662.708	36162.31
663.059	36123.44
663.409	35942.88
663.76	36161.18
664.11	36207.28
664.461	36190.33
664.811	36224.23
665.161	36310.1
665.511	36064.24
665.862	36181.97
666.212	36318.24
666.562	36133.16
666.912	36220.39
667.262	36180.16
667.612	36073.27
667.962	36217.9
668.312	36024.91
668.662	36175.64
669.011	36154.4
669.361	36178.36
669.711	36162.76
670.06	35921.19
670.41	36031.02
670.76	35915.76
671.109	36108.53
671.459	36136.1
671.808	35893.39
672.157	36094.52
672.507	35861.75
672.856	35815.2
673.205	35957.35
673.554	35962.54
673.904	35708.76
674.253	36104.91
674.602	35901.3
674.951	35513.29
675.3	35187.42
675.649	35729.33
675.998	35717.13
676.346	35875.77
676.695	36012.71
677.044	35575.21
677.393	35703.11
677.741	35798.25
678.09	35798.25
678.438	35647.52
678.787	35696.34
679.135	35692.72
679.484	35494.76
679.832	35637.81
680.181	35437.13
680.529	35505.83
680.877	35488.88
681.225	35396
681.573	35591.93
681.922	35361.43
682.27	35294.99
682.618	35247.08
682.966	35233.75
683.314	35210.47
683.661	35118.95
684.009	34999.63
684.357	35021.32
684.705	34978.84
685.053	34846.87
685.4	34969.57
685.748	34715.57
686.095	34835.12
686.443	34525.29
686.79	34576.36
687.138	34532.3
687.485	34667.21
687.832	34488.23
688.18	34470.6
688.527	34256.83
688.874	34369.59
689.221	34183.61
689.568	34191.06
689.915	34044.85
690.262	34124.17
690.609	33940.45
690.956	33862.94
691.303	33921.47
691.65	33717.4
691.997	33704.52
692.344	33579.1
692.69	33509.05
693.037	33509.73
693.383	33228.15
693.73	33374.81
694.077	33147.93
694.423	33114.93
694.769	33005.11
695.116	32989.74
695.462	32838.33
695.808	32795.62
696.155	32859.57
696.501	32676.75
696.847	32686.92
697.193	32401.51
697.539	32521.28
697.885	32355.86
698.231	32154.28
698.577	32161.06
698.923	32098.24
699.269	32096.88
699.614	31868.64
699.96	31874.06
700.306	31833.16
700.651	31797
700.997	31760.17
701.342	31615.76
701.688	31620.06
702.033	31512.94
702.379	31441.76
702.724	31303.91
703.069	31452.15
703.415	31027.08
703.76	31060.3
704.105	31021.66
704.45	30886.97
704.795	30790.25
705.14	30847.88
705.485	30690.37
705.83	30584.38
706.175	30650.37
706.52	30555.91
706.865	30369.7
707.209	30408.11
707.554	30415.34
707.899	30338.28
708.243	30194.11
708.588	30120.66
708.932	29934.45
709.277	30014.68
709.621	29948.01
709.966	29802.03
710.31	29931.52
710.654	29644.07
710.998	29685.65
711.342	29637.06
711.687	29551.86
712.031	29430.96
712.375	29437.52
712.719	29432.09
713.063	29227.58
713.407	29327.69
713.75	29322.04
714.094	29065.55
714.438	28955.04
714.782	29077.53
715.125	28979.45
715.469	29103.97
715.812	28919.56
716.156	28682.51
716.499	28643.87
716.843	28711.89
717.186	28624.66
717.53	28671.66
717.873	28699.23
718.216	28612.23
718.559	28576.97
718.902	28308.06
719.246	28361.16
719.589	28302.63
719.932	28186.93
720.275	28073.71
720.617	28117.55
720.96	28074.61
721.303	28071.23
721.646	28184.67
721.989	27883.21
722.331	28020.38
722.674	27891.34
723.016	27964.11
723.359	27862.87
723.701	27814.73
724.044	27602.76
724.386	27492.71
724.729	27733.83
725.071	27560.96
725.413	27514.63
725.755	27544.23
726.097	27483.67
726.439	27341.75
726.782	27359.83
727.124	27405.71
727.465	27205.94
727.807	27238.48
728.149	27072.38
728.491	27154.64
728.833	27071.48
729.175	27020.41
729.516	27047.98
729.858	27061.99
730.199	26856.57
730.541	27004.81
730.882	26735.67
731.224	26938.6
731.565	26678.72
731.906	26675.78
732.248	26788.77
732.589	26660.64
732.93	26468.56
733.271	26487.54
733.612	26610.25
733.953	26543.58
734.294	26535.22
734.635	26373.64
734.976	26456.35
735.317	26344.26
735.658	26334.77
735.999	26255.23
736.339	26203.25
736.68	26349.01
737.021	26259.07
737.361	26186.3
737.702	26101.11
738.042	26132.29
738.383	26094.1
738.723	26144.95
739.063	25994.44
739.404	26011.17
739.744	25877.84
740.084	25832.41
740.424	25922.13
740.764	25749.93
741.104	25810.49
741.444	25654.34
741.784	25716.03
742.124	25761.68
742.464	25535.02
742.804	25689.82
743.143	25549.94
743.483	25507.45
743.823	25432.42
744.162	25437.17
744.502	25459.77
744.841	25215.26
745.181	25334.57
745.52	25242.82
745.86	25365.99
746.199	25200.57
746.538	25107.01
746.877	25221.58
747.216	25137.74
747.556	25053.45
747.895	25008.48
748.234	24894.13
748.573	24869.05
748.911	24950.4
749.25	24914.47
749.589	24760.35
749.928	24733.23
750.267	24740.01
750.605	24740.69
750.944	24755.38
751.283	24597.42
751.621	24631.32
751.96	24481.72
752.298	24617.3
752.636	24480.59
752.975	24297.09
753.313	24191.55
753.651	24384.09
753.989	24252.12
754.327	24159.46
754.666	24112.69
755.004	24087.15
755.342	24053.7
755.679	24005.12
756.017	23889.87
756.355	23959.24
756.693	23822.07
757.031	23905.91
757.368	23772.58
757.706	23724.9
758.044	23451.69
758.381	23485.36
758.719	23413.27
759.056	23507.5
759.394	23465.24
759.731	23313.61
