Data from hue_50_FLMS001491_64.txt Node
Date: Mon Feb 06 15:10:45 GMT 2017
User: dcchb
Spectrometer: FLMS00149
Trigger mode: 0
Integration Time (sec): 2.000000E-2
Scans to average: 10
Electric dark correction enabled: true
Nonlinearity correction enabled: false
Boxcar width: 0
XAxis mode: Wavelengths
Number of Pixels in Spectrum: 2048
>>>>>Begin Spectral Data<<<<<
341.393	-19.87
341.776	-19.87
342.16	-19.87
342.543	-58.29
342.927	-58.74
343.31	-65.07
343.693	-73.2
344.077	-58.74
344.46	-44.73
344.843	-63.71
345.226	-24.39
345.61	-29.36
345.993	-29.36
346.376	-14
346.759	8.6
347.142	39.11
347.525	29.84
347.908	48.83
348.291	68.26
348.674	91.31
349.057	116.62
349.44	129.5
349.823	133.57
350.206	161.59
350.588	177.18
350.971	222.16
351.354	221.48
351.737	268.26
352.119	264.19
352.502	258.76
352.884	263.28
353.267	268.26
353.65	280.46
354.032	313
354.414	295.37
354.797	298.99
355.179	337.86
355.562	330.85
355.944	336.5
356.326	331.98
356.709	330.4
357.091	334.69
357.473	341.93
357.855	317.75
358.238	351.64
358.62	335.37
359.002	345.32
359.384	355.49
359.766	365.65
360.148	346.22
360.53	340.57
360.912	331.76
361.294	359.55
361.676	318.88
362.057	333.79
362.439	336.5
362.821	309.38
363.203	315.71
363.584	318.42
363.966	319.1
364.348	322.49
364.729	323.4
365.111	312.55
365.493	312.55
365.874	304.86
366.256	329.27
366.637	338.99
367.019	327.24
367.4	317.52
367.781	317.75
368.163	320.23
368.544	302.61
368.925	305.77
369.306	305.77
369.688	311.87
370.069	319.78
370.45	321.36
370.831	336.05
371.212	327.01
371.593	320.23
371.974	303.51
372.355	313.68
372.736	298.99
373.117	303.51
373.498	292.89
373.879	309.84
374.26	312.55
374.641	338.31
375.021	316.84
375.402	326.79
375.783	327.01
376.163	331.98
376.544	302.83
376.925	341.93
377.305	329.5
377.686	340.12
378.066	330.4
378.447	335.6
378.827	340.8
379.208	326.33
379.588	333.79
379.968	346.22
380.349	326.11
380.729	332.21
381.109	321.59
381.489	333.79
381.87	336.05
382.25	332.89
382.63	356.84
383.01	344.41
383.39	343.96
383.77	317.75
384.15	336.05
384.53	340.8
384.91	331.98
385.29	325.66
385.67	368.37
386.049	339.89
386.429	356.16
386.809	329.05
387.189	357.52
387.568	346.45
387.948	342.83
388.328	363.17
388.707	359.33
389.087	344.86
389.466	352.1
389.846	367.24
390.225	366.11
390.605	358.2
390.984	360
391.363	354.81
391.743	352.1
392.122	368.37
392.501	375.6
392.881	348.71
393.26	352.1
393.639	370.85
394.018	360.46
394.397	366.56
394.776	349.38
395.155	369.5
395.534	378.08
395.913	374.24
396.292	368.37
396.671	382.38
397.05	384.18
397.429	379.67
397.808	371.08
398.186	381.47
398.565	363.17
398.944	385.99
399.323	370.85
399.701	396.16
400.08	390.51
400.458	395.03
400.837	402.49
401.215	387.8
401.594	377.63
401.972	390.06
402.351	378.08
402.729	374.47
403.107	400
403.486	398.87
403.864	390.96
404.242	406.11
404.62	405.88
404.999	406.33
405.377	401.59
405.755	406.56
406.133	418.31
406.511	422.83
406.889	404.07
407.267	416.05
407.645	427.57
408.023	405.65
408.401	410.17
408.779	407.24
409.156	422.38
409.534	426.9
409.912	418.08
410.29	444.75
410.667	418.08
411.045	427.8
411.422	451.3
411.8	438.65
412.178	461.02
412.555	450.17
412.933	429.83
413.31	430.96
413.687	454.92
414.065	482.26
414.442	444.3
414.819	454.47
415.197	467.8
415.574	472.09
415.951	446.56
416.328	478.65
416.705	467.57
417.082	468.02
417.46	488.36
417.837	473
418.214	469.38
418.591	465.99
418.967	484.52
419.344	484.07
419.721	495.82
420.098	484.52
420.475	494.46
420.852	464.63
421.228	513.9
421.605	489.49
421.982	520.68
422.358	519.1
422.735	508.02
423.111	511.87
423.488	508.7
423.864	508.93
424.241	527.01
424.617	517.74
424.994	534.92
425.37	514.8
425.746	547.34
426.123	533.11
426.499	525.42
426.875	537.85
427.251	511.19
427.627	539.21
428.003	568.81
428.379	570.17
428.756	549.83
429.132	587.34
429.507	581.02
429.883	553.9
430.259	578.3
430.635	560.45
431.011	581.02
431.387	598.87
431.763	593.22
432.138	595.93
432.514	612.43
432.89	596.83
433.265	618.3
433.641	605.87
434.016	604.74
434.392	616.27
434.767	636.83
435.143	621.24
435.518	628.25
435.894	625.53
436.269	657.62
436.644	649.04
437.02	641.81
437.395	642.94
437.77	645.65
438.145	641.58
438.52	670.96
438.895	664.4
439.271	669.15
439.646	664.4
440.021	677.96
440.395	680.45
440.77	687.68
441.145	701.24
441.52	679.32
441.895	702.82
442.27	697.4
442.645	708.24
443.019	698.3
443.394	690.62
443.769	710.5
444.143	687.68
444.518	700.56
444.892	737.4
445.267	736.49
445.641	739.43
446.016	736.72
446.39	731.29
446.764	750.95
447.139	734.46
447.513	742.82
447.887	774.23
448.262	773.55
448.636	788.47
449.01	758.86
449.384	762.48
449.758	780.11
450.132	751.18
450.506	800.9
450.88	792.08
451.254	791.63
451.628	789.82
452.002	802.48
452.376	807.68
452.75	829.14
453.123	828.01
453.497	825.98
453.871	840.9
454.244	835.25
454.618	849.26
454.992	840.67
455.365	871.63
455.739	864.62
456.112	862.36
456.486	903.95
456.859	903.72
457.232	929.03
457.606	912.08
457.979	923.83
458.352	928.58
458.725	947.56
459.099	943.72
459.472	958.18
459.845	971.74
460.218	972.42
460.591	996.6
460.964	995.47
461.337	1007.9
461.71	1032.76
462.083	1034.34
462.456	1032.98
462.829	1042.25
463.201	1054.9
463.574	1063.49
463.947	1102.58
464.32	1130.61
464.692	1134
465.065	1115.47
465.438	1142.13
465.81	1162.24
466.183	1169.7
466.555	1197.04
466.928	1216.71
467.3	1222.35
467.672	1246.99
468.045	1279.08
468.417	1281.79
468.789	1282.92
469.161	1312.97
469.534	1327.44
469.906	1385.97
470.278	1380.09
470.65	1404.27
471.022	1451.05
471.394	1459.86
471.766	1483.36
472.138	1540.76
472.51	1548
472.882	1587.99
473.253	1605.85
473.625	1645.62
473.997	1676.35
474.369	1687.88
474.74	1759.06
475.112	1821.44
475.484	1858.04
475.855	1914.54
476.227	1936.46
476.598	1976.91
476.97	2019.4
477.341	2105.95
477.713	2136.23
478.084	2160.64
478.455	2272.04
478.827	2328.77
479.198	2422.32
479.569	2451.48
479.94	2550.23
480.311	2593.39
480.682	2674.97
481.053	2796.78
481.424	2880.16
481.795	2939.82
482.166	3004.23
482.537	3104.57
482.908	3191.57
483.279	3280.61
483.65	3396.99
484.021	3516.98
484.391	3593.14
484.762	3667.49
485.133	3782.29
485.503	3872.68
485.874	4056.4
486.244	4138.66
486.615	4247.13
486.985	4371.2
487.356	4526.67
487.726	4591.31
488.097	4756.27
488.467	4832.43
488.837	5038.07
489.207	5151.07
489.578	5245.98
489.948	5392.19
490.318	5587.89
490.688	5649.58
491.058	5784.04
491.428	5972.29
491.798	6116.24
492.168	6303.35
492.538	6389
492.908	6530.92
493.278	6661.31
493.648	6805.71
494.017	6937.23
494.387	7135.19
494.757	7283.44
495.126	7373.38
495.496	7477.33
495.866	7662.64
496.235	7831.45
496.605	8002.06
496.974	8033.7
497.344	8212.23
497.713	8328.16
498.082	8519.56
498.452	8696.73
498.821	8828.48
499.19	8909.84
499.559	9037.06
499.928	9247.68
500.298	9342.37
500.667	9534.45
501.036	9563.15
501.405	9747.33
501.774	9821
502.143	9905.06
502.512	10075.23
502.88	10286.52
503.249	10300.99
503.618	10447.42
503.987	10582.11
504.356	10769.45
504.724	10813.52
505.093	10946.84
505.462	11029.33
505.83	11082.66
506.199	11326.04
506.567	11502.31
506.936	11483.33
507.304	11748.86
507.672	11785.24
508.041	11940.94
508.409	12075.85
508.777	12222.97
509.145	12280.14
509.514	12353.81
509.882	12530.08
510.25	12603.07
510.618	12677.19
510.986	12773.69
511.354	12933.23
511.722	13167.58
512.09	13273.56
512.458	13258.42
512.826	13474.69
513.193	13579.54
513.561	13548.36
513.929	13743.38
514.297	13896.82
514.664	14025.86
515.032	14078.29
515.4	14290.26
515.767	14273.31
516.135	14414.55
516.502	14326.87
516.869	14682.57
517.237	14721.89
517.604	14704.03
517.972	14892.73
518.339	15119.62
518.706	15137.7
519.073	15283.91
519.44	15345.15
519.808	15457.01
520.175	15587.63
520.542	15683.22
520.909	15869.88
521.276	15856.55
521.643	15998.24
522.009	16137.89
522.376	16308.06
522.743	16415.4
523.11	16526.36
523.477	16656.75
523.843	16775.17
524.21	17049.74
524.577	17079.57
524.943	17250.18
525.31	17243.18
525.676	17440.46
526.043	17556.39
526.409	17621.92
526.776	17865.31
527.142	17950.28
527.508	17994.8
527.874	18211.51
528.241	18276.37
528.607	18365.86
528.973	18487.66
529.339	18534.89
529.705	18811.04
530.071	18920.87
530.437	18912.29
530.803	19096.24
531.169	19177.36
531.535	19230.24
531.901	19288.32
532.267	19342.1
532.632	19570.57
532.998	19711.36
533.364	19718.14
533.73	19758.14
534.095	19828.65
534.461	20029.54
534.826	20081.07
535.192	20134.63
535.557	20283.1
535.923	20249.65
536.288	20357.44
536.653	20444.9
537.019	20508.18
537.384	20558.34
537.749	20733.25
538.114	20671.56
538.479	20766.7
538.845	21047.82
539.21	20978.45
539.575	21011.44
539.94	21099.35
540.305	21202.17
540.67	21284.65
541.034	21256.18
541.399	21441.48
541.764	21523.29
542.129	21476.06
542.494	21678.31
542.858	21785.66
543.223	21900.68
543.587	22086.89
543.952	22008.25
544.316	22017.29
544.681	22054.35
545.045	22242.82
545.41	22328.47
545.774	22281.24
546.138	22370.05
546.503	22538.86
546.867	22489.14
547.231	22666.31
547.595	22756.03
547.959	22811.84
548.324	22810.49
548.688	22845.52
549.052	22996.7
549.416	23027.21
549.779	22996.25
550.143	23150.59
550.507	23392.17
550.871	23452.96
551.235	23451.6
551.599	23511.49
551.962	23646.4
552.326	23678.26
552.689	23813.4
553.053	23876.22
553.417	23936.11
553.78	24099.49
554.143	24118.7
554.507	24335.19
554.87	24318.7
555.234	24489.77
555.597	24412.48
555.96	24389.2
556.323	24669.87
556.686	24600.27
557.05	24786.03
557.413	24865.35
557.776	24909.64
558.139	25038.9
558.502	25218.33
558.865	25136.53
559.228	25398.89
559.59	25382.62
559.953	25520.47
560.316	25709.17
560.679	25755.5
561.041	25950.52
561.404	25986.22
561.767	26141.02
562.129	26103.73
562.492	26437.51
562.854	26421.69
563.217	26554.12
563.579	26518.86
563.941	26598.41
564.304	26791.17
564.666	26946.2
565.028	27004.28
565.39	27239.52
565.753	27245.85
566.115	27370.14
566.477	27500.99
566.839	27474.77
567.201	27688.33
567.563	27809.45
567.925	27828.89
568.287	28036.79
568.648	28016.68
569.01	28230.23
569.372	28421.19
569.734	28281.08
570.095	28491.69
570.457	28627.96
570.819	28679.71
571.18	28873.83
571.542	28908.41
571.903	28976.65
572.265	29095.75
572.626	29253.03
572.987	29194.05
573.349	29402.4
573.71	29375.74
574.071	29604.66
574.432	29677.88
574.794	29918.32
575.155	29965.55
575.516	29881.71
575.877	30048.04
576.238	30109.73
576.599	30312.44
576.96	30228.15
577.32	30299.33
577.681	30656.16
578.042	30671.3
578.403	30710.62
578.763	30859.99
579.124	31043.72
579.485	31058.18
579.845	31408.68
580.206	31196.71
580.566	31311.73
580.927	31365.29
581.287	31640.76
581.648	31746.07
582.008	31964.82
582.368	31831.04
582.728	32119.4
583.089	32153.74
583.449	32361.42
583.809	32338.82
584.169	32590.57
584.529	32703.11
584.889	32958.7
585.249	32640.06
585.609	32953.27
585.969	33081.18
586.329	33238.69
586.688	33408.63
587.048	33419.47
587.408	33428.97
587.768	33652.69
588.127	33710.77
588.487	33673.48
588.846	34146.23
589.206	33971.55
589.565	34022.85
589.925	34432.56
590.284	34330.64
590.643	34565.66
591.003	34740.12
591.362	34936.95
591.721	35035.93
592.08	35123.61
592.44	35376.49
592.799	35296.26
593.158	35428.24
593.517	35536.71
593.876	35630.94
594.235	35684.05
594.593	35894.21
594.952	36042
595.311	35983.47
595.67	36113.64
596.029	36357.93
596.387	36472.05
596.746	36598.6
597.104	36608.54
597.463	36797.46
597.822	36941.87
598.18	36892.6
598.538	36858.48
598.897	37284.46
599.255	36961.3
599.613	37510.89
599.972	37489.2
600.33	37716.54
600.688	37592.92
601.046	37593.83
601.404	37911.79
601.762	37977.32
602.12	38129.86
602.478	38100.93
602.836	38253.47
603.194	38115.17
603.552	38332.11
603.91	38363.53
604.268	38642.84
604.625	38478.78
604.983	38664.76
605.341	38548.38
605.698	38848.71
606.056	39001.02
606.413	39090.29
606.771	39208.7
607.128	39234.01
607.485	39203.5
607.843	39235.82
608.2	39387.68
608.557	39614.79
608.914	39492.31
609.272	39804.39
609.629	39894.11
609.986	40046.64
610.343	39879.64
610.7	40339.07
611.057	40155.34
611.414	40222.69
611.771	40337.03
612.127	40577.48
612.484	40605.95
612.841	40723.46
613.198	40678.04
613.554	40778.6
613.911	40960.52
614.267	41060.86
614.624	40902.44
614.98	41091.36
615.337	41253.62
615.693	41205.03
616.05	41233.05
616.406	41464.01
616.762	41397.8
617.118	41453.61
617.475	41410.68
617.831	41655.42
618.187	41696.54
618.543	41738.13
618.899	42066.25
619.255	41866.71
619.611	41969.98
619.967	41979.25
620.323	42245.91
620.678	42062.86
621.034	41957.33
621.39	42082.75
621.746	42187.38
622.101	42388.73
622.457	42133.37
622.812	42362.74
623.168	42372.23
623.523	42567.03
623.879	42682.28
624.234	42340.6
624.589	42580.59
624.945	42508.05
625.3	42707.82
625.655	42698.78
626.01	42646.58
626.365	42655.62
626.72	42691.55
627.075	42666.01
627.43	42717.31
627.785	42689.06
628.14	42848.38
628.495	42763.64
628.85	42834.59
629.205	42615.62
629.559	42890.19
629.914	42805.22
630.269	42726.35
630.623	42670.3
630.978	42484.32
631.332	42806.12
631.687	42874.59
632.041	42752.56
632.396	42877.3
632.75	42756.4
633.104	42732.9
633.459	42571.1
633.813	42623.98
634.167	42555.73
634.521	42575.39
634.875	42737.65
635.229	42661.94
635.583	42397.09
635.937	42474.83
636.291	42503.76
636.645	42466.02
636.999	42445.23
637.352	42600.25
637.706	42231.9
638.06	42373.36
638.413	42365.45
638.767	42267.15
639.121	42285
639.474	42005.01
639.828	42072.58
640.181	42250.65
640.534	42174.27
640.888	42129.08
641.241	42073.03
641.594	41995.07
641.947	41981.06
642.301	42066.25
642.654	41982.19
643.007	42043.88
643.36	41936.99
643.713	41949.19
644.066	42094.95
644.419	41709.65
644.771	41425.37
645.124	41248.65
645.477	41205.03
645.83	40960.07
646.182	40846.85
646.535	40715.55
646.888	40766.4
647.24	40457.26
647.593	40690.47
647.945	40608.44
648.298	40516.46
648.65	40407.31
649.002	40319.18
649.355	40587.42
649.707	40490.7
650.059	40594.43
650.411	41099.5
650.763	41090.69
651.115	41558.47
651.467	41356.89
651.819	41320.28
652.171	41202.32
652.523	41177.01
652.875	41317.35
653.227	41113.96
653.578	41304.69
653.93	41112.38
654.282	40918.94
654.633	40997.81
654.985	41039.16
655.337	41086.84
655.688	40984.25
656.039	41109.67
656.391	40781.31
656.742	40878.26
657.094	40975.43
657.445	40972.5
657.796	40766.17
658.147	40799.62
658.498	40774.99
658.849	40918.49
659.2	40788.09
659.551	40738.15
659.902	40795.1
660.253	40806.85
660.604	40811.6
660.955	40610.02
661.306	40767.3
661.656	40701.32
662.007	40761.43
662.358	40656.8
662.708	40778.38
663.059	40737.02
663.409	40376.13
663.76	40668.1
664.11	40651.37
664.461	40701.77
664.811	40644.6
665.161	40688.89
665.511	40507.65
665.862	40620.64
666.212	40758.49
666.562	40682.56
666.912	40606.86
667.262	40518.72
667.612	40603.47
667.962	40485.28
668.312	40538.61
668.662	40877.13
669.011	40561.21
669.361	40537.03
669.711	40413.19
670.06	40322.57
670.41	40284.15
670.76	40287.99
671.109	40434.88
671.459	40400.53
671.808	40326.64
672.157	40459.06
672.507	40250.03
672.856	40192.18
673.205	40182.01
673.554	40292.51
673.904	40189.47
674.253	40414.54
674.602	40130.48
674.951	39657.28
675.3	39605.07
675.649	40129.81
675.998	40184.49
676.346	40201.89
676.695	40192.63
677.044	39824.96
677.393	40089.81
677.741	40066.98
678.09	39983.14
678.438	39845.52
678.787	39832.64
679.135	40049.58
679.484	39725.98
679.832	39897.27
680.181	39605.53
680.529	39791.06
680.877	39671.97
681.225	39546.77
681.573	39592.42
681.922	39551.97
682.27	39334.12
682.618	39318.75
682.966	39432.42
683.314	39428.13
683.661	39305.2
684.009	39064.3
684.357	39049.61
684.705	39000.12
685.053	39014.36
685.4	38930.29
685.748	38693.01
686.095	38813.91
686.443	38752.89
686.79	38551.99
687.138	38587.93
687.485	38693.91
687.832	38504.31
688.18	38627.02
688.527	38440.13
688.874	38209.86
689.221	38381.38
689.568	38185.68
689.915	38065.45
690.262	38037.43
690.609	38097.09
690.956	37735.29
691.303	37786.37
691.65	37692.58
691.997	37669.98
692.344	37400.39
692.69	37340.05
693.037	37378.69
693.383	37053.5
693.73	37278.58
694.077	36930.57
694.423	37075.88
694.769	36890.57
695.116	36769.67
695.462	36786.39
695.808	36617.81
696.155	36643.57
696.501	36390.92
696.847	36382.33
697.193	36115.45
697.539	36248.55
697.885	36048.56
698.231	35920.2
698.577	35990.93
698.923	36017.15
699.269	35743.48
699.614	35520.44
699.96	35508.46
700.306	35598.4
700.651	35367.22
700.997	35313.89
701.342	35244.06
701.688	35091.97
702.033	35040
702.379	35159.77
702.724	34926.33
703.069	35095.59
703.415	34635.94
703.76	34669.61
704.105	34602.72
704.45	34694.92
704.795	34348.49
705.14	34172.45
705.485	34179.45
705.83	34141.72
706.175	34084.32
706.52	34005.45
706.865	34020.14
707.209	33838.45
707.554	33868.95
707.899	33861.5
708.243	33661.28
708.588	33617.21
708.932	33326.37
709.277	33470.09
709.621	33519.81
709.966	33237.56
710.31	33233.04
710.654	33030.78
710.998	33061.52
711.342	33059.71
711.687	33037.34
712.031	32680.74
712.375	32669.89
712.719	32740.62
713.063	32727.29
713.407	32730.9
713.75	32445.94
714.094	32545.37
714.438	32418.82
714.782	32529.55
715.125	32274.65
715.469	32292.27
715.812	32224.93
716.156	31940.64
716.499	32105.16
716.843	31966.41
717.186	31899.29
717.53	31953.07
717.873	31951.26
718.216	31897.71
718.559	31742
718.902	31603.7
719.246	31663.81
719.589	31503.37
719.932	31384.95
720.275	31379.98
720.617	31432.18
720.96	31322.35
721.303	31354.44
721.646	31317.61
721.989	31121.91
722.331	31270.38
722.674	31146.54
723.016	31066.99
723.359	31084.17
723.701	31004.62
724.044	30841.01
724.386	30603.28
724.729	30900.44
725.071	30686.66
725.413	30649.6
725.755	30678.08
726.097	30482.6
726.439	30349.72
726.782	30332.32
727.124	30520.12
727.465	30216.39
727.807	30263.4
728.149	30111.31
728.491	30007.36
728.833	30158.77
729.175	30043.97
729.516	30194.93
729.858	29933.92
730.199	29907.02
730.541	29789.06
730.882	29872.45
731.224	29864.77
731.565	29824.54
731.906	29821.83
732.248	29690.08
732.589	29548.62
732.93	29452.8
733.271	29554.72
733.612	29541.84
733.953	29488.5
734.294	29439.01
734.635	29363.08
734.976	29271.79
735.317	29236.76
735.658	29187.95
735.999	29112.92
736.339	29115.63
736.68	29206.7
737.021	29116.31
737.361	29027.5
737.702	29117.21
738.042	29000.61
738.383	28970.33
738.723	29050.55
739.063	28864.79
739.404	28947.73
739.744	28765.36
740.084	28645.14
740.424	28765.36
740.764	28593.61
741.104	28639.49
741.444	28514.29
741.784	28553.61
742.124	28495.54
742.464	28486.5
742.804	28396.1
743.143	28247.41
743.483	28430.9
743.823	28234.98
744.162	28214.87
744.502	28324.69
744.841	28162.21
745.181	28188.88
745.52	27979.62
745.86	28089.67
746.199	28053.06
746.538	28101.42
746.877	28110.69
747.216	27995.89
747.556	27942.56
747.895	27806.29
748.234	27875.21
748.573	27832.05
748.911	27625.95
749.25	27632.28
749.589	27524.71
749.928	27517.93
750.267	27510.7
750.605	27507.77
750.944	27462.57
751.283	27354.78
751.621	27395.23
751.96	27231.16
752.298	27246.08
752.636	27233.65
752.975	27029.36
753.313	27003.15
753.651	27141
753.989	26934
754.327	26885.63
754.666	26764.96
755.004	26847.22
755.342	26732.42
755.679	26811.29
756.017	26584.63
756.355	26689.26
756.693	26581.01
757.031	26542.37
757.368	26347.57
