Data from hue_280_FLMS001491_00097.txt Node
Date: Tue Feb 07 15:56:08 GMT 2017
User: dcchb
Spectrometer: FLMS00149
Trigger mode: 0
Integration Time (sec): 2.000000E-2
Scans to average: 10
Electric dark correction enabled: true
Nonlinearity correction enabled: false
Boxcar width: 0
XAxis mode: Wavelengths
Number of Pixels in Spectrum: 2048
>>>>>Begin Spectral Data<<<<<
341.393	-31.28
341.776	-31.28
342.16	-31.28
342.543	-53.43
342.927	-56.14
343.31	-65.63
343.693	-85.52
344.077	-50.94
344.46	-54.79
344.843	-43.49
345.226	-45.75
345.61	-33.32
345.993	-36.93
346.376	2.39
346.759	10.52
347.142	39.67
347.525	25.21
347.908	59.33
348.291	73.35
348.674	93.68
349.057	112.21
349.44	132.33
349.823	116.96
350.206	155.83
350.588	183.85
350.971	209.39
351.354	205.77
351.737	218.2
352.119	244.64
352.502	257.97
352.884	274.02
353.267	244.19
353.65	298.2
354.032	274.24
354.414	272.44
354.797	309.05
355.179	306.11
355.562	308.59
355.944	315.83
356.326	302.49
356.709	324.86
357.091	320.8
357.473	316.95
357.855	351.53
358.238	333.45
358.62	343.39
359.002	353.56
359.384	334.36
359.766	327.12
360.148	325.99
360.53	335.03
360.912	308.59
361.294	308.59
361.676	314.7
362.057	304.75
362.439	311.76
362.821	320.34
363.203	323.28
363.584	318.54
363.966	340.91
364.348	321.47
364.729	306.56
365.111	293.9
365.493	312.89
365.874	291.64
366.256	315.15
366.637	310.18
367.019	300.91
367.4	288.26
367.781	297.97
368.163	302.04
368.544	302.04
368.925	309.05
369.306	296.16
369.688	296.84
370.069	287.58
370.45	323.96
370.831	302.04
371.212	294.13
371.593	294.81
371.974	296.62
372.355	293.68
372.736	334.58
373.117	306.33
373.498	303.4
373.879	299.33
374.26	302.04
374.641	296.16
375.021	297.52
375.402	298.2
375.783	318.99
376.163	322.38
376.544	299.1
376.925	307.69
377.305	306.33
377.686	326.45
378.066	309.95
378.447	332.55
378.827	301.81
379.208	308.14
379.588	304.07
379.968	317.18
380.349	330.51
380.729	312.89
381.109	322.38
381.489	313.57
381.87	300.91
382.25	333.23
382.63	325.32
383.01	304.3
383.39	333.23
383.77	321.25
384.15	321.25
384.53	321.02
384.91	335.94
385.29	337.75
385.67	338.88
386.049	365.54
386.429	346.78
386.809	350.4
387.189	320.8
387.568	352.66
387.948	341.81
388.328	358.08
388.707	360.57
389.087	340.68
389.466	364.19
389.846	359.21
390.225	350.63
390.605	358.08
390.984	353.56
391.363	360.57
391.743	354.92
392.122	353.11
392.501	353.34
392.881	368.48
393.26	375.94
393.639	364.19
394.018	354.69
394.397	347.91
394.776	352.66
395.155	371.42
395.534	367.58
395.913	396.95
396.292	367.58
396.671	378.2
397.05	372.77
397.429	376.84
397.808	383.62
398.186	362.6
398.565	392.89
398.944	379.55
399.323	366.9
399.701	376.61
400.08	395.6
400.458	386.11
400.837	387.91
401.215	412.77
401.594	398.08
401.972	407.8
402.351	408.03
402.729	398.31
403.107	413.9
403.486	417.74
403.864	426.1
404.242	408.7
404.62	427.91
404.999	400.34
405.377	436.05
405.755	427.46
406.133	421.36
406.511	455.48
406.889	448.7
407.267	467.91
407.645	437.86
408.023	454.8
408.401	466.78
408.779	484.41
409.156	449.38
409.534	482.83
409.912	464.97
410.29	483.73
410.667	487.57
411.045	506.1
411.422	510.17
411.8	514.69
412.178	517.4
412.555	528.25
412.933	517.85
413.31	532.54
413.687	540
414.065	539.32
414.442	535.03
414.819	553.33
415.197	563.28
415.574	558.3
415.951	578.64
416.328	591.52
416.705	574.35
417.082	598.53
417.46	596.27
417.837	615.93
418.214	617.51
418.591	630.62
418.967	609.6
419.344	646.89
419.721	650.73
420.098	660.45
420.475	662.26
420.852	668.58
421.228	675.36
421.605	693.22
421.982	697.96
422.358	708.58
422.735	712.65
423.111	706.32
423.488	733.22
423.864	734.8
424.241	732.76
424.617	761.01
424.994	753.33
425.37	749.94
425.746	784.51
426.123	793.33
426.499	791.97
426.875	794.23
427.251	803.27
427.627	818.18
428.003	837.85
428.379	844.62
428.756	834.91
429.132	841.01
429.507	858.86
429.883	894.34
430.259	892.76
430.635	895.24
431.011	923.49
431.387	954.9
431.763	944.96
432.138	948.35
432.514	964.85
432.89	995.58
433.265	991.29
433.641	996.26
434.016	988.12
434.392	1043.04
434.767	1046.43
435.143	1048.91
435.518	1086.2
435.894	1102.02
436.269	1118.97
436.644	1106.31
437.02	1149.93
437.395	1112.41
437.77	1123.04
438.145	1174.11
438.52	1165.52
438.895	1172.75
439.271	1166.42
439.646	1215.69
440.021	1218.17
440.395	1189.25
440.77	1205.97
441.145	1235.8
441.52	1284.61
441.895	1237.83
442.27	1281.68
442.645	1299.3
443.019	1294.56
443.394	1324.61
443.769	1307.44
444.143	1292.75
444.518	1332.97
444.892	1335.91
445.267	1341.56
445.641	1334.1
446.016	1352.86
446.39	1385.63
446.764	1377.49
447.139	1361
447.513	1385.4
447.887	1371.39
448.262	1379.3
448.636	1410.94
449.01	1427.66
449.384	1418.85
449.758	1418.85
450.132	1449.35
450.506	1460.65
450.88	1458.39
451.254	1432.18
451.628	1471.73
452.002	1458.17
452.376	1502.01
452.75	1518.05
453.123	1521.44
453.497	1530.93
453.871	1546.53
454.244	1553.31
454.618	1584.94
454.992	1575.68
455.365	1617.26
455.739	1653.19
456.112	1645.96
456.486	1637.37
456.859	1661.78
457.232	1651.38
457.606	1643.7
457.979	1679.86
458.352	1738.39
458.725	1724.6
459.099	1748.1
459.472	1787.65
459.845	1737.71
460.218	1756.69
460.591	1784.71
460.964	1767.54
461.337	1853.64
461.71	1864.03
462.083	1849.57
462.456	1891.83
462.829	1900.42
463.201	1882.34
463.574	1907.65
463.947	1918.27
464.32	1975.89
464.692	1985.39
465.065	1996.46
465.438	2011.83
465.81	2005.95
466.183	2028.55
466.555	2096.57
466.928	2128.43
467.3	2102.67
467.672	2130.69
468.045	2159.62
468.417	2147.87
468.789	2187.87
469.161	2193.52
469.534	2210.01
469.906	2238.03
470.278	2228.54
470.65	2249.33
471.022	2275.1
471.394	2343.79
471.766	2370.69
472.138	2397.13
472.51	2436.22
472.882	2459.72
473.253	2461.08
473.625	2494.75
473.997	2528.2
474.369	2545.14
474.74	2549.89
475.112	2603.9
475.484	2669.44
475.855	2684.12
476.227	2659.49
476.598	2735.87
476.97	2760.51
477.341	2791.47
477.713	2826.49
478.084	2804.57
478.455	2933.16
478.827	2918.47
479.198	2984.91
479.569	2997.56
479.94	3021.29
480.311	3028.75
480.682	3094.06
481.053	3177.9
481.424	3197.11
481.795	3237.33
482.166	3242.75
482.537	3307.61
482.908	3314.39
483.279	3332.24
483.65	3406.14
484.021	3459.47
484.391	3477.55
484.762	3500.6
485.133	3504.67
485.503	3530.43
485.874	3611.56
486.244	3644.55
486.615	3701.95
486.985	3724.1
487.356	3775.85
487.726	3775.17
488.097	3809.52
488.467	3847.26
488.837	3893.13
489.207	3939.68
489.578	4009.74
489.948	4017.2
490.318	4026.46
490.688	4071.21
491.058	4123.63
491.428	4157.76
491.798	4209.28
492.168	4239.56
492.538	4239.79
492.908	4315.49
493.278	4378.77
493.648	4337.64
494.017	4414.25
494.387	4378.54
494.757	4449.5
495.126	4456.51
495.496	4459.9
495.866	4506.22
496.235	4531.08
496.605	4573.11
496.974	4567.69
497.344	4620.57
497.713	4642.94
498.082	4655.6
498.452	4715.94
498.821	4737.63
499.19	4632.1
499.559	4734.24
499.928	4759.55
500.298	4788.93
500.667	4835.48
501.036	4821.7
501.405	4859.21
501.774	4848.14
502.143	4866.67
502.512	4872.54
502.88	4894.24
503.249	4908.7
503.618	4953.22
503.987	4967.91
504.356	5027.79
504.724	5016.27
505.093	4984.85
505.462	4986.21
505.83	5037.06
506.199	5007.68
506.567	5090.16
506.936	5068.69
507.304	5149.37
507.672	5162.25
508.041	5212.42
508.409	5167.45
508.777	5214
509.145	5269.82
509.514	5202.93
509.882	5256.49
510.25	5231.85
510.618	5276.6
510.986	5275.92
511.354	5330.61
511.722	5337.16
512.09	5355.47
512.458	5368.35
512.826	5399.53
513.193	5410.38
513.561	5390.72
513.929	5417.84
514.297	5489.93
514.664	5468.91
515.032	5466.2
515.4	5502.58
515.767	5512.07
516.135	5531.73
516.502	5464.84
516.869	5513.43
517.237	5550.72
517.604	5550.94
517.972	5569.7
518.339	5609.47
518.706	5604.05
519.073	5649.7
519.44	5644.5
519.808	5691.28
520.175	5643.37
520.542	5694.21
520.909	5758.17
521.276	5720.43
521.643	5761.11
522.009	5735.8
522.376	5799.75
522.743	5789.35
523.11	5810.6
523.477	5871.61
523.843	5895.79
524.21	5849.46
524.577	5920.2
524.943	5907.77
525.31	5902.8
525.676	5967.2
526.043	6011.95
526.409	6025.73
526.776	6082.45
527.142	6072.28
527.508	6141.66
527.874	6109.35
528.241	6152.28
528.607	6128.78
528.973	6186.18
529.339	6199.51
529.705	6220.98
530.071	6274.99
530.437	6219.4
530.803	6282.67
531.169	6341.43
531.535	6230.02
531.901	6373.52
532.267	6321.77
532.632	6339.62
532.998	6400.18
533.364	6360.19
533.73	6379.62
534.095	6445.38
534.461	6440.64
534.826	6423.46
535.192	6463.46
535.557	6509.11
535.923	6483.8
536.288	6518.37
536.653	6501.88
537.019	6446.96
537.384	6585.04
537.749	6541.42
538.114	6546.17
538.479	6624.59
538.845	6574.64
539.21	6569.9
539.575	6595.43
539.94	6552.72
540.305	6639.73
540.67	6626.62
541.034	6651.7
541.399	6622.33
541.764	6734.19
542.129	6702.78
542.494	6676.56
542.858	6724.92
543.223	6743.9
543.587	6783.9
543.952	6717.92
544.316	6765.82
544.681	6799.04
545.045	6767.63
545.41	6860.74
545.774	6810.12
546.138	6813.28
546.503	6877.91
546.867	6881.98
547.231	6829.1
547.595	6827.29
547.959	6898.7
548.324	6912.71
548.688	6918.36
549.052	6903.45
549.416	6941.19
549.779	6939.15
550.143	6927.4
550.507	6964.92
550.871	6967.85
551.235	6968.53
551.599	7015.76
551.962	7018.93
552.326	7056.44
552.689	7006.72
553.053	7018.25
553.417	6978.47
553.78	7044.24
554.143	6981.19
554.507	7028.64
554.87	7061.18
555.234	7132.59
555.597	7123.1
555.96	7123.56
556.323	7149.32
556.686	7121.97
557.05	7177.11
557.413	7176.89
557.776	7206.72
558.139	7243.78
558.502	7234.51
558.865	7240.84
559.228	7284.46
559.59	7289.65
559.953	7306.6
560.316	7403.1
560.679	7329.2
561.041	7343.89
561.404	7408.97
561.767	7449.87
562.129	7500.95
562.492	7548.86
562.854	7566.26
563.217	7524
563.579	7516.77
563.941	7561.06
564.304	7604.45
564.666	7648.97
565.028	7619.59
565.39	7572.36
565.753	7715.4
566.115	7656.2
566.477	7755.18
566.839	7734.84
567.201	7787.04
567.563	7849.86
567.925	7890.32
568.287	7851.45
568.648	7875.4
569.01	7871.33
569.372	7942.97
569.734	7906.36
570.095	7954.49
570.457	7984.78
570.819	8029.07
571.18	8034.72
571.542	8056.41
571.903	8072.46
572.265	8125.11
572.626	8176.41
572.987	8194.94
573.349	8248.05
573.71	8230.42
574.071	8243.07
574.432	8259.57
574.794	8428.83
575.155	8415.05
575.516	8380.7
575.877	8456.4
576.238	8436.74
576.599	8481.94
576.96	8506.57
577.32	8491.43
577.681	8553.8
578.042	8606
578.403	8652.33
578.763	8703.85
579.124	8754.47
579.485	8767.13
579.845	8822.95
580.206	8824.75
580.566	8850.29
580.927	8942.72
581.287	8977.97
581.648	9025.2
582.008	8998.99
582.368	9100.23
582.728	9226.55
583.089	9182.03
583.449	9257.74
583.809	9304.74
584.169	9293.89
584.529	9366.66
584.889	9501.8
585.249	9481.01
585.609	9501.35
585.969	9629.7
586.329	9657.27
586.688	9616.6
587.048	9791.73
587.408	9829.02
587.768	9920.54
588.127	9991.5
588.487	10040.54
588.846	10128.22
589.206	10130.48
589.565	10179.75
589.925	10346.3
590.284	10281.66
590.643	10433.98
591.003	10463.13
591.362	10553.75
591.721	10558.04
592.08	10690.69
592.44	10765.95
592.799	10855.43
593.158	10887.52
593.517	10942.21
593.876	10958.94
594.235	11036.22
594.593	11125.26
594.952	11211.81
595.311	11169.1
595.67	11258.81
596.029	11419.49
596.387	11456.1
596.746	11525.02
597.104	11568.41
597.463	11589.43
597.822	11685.92
598.18	11685.02
598.538	11802.08
598.897	11872.13
599.255	11803.21
599.613	12007.27
599.972	11996.42
600.33	12132.01
600.688	12058.57
601.046	12216.98
601.404	12253.82
601.762	12278.67
602.12	12393.93
602.478	12400.71
602.836	12434.38
603.194	12449.07
603.552	12526.58
603.91	12480.93
604.268	12570.19
604.625	12541.27
604.983	12649.06
605.341	12590.53
605.698	12742.39
606.056	12802.5
606.413	12877.75
606.771	12917.75
607.128	12936.51
607.485	12890.64
607.843	12949.84
608.2	13007.47
608.557	13101.48
608.914	13033.46
609.272	13198.65
609.629	13183.06
609.986	13162.49
610.343	13150.97
610.7	13375.37
611.057	13379.21
611.414	13294.01
611.771	13412.66
612.127	13437.51
612.484	13487.46
612.841	13587.57
613.198	13502.14
613.554	13501.24
613.911	13668.69
614.267	13628.92
614.624	13616.04
614.98	13645.19
615.337	13713.89
615.693	13738.52
616.05	13691.52
616.406	13897.39
616.762	13803.61
617.118	13804.06
617.475	13751.4
617.831	13858.07
618.187	13898.74
618.543	13853.1
618.899	13983.71
619.255	13966.99
619.611	13983.26
619.967	14038.18
620.323	14040.44
620.678	14001.11
621.034	14044.05
621.39	14052.86
621.746	13982.81
622.101	14129.7
622.457	14132.18
622.812	14080.66
623.168	14150.72
623.523	14176.48
623.879	14258.96
624.234	14074.33
624.589	14153.88
624.945	14133.54
625.3	14293.99
625.655	14179.42
626.01	14145.07
626.365	14228
626.72	14232.07
627.075	14223.03
627.43	14225.74
627.785	14239.53
628.14	14253.54
628.495	14234.56
628.85	14219.41
629.205	14174.9
629.559	14318.17
629.914	14249.92
630.269	14210.15
630.623	14240.88
630.978	14116.14
631.332	14216.25
631.687	14216.48
632.041	14132.18
632.396	14228.91
632.75	14139.64
633.104	14082.02
633.459	14138.29
633.813	14104.84
634.167	14113.2
634.521	14152.3
634.875	14164.95
635.229	14140.77
635.583	14000.44
635.937	14092.19
636.291	14097.16
636.645	14103.49
636.999	14007.44
637.352	14123.6
637.706	14015.8
638.06	14065.75
638.413	13967.22
638.767	13942.36
639.121	13979.65
639.474	13897.61
639.828	13905.07
640.181	13868.69
640.534	14013.32
640.888	13920.21
641.241	13885.19
641.594	13833.89
641.947	13954.56
642.301	13821.68
642.654	13896.26
643.007	13843.83
643.36	13826.66
643.713	13809.03
644.066	13900.55
644.419	13772.87
644.771	13700.33
645.124	13618.98
645.477	13592.09
645.83	13551.86
646.182	13460.56
646.535	13397.97
646.888	13470.73
647.24	13339.89
647.593	13491.52
647.945	13504.63
648.298	13365.2
648.65	13425.08
649.002	13417.85
649.355	13484.52
649.707	13396.39
650.059	13456.72
650.411	13630.5
650.763	13681.12
651.115	13813.55
651.467	13752.53
651.819	13725.19
652.171	13732.2
652.523	13722.03
652.875	13708.69
653.227	13731.29
653.578	13678.19
653.93	13636.6
654.282	13665.53
654.633	13645.64
654.985	13630.05
655.337	13745.75
655.688	13735.81
656.039	13734.46
656.391	13701.01
656.742	13748.47
657.094	13693.78
657.445	13750.05
657.796	13800.89
658.147	13733.55
658.498	13719.09
658.849	13707.56
659.2	13685.19
659.551	13686.32
659.902	13774.23
660.253	13679.99
660.604	13746.88
660.955	13687.9
661.306	13824.4
661.656	13797.96
662.007	13749.6
662.358	13762.93
662.708	13802.93
663.059	13804.74
663.409	13693.55
663.76	13775.58
664.11	13822.14
664.461	13786.43
664.811	13851.51
665.161	13810.61
665.511	13759.31
665.862	13806.77
666.212	13864.4
666.562	13791.18
666.912	13810.39
667.262	13847.67
667.612	13821.46
667.962	13853.55
668.312	13882.7
668.662	13897.61
669.011	13820.55
669.361	13832.98
669.711	13785.75
670.06	13738.97
670.41	13805.41
670.76	13751.63
671.109	13848.58
671.459	13804.74
671.808	13784.85
672.157	13789.82
672.507	13701.01
672.856	13739.65
673.205	13694.68
673.554	13749.37
673.904	13658.07
674.253	13730.16
674.602	13695.13
674.951	13571.3
675.3	13465.99
675.649	13590.5
675.998	13586.44
676.346	13673.67
676.695	13663.04
677.044	13546.89
677.393	13649.26
677.741	13582.37
678.09	13568.58
678.438	13557.06
678.787	13604.52
679.135	13565.65
679.484	13473.9
679.832	13529.26
680.181	13419.66
680.529	13465.54
680.877	13401.58
681.225	13323.62
681.573	13515.93
681.922	13382.15
682.27	13313.68
682.618	13343.05
682.966	13209.95
683.314	13378.53
683.661	13273.22
684.009	13206.33
684.357	13224.86
684.705	13153.45
685.053	13254.47
685.4	13103.74
685.748	13084.53
686.095	13061.48
686.443	12997.75
686.79	13058.99
687.138	13004.53
687.485	13025.1
687.832	12971.54
688.18	12927.47
688.527	12823.97
688.874	12795.04
689.221	12812.22
689.568	12741.49
689.915	12731.09
690.262	12732.22
690.609	12737.87
690.956	12683.86
691.303	12546.92
691.65	12505.56
691.997	12630.76
692.344	12399.35
692.69	12475.51
693.037	12475.28
693.383	12280.71
693.73	12407.94
694.077	12358.45
694.423	12294.27
694.769	12227.15
695.116	12165
695.462	12146.93
695.808	12075.06
696.155	12136.31
696.501	11982.41
696.847	12082.97
697.193	11940.38
697.539	12014.5
697.885	11867.39
698.231	11841.17
698.577	11882.07
698.923	11788.74
699.269	11701.06
699.614	11663.78
699.96	11676.43
700.306	11648.41
700.651	11579.94
700.997	11454.97
701.342	11452.71
701.688	11460.84
702.033	11371.58
702.379	11395.99
702.724	11299.72
703.069	11331.81
703.415	11137.69
703.76	11215.88
704.105	11145.6
704.45	11152.6
704.795	11046.39
705.14	10977.01
705.485	10998.26
705.83	10946.51
706.175	10913.29
706.52	11007.75
706.865	10925.04
707.209	10824.25
707.554	10807.3
707.899	10832.16
708.243	10787.87
708.588	10795.32
708.932	10650.69
709.277	10705.61
709.621	10699.73
709.966	10557.36
710.31	10563.24
710.654	10539.06
710.998	10501.32
711.342	10529.79
711.687	10536.8
712.031	10496.12
712.375	10479.4
712.719	10473.07
713.063	10474.65
713.407	10451.83
713.75	10379.52
714.094	10402.57
714.438	10346.75
714.782	10354.66
715.125	10302
715.469	10270.82
715.812	10195.79
716.156	10207.54
716.499	10234.21
716.843	10258.39
717.186	10173.64
717.53	10165.96
717.873	10201.89
718.216	10157.83
718.559	10164.38
718.902	10038.28
719.246	10109.69
719.589	10049.81
719.932	9983.37
720.275	10033.76
720.617	10004.61
720.96	9968.23
721.303	10015.68
721.646	9981.56
721.989	9880.77
722.331	10008
722.674	9888.91
723.016	9935.69
723.359	9899.75
723.701	9866.99
724.044	9824.5
724.386	9843.71
724.729	9849.81
725.071	9905.4
725.413	9894.56
725.755	9866.99
726.097	9804.84
726.439	9780.21
726.782	9797.16
727.124	9895.23
727.465	9717.61
727.807	9772.07
728.149	9830.83
728.491	9732.98
728.833	9795.58
729.175	9735.01
729.516	9737.5
729.858	9735.01
730.199	9785.18
730.541	9723.49
730.882	9718.97
731.224	9767.33
731.565	9711.96
731.906	9736.37
732.248	9784.28
732.589	9664.96
732.93	9661.12
733.271	9680.32
733.612	9697.73
733.953	9757.61
734.294	9679.19
734.635	9729.14
734.976	9680.1
735.317	9612.76
735.658	9718.97
735.999	9664.05
736.339	9710.61
736.68	9763.03
737.021	9668.57
737.361	9636.48
737.702	9730.94
738.042	9668.57
738.383	9726.2
738.723	9755.12
739.063	9683.26
739.404	9746.09
739.744	9745.18
740.084	9724.17
740.424	9784.5
740.764	9750.83
741.104	9851.39
741.444	9755.12
741.784	9777.72
742.124	9769.14
742.464	9775.46
742.804	9779.31
743.143	9784.5
743.483	9915.57
743.823	9807.55
744.162	9821.56
744.502	9954.67
744.841	9962.35
745.181	10014.78
745.52	10011.62
745.86	10065.17
746.199	10073.31
746.538	10127.54
746.877	10218.16
747.216	10275.56
747.556	10212.97
747.895	10281.44
748.234	10368.44
748.573	10395.56
748.911	10407.09
749.25	10537.03
749.589	10524.14
749.928	10645.72
750.267	10744.48
750.605	10741.54
750.944	10888.88
751.283	10867.41
751.621	11017.69
751.96	11061.31
752.298	11086.16
752.636	11259.27
752.975	11264.46
753.313	11329.32
753.651	11516.43
753.989	11564.34
754.327	11667.84
754.666	11753.72
755.004	11888.18
755.342	12033.71
755.679	12203.87
756.017	12188.73
756.355	12359.12
756.693	12508.27
757.031	12646.8
757.368	12717.98
757.706	12878.88
758.044	13007.69
758.381	13222.38
758.719	13227.8
759.056	13369.27
759.394	13582.82
759.731	13611.52
760.068	13775.81
760.405	13866.2
760.743	14064.39
761.08	14216.25
761.417	14268
