Data from hue_80_FLMS001491_63.txt Node
Date: Mon Feb 06 15:23:22 GMT 2017
User: dcchb
Spectrometer: FLMS00149
Trigger mode: 0
Integration Time (sec): 2.000000E-2
Scans to average: 10
Electric dark correction enabled: true
Nonlinearity correction enabled: false
Boxcar width: 0
XAxis mode: Wavelengths
Number of Pixels in Spectrum: 2048
>>>>>Begin Spectral Data<<<<<
341.393	-26.47
341.776	-26.47
342.16	-26.47
342.543	-70.31
342.927	-62.63
343.31	-84.77
343.693	-63.98
344.077	-61.04
344.46	-43.42
344.843	-47.03
345.226	-52.23
345.61	-47.48
345.993	-28.95
346.376	-8.39
346.759	11.5
347.142	32.51
347.525	22.12
347.908	62.79
348.291	97.82
348.674	105.05
349.057	105.51
349.44	102.79
349.823	155
350.206	147.31
350.588	163.81
350.971	194.32
351.354	235.45
351.737	218.05
352.119	239.06
352.502	265.05
352.884	281.77
353.267	284.94
353.65	305.27
354.032	276.12
354.414	291.94
354.797	327.19
355.179	332.39
355.562	313.64
355.944	340.08
356.326	319.74
356.709	307.53
357.091	338.72
357.473	346.86
357.855	327.19
358.238	348.66
358.62	336.91
359.002	338.49
359.384	317.7
359.766	343.01
360.148	340.75
360.53	324.93
360.912	338.27
361.294	323.58
361.676	348.21
362.057	338.49
362.439	344.14
362.821	352.73
363.203	337.82
363.584	315.67
363.966	322.22
364.348	331.49
364.729	315.44
365.111	312.05
365.493	308.66
365.874	319.96
366.256	296.69
366.637	314.54
367.019	316.35
367.4	321.77
367.781	309.79
368.163	322.45
368.544	310.92
368.925	306.86
369.306	307.08
369.688	303.69
370.069	314.31
370.45	311.6
370.831	308.89
371.212	291.49
371.593	297.14
371.974	301.88
372.355	297.59
372.736	307.31
373.117	310.7
373.498	305.73
373.879	296.24
374.26	303.24
374.641	296.91
375.021	299.62
375.402	319.06
375.783	326.06
376.163	319.29
376.544	321.09
376.925	295.56
377.305	322
377.686	319.51
378.066	314.99
378.447	325.16
378.827	314.09
379.208	319.74
379.588	303.47
379.968	322.68
380.349	350.92
380.729	320.64
381.109	324.71
381.489	329.23
381.87	320.87
382.25	324.71
382.63	337.36
383.01	330.13
383.39	322.45
383.77	333.07
384.15	324.26
384.53	303.01
384.91	327.42
385.29	331.49
385.67	345.27
386.049	324.26
386.429	351.6
386.809	340.3
387.189	350.7
387.568	353.63
387.948	343.47
388.328	347.08
388.707	347.08
389.087	348.44
389.466	332.39
389.846	347.53
390.225	354.54
390.605	346.63
390.984	378.72
391.363	334.65
391.743	351.6
392.122	358.61
392.501	377.81
392.881	375.56
393.26	345.5
393.639	384.14
394.018	375.78
394.397	357.02
394.776	376.69
395.155	353.86
395.534	373.07
395.913	368.55
396.292	366.06
396.671	354.31
397.05	377.14
397.429	358.38
397.808	395.67
398.186	368.78
398.565	373.07
398.944	383.01
399.323	367.87
399.701	367.87
400.08	390.02
400.458	391.6
400.837	401.54
401.215	396.35
401.594	389.11
401.972	391.83
402.351	385.72
402.729	392.96
403.107	397.48
403.486	391.15
403.864	379.85
404.242	394.99
404.62	394.99
404.999	387.08
405.377	406.29
405.755	422.56
406.133	407.42
406.511	411.94
406.889	415.1
407.267	403.12
407.645	431.15
408.023	421.43
408.401	405.61
408.779	406.51
409.156	421.43
409.534	431.15
409.912	430.02
410.29	448.1
410.667	434.54
411.045	418.27
411.422	437.7
411.8	442.45
412.178	439.73
412.555	462.11
412.933	460.75
413.31	465.5
413.687	458.72
414.065	439.73
414.442	446.06
414.819	450.81
415.197	464.37
415.574	469.34
415.951	487.87
416.328	470.47
416.705	474.31
417.082	466.17
417.46	487.19
417.837	489.22
418.214	495.78
418.591	503.91
418.967	486.96
419.344	504.37
419.721	500.3
420.098	479.73
420.475	489.22
420.852	475.89
421.228	507.76
421.605	498.04
421.982	496.91
422.358	525.38
422.735	527.42
423.111	518.15
423.488	502.78
423.864	520.86
424.241	521.99
424.617	539.39
424.994	543.23
425.37	524.7
425.746	514.76
426.123	534.65
426.499	541.2
426.875	546.4
427.251	545.04
427.627	559.05
428.003	563.12
428.379	580.75
428.756	557.47
429.132	569
429.507	569
429.883	592.27
430.259	596.34
430.635	564.02
431.011	596.57
431.387	605.61
431.763	618.26
432.138	602.67
432.514	591.37
432.89	612.39
433.265	605.83
433.641	620.97
434.016	613.51
434.392	646.73
434.767	655.1
435.143	632.72
435.518	658.03
435.894	656
436.269	667.52
436.644	671.14
437.02	661.88
437.395	657.13
437.77	680.63
438.145	683.8
438.52	698.48
438.895	704.13
439.271	696.68
439.646	710.24
440.021	702.78
440.395	726.51
440.77	726.05
441.145	738.03
441.52	718.6
441.895	735.09
442.27	735.55
442.645	734.19
443.019	756.79
443.394	726.51
443.769	746.62
444.143	749.33
444.518	765.15
444.892	755.21
445.267	770.12
445.641	756.56
446.016	753.85
446.39	772.15
446.764	767.64
447.139	776.9
447.513	765.38
447.887	779.61
448.262	784.58
448.636	810.8
449.01	806.73
449.384	808.09
449.758	814.64
450.132	822.55
450.506	830.01
450.88	822.32
451.254	827.97
451.628	820.74
452.002	848.09
452.376	858.03
452.75	854.41
453.123	875.88
453.497	882.66
453.871	874.53
454.244	901.64
454.618	891.02
454.992	906.84
455.365	897.12
455.739	930.12
456.112	948.87
456.486	950.91
456.859	984.58
457.232	940.96
457.606	963.56
457.979	967.86
458.352	1004.24
458.725	1007.18
459.099	1036.78
459.472	1002.43
459.845	1075.42
460.218	1052.6
460.591	1045.59
460.964	1085.82
461.337	1077.23
461.71	1100.28
462.083	1109.32
462.456	1101.86
462.829	1105.25
463.201	1150.9
463.574	1171.01
463.947	1179.83
464.32	1193.16
464.692	1191.8
465.065	1210.11
465.438	1229.54
465.81	1247.85
466.183	1274.97
466.555	1277.68
466.928	1274.74
467.3	1297.34
467.672	1320.16
468.045	1372.14
468.417	1399.71
468.789	1385.02
469.161	1417.34
469.534	1456.43
469.906	1499.14
470.278	1478.8
470.65	1545.92
471.022	1555.19
471.394	1589.08
471.766	1619.82
472.138	1655.97
472.51	1669.76
472.882	1720.6
473.253	1729.64
473.625	1782.3
473.997	1824.56
474.369	1834.27
474.74	1874.95
475.112	1908.4
475.484	1959.47
475.855	2015.29
476.227	2070.2
476.598	2136.19
476.97	2161.04
477.341	2220.93
477.713	2289.86
478.084	2322.4
478.455	2387.25
478.827	2467.25
479.198	2539.57
479.569	2606.46
479.94	2673.12
480.311	2727.58
480.682	2823.17
481.053	2917.86
481.424	2961.7
481.795	3086.9
482.166	3153.34
482.537	3248.02
482.908	3355.82
483.279	3447.79
483.65	3503.61
484.021	3624.51
484.391	3737.73
484.762	3847.1
485.133	3905.18
485.503	4030.83
485.874	4097.04
486.244	4249.35
486.615	4362.34
486.985	4476.46
487.356	4631.94
487.726	4730.69
488.097	4848.43
488.467	4929.11
488.837	5139.95
489.207	5280.51
489.578	5392.37
489.948	5540.84
490.318	5651.8
490.688	5729.76
491.058	5891.34
491.428	6049.76
491.798	6198
492.168	6375.17
492.538	6435.73
492.908	6583.75
493.278	6769.06
493.648	6888.6
494.017	7027.58
494.387	7163.4
494.757	7279.55
495.126	7451.75
495.496	7514.58
495.866	7660.79
496.235	7789.6
496.605	7963.38
496.974	8075.47
497.344	8209.02
497.713	8317.49
498.082	8482.01
498.452	8608.78
498.821	8762
499.19	8803.58
499.559	8957.7
499.928	9111.6
500.298	9218.94
500.667	9356.11
501.036	9377.58
501.405	9627.06
501.774	9660.28
502.143	9826.61
502.512	9867.96
502.88	10082.87
503.249	10113.38
503.618	10197.22
503.987	10339.36
504.356	10407.16
504.724	10569.64
505.093	10589.3
505.462	10757.2
505.83	10834.26
506.199	10973.47
506.567	11098.66
506.936	11124.43
507.304	11350.41
507.672	11366.9
508.041	11410.97
508.409	11558.54
508.777	11734.13
509.145	11800.57
509.514	11869.49
509.882	11911.52
510.25	11978.19
510.618	12173.66
510.986	12198.07
511.354	12259.31
511.722	12418.4
512.09	12546.76
512.458	12506.76
512.826	12625.18
513.193	12731.39
513.561	12776.81
513.929	12917.82
514.297	13050.48
514.664	13063.36
515.032	13149.46
515.4	13260.64
515.767	13289.79
516.135	13397.13
516.502	13276.68
516.869	13575.43
517.237	13600.97
517.604	13494.76
517.972	13711.02
518.339	13785.37
518.706	13811.59
519.073	13858.14
519.44	13919.61
519.808	14033.28
520.175	14061.75
520.542	14166.15
520.909	14226.72
521.276	14302.65
521.643	14390.33
522.009	14454.51
522.376	14551
522.743	14519.36
523.11	14651.11
523.477	14843.88
523.843	14845.68
524.21	14957.77
524.577	15062.4
524.943	15096.52
525.31	15113.25
525.676	15242.28
526.043	15275.5
526.409	15369.51
526.776	15404.31
527.142	15373.35
527.508	15521.82
527.874	15649.96
528.241	15670.29
528.607	15658.54
528.973	15731.99
529.339	15677.3
529.705	15846.33
530.071	15853.11
530.437	15933.34
530.803	15998.87
531.169	15991.42
531.535	15981.92
531.901	15981.02
532.267	16009.72
532.632	16168.81
532.998	16093.56
533.364	16169.04
533.73	16133.78
534.095	16286.1
534.461	16285.19
534.826	16291.29
535.192	16281.8
535.557	16362.48
535.923	16265.53
536.288	16374.23
536.653	16417.85
537.019	16264.63
537.384	16380.33
537.749	16402.03
538.114	16285.65
538.479	16401.57
538.845	16460.33
539.21	16390.05
539.575	16328.81
539.94	16416.49
540.305	16371.74
540.67	16369.03
541.034	16408.58
541.399	16437.28
541.764	16428.24
542.129	16434.34
542.494	16433.89
542.858	16408.35
543.223	16307.57
543.587	16433.89
543.952	16409.03
544.316	16354.12
544.681	16296.72
545.045	16396.38
545.41	16400.22
545.774	16323.16
546.138	16371.74
546.503	16313.22
546.867	16359.77
547.231	16439.77
547.595	16404.51
547.959	16516.6
548.324	16443.16
548.688	16340.33
549.052	16445.87
549.416	16399.09
549.779	16325.42
550.143	16244.52
550.507	16435.02
550.871	16417.62
551.235	16334.23
551.599	16379.65
551.962	16377.17
552.326	16400.9
552.689	16402.93
553.053	16357.96
553.417	16319.09
553.78	16555.24
554.143	16324.29
554.507	16461.23
554.87	16353.44
555.234	16561.12
555.597	16281.13
555.96	16404.96
556.323	16509.59
556.686	16379.65
557.05	16519.99
557.413	16504.17
557.776	16434.34
558.139	16536.26
558.502	16550.27
558.865	16499.88
559.228	16600.89
559.59	16660.1
559.953	16593.21
560.316	16688.12
560.679	16694.9
561.041	16788
561.404	16892.63
561.767	16854.22
562.129	16755.01
562.492	16880.21
562.854	16889.25
563.217	16786.42
563.579	16901.45
563.941	17032.74
564.304	16997.94
564.666	16994.33
565.028	16926.31
565.39	17056.7
565.753	17129.92
566.115	17082.46
566.477	17076.13
566.839	17112.29
567.201	17251.04
567.563	17190.93
567.925	17265.73
568.287	17286.75
568.648	17261.89
569.01	17370.36
569.372	17368.78
569.734	17405.84
570.095	17347.76
570.457	17500.3
570.819	17483.13
571.18	17568.55
571.542	17618.49
571.903	17610.13
572.265	17715.21
572.626	17669.34
572.987	17658.94
573.349	17705.72
573.71	17757.24
574.071	17843.8
574.432	17860.75
574.794	17966.96
575.155	17933.96
575.516	17812.38
575.877	17801.76
576.238	17894.64
576.599	17908.65
576.96	17917.01
577.32	17859.16
577.681	17885.83
578.042	18011.25
578.403	17891.03
578.763	17915.88
579.124	17998.37
579.485	18019.61
579.845	18051.02
580.206	18002.44
580.566	17999.27
580.927	18089.44
581.287	18150.45
581.648	17926.05
582.008	18132.83
582.368	17997.24
582.728	18008.99
583.089	18032.27
583.449	18040.63
583.809	18011.93
584.169	17963.34
584.529	18041.08
584.889	18108.87
585.249	17967.18
585.609	17982.1
585.969	18041.31
586.329	18023.68
586.688	18058.93
587.048	17984.36
587.408	17916.11
587.768	17972.38
588.127	17908.65
588.487	17917.24
588.846	17995.43
589.206	17983
589.565	17869.33
589.925	18100.29
590.284	17935.32
590.643	18014.64
591.003	17930.12
591.362	17990.46
591.721	17993.4
592.08	18016.45
592.44	18077.24
592.799	18012.83
593.158	18009.67
593.517	17897.13
593.876	17941.87
594.235	17955.21
594.593	17938.94
594.952	18021.19
595.311	17914.08
595.67	17987.52
596.029	17945.94
596.387	18014.64
596.746	17967.86
597.104	17928.31
597.463	17931.25
597.822	17960.63
598.18	17888.09
598.538	17902.1
598.897	18020.51
599.255	17804.7
599.613	18104.81
599.972	17902.33
600.33	17939.84
600.688	17924.02
601.046	17998.14
601.404	17972.15
601.762	17984.58
602.12	17950.91
602.478	17961.76
602.836	17993.4
603.194	17883.8
603.552	17937.81
603.91	17954.98
604.268	18034.98
604.625	17958.6
604.983	18071.81
605.341	17921.53
605.698	18002.21
606.056	18080.4
606.413	18030.46
606.771	18111.81
607.128	18068.42
607.485	18119.5
607.843	18065.26
608.2	18157.69
608.557	18174.41
608.914	18087.18
609.272	18144.35
609.629	18128.76
609.986	18192.71
610.343	18150.91
610.7	18305.25
611.057	18264.12
611.414	18243.56
611.771	18377.34
612.127	18282.65
612.484	18334.86
612.841	18320.17
613.198	18267.97
613.554	18411.92
613.911	18410.34
614.267	18425.7
614.624	18399.26
614.98	18379.83
615.337	18502.08
615.693	18499.37
616.05	18473.38
616.406	18542.54
616.762	18503.21
617.118	18535.76
617.475	18512.48
617.831	18579.6
618.187	18510.45
618.543	18639.71
618.899	18668.41
619.255	18583.89
619.611	18608.07
619.967	18722.64
620.323	18731.23
620.678	18672.7
621.034	18554.74
621.39	18610.33
621.746	18422.76
622.101	18801.29
622.457	18624.57
622.812	18735.98
623.168	18749.76
623.523	18698.46
623.879	18814.84
624.234	18624.79
624.589	18732.36
624.945	18787.73
625.3	18853.94
625.655	18720.84
626.01	18798.57
626.365	18831.79
626.72	18745.02
627.075	18798.35
627.43	18803.55
627.785	18632.7
628.14	18643.1
628.495	18726.71
628.85	18644.68
629.205	18656.43
629.559	18712.25
629.914	18702.08
630.269	18620.73
630.623	18611.01
630.978	18624.57
631.332	18693.04
631.687	18707.05
632.041	18684.45
632.396	18617.79
632.75	18526.94
633.104	18614.62
633.459	18521.29
633.813	18541.41
634.167	18525.59
634.521	18559.71
634.875	18445.36
635.229	18484.23
635.583	18388.41
635.937	18417.34
636.291	18390.45
636.645	18397.45
636.999	18302.54
637.352	18385.48
637.706	18324.01
638.06	18300.06
638.413	18288.76
638.767	18232.94
639.121	18283.78
639.474	18197.69
639.828	18160.17
640.181	18176.89
640.534	18268.19
640.888	18221.64
641.241	18034.53
641.594	18150.91
641.947	18212.37
642.301	18121.08
642.654	18044.92
643.007	18062.55
643.36	18164.01
643.713	18133.28
644.066	18098.7
644.419	18024.36
644.771	17967.41
645.124	17769.9
645.477	17678.83
645.83	17647.64
646.182	17593.18
646.535	17427.54
646.888	17500.08
647.24	17460.98
647.593	17508.66
647.945	17490.81
648.298	17440.87
648.65	17547.08
649.002	17359.97
649.355	17492.17
649.707	17469.12
650.059	17529.23
650.411	17730.8
650.763	17757.02
651.115	17861.2
651.467	17865.94
651.819	17926.73
652.171	17791.14
652.523	17847.64
652.875	17770.58
653.227	17772.84
653.578	17906.17
653.93	17794.31
654.282	17742.78
654.633	17758.37
654.985	17779.62
655.337	17765.61
655.688	17821.65
656.039	17875.43
656.391	17679.96
656.742	17700.07
657.094	17743.91
657.445	17841.54
657.796	17809.45
658.147	17735.1
658.498	17811.03
658.849	17860.07
659.2	17883.8
659.551	17810.35
659.902	17822.33
660.253	17829.79
660.604	17946.39
660.955	17665.27
661.306	17834.31
661.656	17729
662.007	17800.41
662.358	17749.11
662.708	17719.51
663.059	17855.1
663.409	17723.8
663.76	17855.77
664.11	17845.15
664.461	17915.43
664.811	17829.11
665.161	17825.72
665.511	17696.68
665.862	17813.06
666.212	17842.89
666.562	17875.66
666.912	17764.48
667.262	17823.01
667.612	17821.65
667.962	17828.88
668.312	17858.03
668.662	17885.83
669.011	17834.98
669.361	17830.01
669.711	17843.12
670.06	17781.88
670.41	17718.83
670.76	17788.43
671.109	17750.92
671.459	17861.87
671.808	17788.43
672.157	17864.36
672.507	17673.18
672.856	17717.92
673.205	17755.89
673.554	17810.8
673.904	17708.88
674.253	17750.47
674.602	17721.31
674.951	17415.11
675.3	17413.53
675.649	17676.57
675.998	17678.83
676.346	17660.07
676.695	17727.19
677.044	17564.26
677.393	17620.53
677.741	17541.88
678.09	17581.88
678.438	17465.73
678.787	17486.29
679.135	17583.46
679.484	17383.92
679.832	17436.8
680.181	17345.73
680.529	17396.58
680.877	17436.35
681.225	17208.78
681.573	17383.47
681.922	17224.83
682.27	17204.94
682.618	17178.28
682.966	17098.05
683.314	17216.69
683.661	17205.62
684.009	17015.34
684.357	17053.53
684.705	16957.04
685.053	17030.71
685.4	17031.39
685.748	16933.76
686.095	16927.21
686.443	16793.2
686.79	16769.93
687.138	16775.12
687.485	16847.66
687.832	16785.07
688.18	16701
688.527	16627.33
688.874	16593.43
689.221	16567.22
689.568	16525.19
689.915	16475.7
690.262	16514.34
690.609	16363.16
690.956	16321.8
691.303	16281.8
691.65	16309.15
691.997	16230.96
692.344	16043.39
692.69	16033.45
693.037	16090.4
693.383	15911.64
693.73	15978.31
694.077	15966.56
694.423	15796.84
694.769	15729.5
695.116	15800.91
695.462	15688.37
695.808	15636.62
696.155	15680.69
696.501	15556.17
696.847	15561.14
697.193	15416.06
697.539	15525.21
697.885	15331.55
698.231	15257.2
698.577	15244.09
698.923	15188.5
699.269	15119.35
699.614	15097.88
699.96	15043.42
700.306	15087.48
700.651	14943.31
700.997	14872.58
701.342	14820.82
701.688	14798.68
702.033	14735.86
702.379	14757.78
702.724	14713.94
703.069	14661.28
703.415	14521.85
703.76	14466.94
704.105	14450.44
704.45	14449.31
704.795	14425.58
705.14	14272.82
705.485	14272.14
705.83	14233.5
706.175	14210.22
706.52	14100.62
706.865	14160.05
707.209	14092.48
707.554	14025.37
707.899	13978.59
708.243	14133.84
708.588	14015.42
708.932	13759.61
709.277	13775.88
709.621	13765.71
709.966	13828.08
710.31	13781.98
710.654	13634.42
710.998	13584.7
711.342	13682.1
711.687	13595.77
712.031	13556.45
712.375	13473.74
712.719	13489.33
713.063	13415.21
713.407	13504.7
713.75	13461.99
714.094	13385.61
714.438	13401.88
714.782	13353.52
715.125	13303.35
715.469	13243.69
715.812	13212.05
716.156	13141.77
716.499	13115.33
716.843	13209.12
717.186	13046.18
717.53	13166.41
717.873	13114.88
718.216	13095.9
718.559	13045.28
718.902	12952.4
719.246	13015.9
719.589	13005.51
719.932	12980.87
720.275	12958.05
720.617	12931.84
720.96	12902.46
721.303	12914.66
721.646	12967.99
721.989	12800.77
722.331	12851.16
722.674	12895
723.016	12796.92
723.359	12811.84
723.701	12801.67
724.044	12668.11
724.386	12574.78
724.729	12720.77
725.071	12702.01
725.413	12676.02
725.755	12632.86
726.097	12670.37
726.439	12572.97
726.782	12607.55
727.124	12647.32
727.465	12580.43
727.807	12592.63
728.149	12575.01
728.491	12514.22
728.833	12577.72
729.175	12546.08
729.516	12562.35
729.858	12618.17
730.199	12575.69
730.541	12517.38
730.882	12499.98
731.224	12551.28
731.565	12434.45
731.906	12541.34
732.248	12491.39
732.589	12466.54
732.93	12454.79
733.271	12463.6
733.612	12401.91
733.953	12530.72
734.294	12471.96
734.635	12468.34
734.976	12515.12
735.317	12393.77
735.658	12487.78
735.999	12430.15
736.339	12461.11
736.68	12469.7
737.021	12465.41
737.361	12433.77
737.702	12529.13
738.042	12484.39
738.383	12495.69
738.723	12544.73
739.063	12558.51
739.404	12533.2
739.744	12483.94
740.084	12497.27
740.424	12561.22
740.764	12500.66
741.104	12565.52
741.444	12509.93
741.784	12522.35
742.124	12529.81
742.464	12547.66
742.804	12465.63
743.143	12555.57
743.483	12630.6
743.823	12544.27
744.162	12582.69
744.502	12665.4
744.841	12586.53
745.181	12697.72
745.52	12713.31
745.86	12751.27
746.199	12722.12
746.538	12808.22
746.877	12878.28
747.216	12912.4
747.556	12946.3
747.895	12940.2
748.234	13002.12
748.573	13068.55
748.911	13127.99
749.25	13125.5
749.589	13072.62
749.928	13303.8
750.267	13351.71
750.605	13420.18
750.944	13454.31
751.283	13479.84
751.621	13562.1
751.96	13665.6
752.298	13684.36
752.636	13839.38
752.975	13877.57
753.313	14014.74
753.651	14104.91
753.989	14126.15
754.327	14231.01
754.666	14227.85
755.004	14419.25
755.342	14522.98
755.679	14701.28
756.017	14650.66
756.355	14854.95
756.693	14943.76
757.031	14999.8
