Data from hue_20_FLMS001491_59.txt Node
Date: Mon Feb 06 15:34:20 GMT 2017
User: dcchb
Spectrometer: FLMS00149
Trigger mode: 0
Integration Time (sec): 2.000000E-2
Scans to average: 10
Electric dark correction enabled: true
Nonlinearity correction enabled: false
Boxcar width: 0
XAxis mode: Wavelengths
Number of Pixels in Spectrum: 2048
>>>>>Begin Spectral Data<<<<<
341.393	-15.49
341.776	-15.49
342.16	-15.49
342.543	-74.7
342.927	-63.4
343.31	-70.41
343.693	-60.46
344.077	-68.37
344.46	-57.98
344.843	-66.34
345.226	-52.1
345.61	-22.73
345.993	-14.82
346.376	-3.97
346.759	10.49
347.142	31.96
347.525	26.76
347.908	68.35
348.291	73.54
348.674	102.92
349.057	103.15
349.44	125.07
349.823	161.68
350.206	161.45
350.588	191.96
350.971	201.9
351.354	222.69
351.737	243.93
352.119	250.04
352.502	252.97
352.884	277.61
353.267	276.02
353.65	299.07
354.032	304.05
354.414	305.85
354.797	314.67
355.179	325.51
355.562	314.67
355.944	332.97
356.326	314.89
356.709	335.68
357.091	340.43
357.473	378.62
357.855	330.26
358.238	354.67
358.62	339.3
359.002	339.75
359.384	344.72
359.766	345.85
360.148	348.34
360.53	347.21
360.912	346.53
361.294	358.06
361.676	319.19
362.057	337.04
362.439	339.07
362.821	329.36
363.203	329.58
363.584	333.65
363.966	337.72
364.348	319.19
364.729	330.03
365.111	326.42
365.493	339.07
365.874	318.06
366.256	306.31
366.637	326.87
367.019	313.08
367.4	317.6
367.781	305.85
368.163	302.01
368.544	314.89
368.925	318.73
369.306	315.12
369.688	324.61
370.069	308.57
370.45	333.88
370.831	324.38
371.212	319.64
371.593	320.54
371.974	329.36
372.355	325.51
372.736	309.47
373.117	332.97
373.498	331.16
373.879	309.47
374.26	325.06
374.641	326.42
375.021	332.52
375.402	337.94
375.783	333.42
376.163	331.84
376.544	317.38
376.925	324.84
377.305	330.49
377.686	328
378.066	324.61
378.447	348.11
378.827	343.14
379.208	331.84
379.588	352.18
379.968	355.34
380.349	334.78
380.729	329.36
381.109	335.46
381.489	332.97
381.87	335.46
382.25	356.02
382.63	346.3
383.01	346.76
383.39	351.05
383.77	347.66
384.15	371.16
384.53	373.87
384.91	358.51
385.29	355.57
385.67	355.12
386.049	335.91
386.429	349.92
386.809	364.16
387.189	346.76
387.568	368.68
387.948	362.35
388.328	365.06
388.707	377.49
389.087	365.74
389.466	356.93
389.846	369.13
390.225	386.98
390.605	358.51
390.984	359.86
391.363	365.06
391.743	375.46
392.122	386.76
392.501	397.6
392.881	379.3
393.26	395.34
393.639	390.15
394.018	371.16
394.397	373.2
394.776	394.21
395.155	391.28
395.534	387.21
395.913	404.16
396.292	404.38
396.671	379.75
397.05	383.37
397.429	409.13
397.808	394.89
398.186	400.09
398.565	411.61
398.944	425.85
399.323	399.18
399.701	429.92
400.08	420.88
400.458	405.06
400.837	394.44
401.215	421.78
401.594	399.41
401.972	413.65
402.351	408.45
402.729	431.05
403.107	436.92
403.486	429.92
403.864	450.03
404.242	410.71
404.62	418.84
404.999	452.06
405.377	452.29
405.755	466.98
406.133	436.7
406.511	427.43
406.889	457.94
407.267	445.28
407.645	460.43
408.023	474.21
408.401	474.89
408.779	472.63
409.156	462.46
409.534	480.76
409.912	441.67
410.29	469.24
410.667	477.37
411.045	470.37
411.422	468.34
411.8	480.99
412.178	481.22
412.555	480.76
412.933	482.8
413.31	512.18
413.687	491.16
414.065	501.78
414.442	502.46
414.819	517.83
415.197	504.72
415.574	505.17
415.951	516.47
416.328	543.14
416.705	515.79
417.082	512.4
417.46	520.54
417.837	547.2
418.214	525.73
418.591	517.83
418.967	546.53
419.344	565.51
419.721	546.3
420.098	557.6
420.475	548.56
420.852	542.46
421.228	576.58
421.605	552.85
421.982	553.53
422.358	577.03
422.735	549.69
423.111	563.02
423.488	600.76
423.864	577.94
424.241	589.69
424.617	591.5
424.994	604.38
425.37	589.24
425.746	594.66
426.123	593.08
426.499	633.75
426.875	615
427.251	640.08
427.627	619.97
428.003	631.72
428.379	631.04
428.756	664.04
429.132	618.39
429.507	650.25
429.883	632.85
430.259	655.9
430.635	669.69
431.011	664.71
431.387	673.3
431.763	702
432.138	694.32
432.514	674.66
432.89	663.58
433.265	692.06
433.641	696.8
434.016	710.36
434.392	725.73
434.767	748.55
435.143	713.98
435.518	701.32
435.894	723.24
436.269	745.62
436.644	779.97
437.02	773.41
437.395	777.93
437.77	771.6
438.145	797.14
438.52	788.1
438.895	782.68
439.271	812.28
439.646	810.93
440.021	819.06
440.395	812.73
440.77	821.55
441.145	804.37
441.52	851.83
441.895	852.28
442.27	829
442.645	831.26
443.019	840.75
443.394	850.02
443.769	856.8
444.143	850.02
444.518	868.1
444.892	873.52
445.267	887.08
445.641	882.79
446.016	909.91
446.39	902.67
446.764	918.94
447.139	864.26
447.513	890.02
447.887	902.22
448.262	895.44
448.636	914.65
449.01	925.27
449.384	907.19
449.758	899.51
450.132	921.88
450.506	932.5
450.88	941.54
451.254	949.23
451.628	966.4
452.002	980.41
452.376	948.32
452.75	993.75
453.123	992.39
453.497	1012.28
453.871	1024.25
454.244	1013.86
454.618	1028.77
454.992	1024.48
455.365	1048.43
455.739	1055.66
456.112	1090.01
456.486	1079.62
456.859	1070.35
457.232	1109
457.606	1082.33
457.979	1098.38
458.352	1140.41
458.725	1133.4
459.099	1162.33
459.472	1175.66
459.845	1184.02
460.218	1184.02
460.591	1202.55
460.964	1207.3
461.337	1212.27
461.71	1233.06
462.083	1258.37
462.456	1273.74
462.829	1268.77
463.201	1291.36
463.574	1282.33
463.947	1317.58
464.32	1312.83
464.692	1347.18
465.065	1351.48
465.438	1360.29
465.81	1370.68
466.183	1410.46
466.555	1435.09
466.928	1461.98
467.3	1435.99
467.672	1456.11
468.045	1498.59
468.417	1491.36
468.789	1512.38
469.161	1530.91
469.534	1581.53
469.906	1583.33
470.278	1589.44
470.65	1594.86
471.022	1647.74
471.394	1664.01
471.766	1696.55
472.138	1705.59
472.51	1737.45
472.882	1753.73
473.253	1795.53
473.625	1811.8
473.997	1844.8
474.369	1854.06
474.74	1892.48
475.112	1927.05
475.484	1977.9
475.855	1988.75
476.227	2020.61
476.598	2076.88
476.97	2066.94
477.341	2099.93
477.713	2151.45
478.084	2143.55
478.455	2223.32
478.827	2257.21
479.198	2309.64
479.569	2328.85
479.94	2406.14
480.311	2441.84
480.682	2438.9
481.053	2511.67
481.424	2562.07
481.795	2574.95
482.166	2635.96
482.537	2679.35
482.908	2745.79
483.279	2800.25
483.65	2797.09
484.021	2902.4
484.391	2921.83
484.762	2940.81
485.133	2951.66
485.503	3013.8
485.874	3074.14
486.244	3163.41
486.615	3182.61
486.985	3207.92
487.356	3301.71
487.726	3329.28
488.097	3393.91
488.467	3443.17
488.837	3494.7
489.207	3548.48
489.578	3560.91
489.948	3648.59
490.318	3668.93
490.688	3676.84
491.058	3788.25
491.428	3806.1
491.798	3868.47
492.168	3935.81
492.538	3992.99
492.908	3987.11
493.278	4072.99
493.648	4054.68
494.017	4126.77
494.387	4179.88
494.757	4191.18
495.126	4243.83
495.496	4300.32
495.866	4290.16
496.235	4374.22
496.605	4458.96
496.974	4428.23
497.344	4494.22
497.713	4512.52
498.082	4568.11
498.452	4611.96
498.821	4630.03
499.19	4596.81
499.559	4690.6
499.928	4719.75
500.298	4748
500.667	4802.68
501.036	4771.05
501.405	4830.71
501.774	4866.86
502.143	4892.85
502.512	4897.15
502.88	4915
503.249	4981.89
503.618	5033.19
503.987	5045.62
504.356	5058.95
504.724	5075.9
505.093	5111.38
505.462	5149.34
505.83	5210.81
506.199	5216.23
506.567	5287.64
506.936	5264.37
507.304	5344.59
507.672	5344.37
508.041	5374.87
508.409	5380.75
508.777	5446.96
509.145	5446.28
509.514	5457.81
509.882	5497.58
510.25	5551.14
510.618	5517.02
510.986	5586.84
511.354	5585.26
511.722	5650.35
512.09	5719.95
512.458	5707.97
512.826	5730.57
513.193	5759.95
513.561	5755.65
513.929	5796.1
514.297	5893.5
514.664	5853.28
515.032	5924.91
515.4	5959.94
515.767	5954.29
516.135	5953.39
516.502	5928.3
516.869	6072.48
517.237	6146.15
517.604	6079.49
517.972	6145.7
518.339	6151.12
518.706	6164.23
519.073	6191.57
519.44	6229.09
519.808	6297.11
520.175	6290.1
520.542	6321.29
520.909	6355.64
521.276	6447.39
521.643	6380.5
522.009	6458.91
522.376	6480.83
522.743	6529.87
523.11	6544.79
523.477	6575.07
523.843	6632.69
524.21	6683.99
524.577	6712.46
524.943	6780.49
525.31	6823.42
525.676	6809.86
526.043	6872.91
526.409	6950.2
526.776	7020.48
527.142	6997.43
527.508	7027.26
527.874	7121.95
528.241	7121.49
528.607	7128.72
528.973	7186.35
529.339	7163.98
529.705	7300.92
530.071	7341.83
530.437	7293.69
530.803	7382.96
531.169	7463.18
531.535	7420.02
531.901	7472.44
532.267	7481.26
532.632	7595.15
532.998	7617.75
533.364	7604.87
533.73	7711.08
534.095	7768.48
534.461	7735.94
534.826	7762.83
535.192	7788.37
535.557	7863.85
535.923	7830.85
536.288	7916.27
536.653	7978.65
537.019	7997.18
537.384	7976.16
537.749	8010.96
538.114	8054.35
538.479	8122.6
538.845	8095.25
539.21	8122.37
539.575	8173.9
539.94	8180.45
540.305	8220.67
540.67	8212.76
541.034	8270.16
541.399	8339.31
541.764	8341.57
542.129	8343.83
542.494	8387
542.858	8399.88
543.223	8466.09
543.587	8503.15
543.952	8563.94
544.316	8542.47
544.681	8594.45
545.045	8603.94
545.41	8673.32
545.774	8709.02
546.138	8679.64
546.503	8743.15
546.867	8756.93
547.231	8758.74
547.595	8842.8
547.959	8912.86
548.324	8895.23
548.688	8943.82
549.052	8935.01
549.416	8960.77
549.779	8985.4
550.143	9033.31
550.507	9058.39
550.871	9133.19
551.235	9101.33
551.599	9223.59
551.962	9270.59
552.326	9262.91
552.689	9303.58
553.053	9314.2
553.417	9284.83
553.78	9408.67
554.143	9372.06
554.507	9415.44
554.87	9456.35
555.234	9560.3
555.597	9482.34
555.96	9623.57
556.323	9576.12
556.686	9600.75
557.05	9654.31
557.413	9640.75
557.776	9727.98
558.139	9793.29
558.502	9809.33
558.865	9829.22
559.228	9939.27
559.59	9933.4
559.953	9898.82
560.316	10062.66
560.679	10005.03
561.041	10075.31
561.404	10142.66
561.767	10092.94
562.129	10151.47
562.492	10262.2
562.854	10271.47
563.217	10228.53
563.579	10328.19
563.941	10305.59
564.304	10425.81
564.666	10401.86
565.028	10482.76
565.39	10512.59
565.753	10527.73
566.115	10487.96
566.477	10658.12
566.839	10664
567.201	10706.48
567.563	10770.89
567.925	10777.89
568.287	10773.83
568.648	10906.48
569.01	10939.02
569.372	10979.92
569.734	10956.65
570.095	10987.38
570.457	11063.76
570.819	11071.67
571.18	11159.13
571.542	11299.91
571.903	11267.15
572.265	11269.41
572.626	11352.34
572.987	11510.08
573.349	11440.48
573.71	11506.69
574.071	11456.97
574.432	11607.25
574.794	11730.86
575.155	11721.82
575.516	11717.76
575.877	11823.29
576.238	11835.49
576.599	12004.53
576.96	11952.78
577.32	12059.22
577.681	12161.36
578.042	12295.59
578.403	12199.55
578.763	12430.96
579.124	12517.51
579.485	12512.31
579.845	12702.59
580.206	12735.81
580.566	12832.98
580.927	12966.99
581.287	13130.6
581.648	13125.18
582.008	13356.13
582.368	13477.48
582.728	13642.45
583.089	13746.4
583.449	13819.4
583.809	14001.54
584.169	14151.59
584.529	14241.53
584.889	14599.49
585.249	14579.83
585.609	14683.33
585.969	15065.92
586.329	15159.02
586.688	15375.06
587.048	15542.06
587.408	15654.6
587.768	15947.93
588.127	16074.93
588.487	16380.69
588.846	16722.15
589.206	16743.16
589.565	17003.49
589.925	17308.34
590.284	17499.3
590.643	17765.51
591.003	18194.87
591.362	18353.97
591.721	18551.48
592.08	18847.51
592.44	19138.35
592.799	19389.19
593.158	19563.88
593.517	19813.82
593.876	20247.48
594.235	20425.32
594.593	20622.83
594.952	21130.39
595.311	21204.51
595.67	21599.53
596.029	21879.52
596.387	22318.61
596.746	22525.83
597.104	22736.22
597.463	23023.45
597.822	23457.79
598.18	23662.08
598.538	23885.35
598.897	24299.12
599.255	24437.2
599.613	25100.68
599.972	25252.09
600.33	25640.55
600.688	25805.52
601.046	26154.21
601.404	26565.28
601.762	26689.34
602.12	27020.63
602.478	27214.52
602.836	27617
603.194	27640.73
603.552	28138.79
603.91	28142.64
604.268	28640.48
604.625	28793.47
604.983	29257.63
605.341	29299.22
605.698	29619.89
606.056	29964.51
606.413	30269.81
606.771	30485.17
607.128	30743.92
607.485	30946.4
607.843	31098.04
608.2	31508.87
608.557	31860.5
608.914	31973.72
609.272	32311.79
609.629	32558.34
609.986	32862.29
610.343	32913.58
610.7	33369.16
611.057	33370.29
611.414	33683.51
611.771	33904.07
612.127	34120.11
612.484	34292.08
612.841	34565.74
613.198	34609.36
613.554	34915.79
613.911	35175.45
614.267	35322.11
614.624	35482.1
614.98	35750.57
615.337	36027.4
615.693	36055.42
616.05	36183.1
616.406	36626.03
616.762	36470.1
617.118	36713.26
617.475	36874.38
617.831	37117.99
618.187	37266.46
618.543	37259.91
618.899	37754.36
619.255	37736.96
619.611	37790.74
619.967	38097.4
620.323	38235.93
620.678	38280.9
621.034	38254.01
621.39	38377.62
621.746	38522.7
622.101	39070.03
622.457	38702.58
622.812	38928.34
623.168	39128.11
623.523	39322
623.879	39460.08
624.234	39115
624.589	39447.65
624.945	39484.94
625.3	39665.04
625.655	39713.86
626.01	39845.15
626.365	39889.9
626.72	39874.98
627.075	40086.95
627.43	39878.37
627.785	40114.52
628.14	40139.38
628.495	40230
628.85	40310.9
629.205	40251.7
629.559	40514.97
629.914	40387.74
630.269	40488.3
630.623	40440.62
630.978	40446.04
631.332	40673.38
631.687	40689.2
632.041	40693.49
632.396	40724.23
632.75	40668.63
633.104	40768.52
633.459	40545.7
633.813	40665.02
634.167	40696.43
634.521	40723.55
634.875	40712.02
635.229	40741.17
635.583	40721.97
635.937	40733.27
636.291	40661.85
636.645	40748.41
636.999	40695.07
637.352	40720.84
637.706	40671.35
638.06	40871.34
638.413	40632.7
638.767	40571.46
639.121	40715.41
639.474	40452.14
639.828	40355.2
640.181	40695.07
640.534	40589.77
640.888	40654.17
641.241	40472.48
641.594	40407.4
641.947	40733.94
642.301	40596.55
642.654	40538.47
643.007	40603.55
643.36	40526.94
643.713	40477
644.066	40593.38
644.419	40329.43
644.771	40126.95
645.124	39833.18
645.477	39784.36
645.83	39562.67
646.182	39571.71
646.535	39417.14
646.888	39481.77
647.24	39078.39
647.593	39482.45
647.945	39393.19
648.298	39273.19
648.65	39156.13
649.002	39003.37
649.355	39273.19
649.707	39164.72
650.059	39403.36
650.411	39733.07
650.763	39794.76
651.115	40166.5
651.467	40062.1
651.819	40151.36
652.171	40048.54
652.523	39980.97
652.875	40055.32
653.227	39894.42
653.578	40155.43
653.93	39960.18
654.282	39984.58
654.633	39807.19
654.985	39868.43
655.337	39998.14
655.688	39839.73
656.039	40016
656.391	39644.48
656.742	39817.36
657.094	39664.82
657.445	39781.88
657.796	39742.1
658.147	39751.82
658.498	39682.9
658.849	39873.4
659.2	39771.48
659.551	39592.96
659.902	39715.44
660.253	39626.63
660.604	39774.42
660.955	39522.9
661.306	39733.07
661.656	39560.19
662.007	39681.32
662.358	39649.23
662.708	39737.59
663.059	39629.11
663.409	39350.25
663.76	39681.32
664.11	39537.59
664.461	39687.19
664.811	39690.58
665.161	39657.14
665.511	39537.59
665.862	39522.68
666.212	39761.09
666.562	39621.66
666.912	39575.1
667.262	39492.17
667.612	39431.38
667.962	39494.2
668.312	39534.88
668.662	39702.33
669.011	39375.33
669.361	39305.05
669.711	39394.77
670.06	39410.14
670.41	39416.92
670.76	39437.25
671.109	39386.63
671.459	39408.33
671.808	39416.92
672.157	39531.26
672.507	39222.12
672.856	39063.48
673.205	39199.29
673.554	39386.63
673.904	39192.06
674.253	39418.05
674.602	39263.02
674.951	38762.24
675.3	38698.52
675.649	39190.25
675.998	39131.27
676.346	39076.59
676.695	39182.57
677.044	38864.61
677.393	39036.81
677.741	39230.93
678.09	38953.65
678.438	38892.41
678.787	38965.63
679.135	38963.37
679.484	38751.85
679.832	38872.52
680.181	38614.9
680.529	38824.16
680.877	38659.87
681.225	38568.8
681.573	38748.01
681.922	38411.97
682.27	38479.99
682.618	38601.34
682.966	38376.26
683.314	38340.56
683.661	38298.75
684.009	38099.89
684.357	38087.91
684.705	38063.5
685.053	38160.23
685.4	37964.52
685.748	37855.6
686.095	37813.79
686.443	37760.69
686.79	37708.49
687.138	37651.76
687.485	37635.04
687.832	37558.66
688.18	37549.62
688.527	37377.2
688.874	37446.57
689.221	37348.27
689.568	37377.65
689.915	37132.68
690.262	37022.85
690.609	37052.46
690.956	36896.76
691.303	36962.74
691.65	36724.56
691.997	36840.94
692.344	36436.65
692.69	36402.76
693.037	36428.29
693.383	36094.74
693.73	36408.18
694.077	36161.63
694.423	36069.66
694.769	36128.41
695.116	35888.19
695.462	35797.58
695.808	35714.64
696.155	35733.85
696.501	35559.16
696.847	35626.73
697.193	35276.69
697.539	35475.78
697.885	35081.89
698.231	35042.79
698.577	35048.44
698.923	34957.15
699.269	34887.77
699.614	34693.42
699.96	34624.05
700.306	34681.45
700.651	34553.99
700.997	34340.44
701.342	34322.59
701.688	34205.53
702.033	34238.75
702.379	34144.51
702.724	34061.8
703.069	34102.03
703.415	33699.55
703.76	33751.08
704.105	33727.12
704.45	33710.4
704.795	33532.32
705.14	33445.1
705.485	33364.65
705.83	33317.64
706.175	33325.78
706.52	33219.79
706.865	33100.02
707.209	32969.63
707.554	32928.72
707.899	32989.06
708.243	32915.84
708.588	32713.81
708.932	32483.09
709.277	32500.26
709.621	32547.27
709.966	32389.53
710.31	32468.62
710.654	32185.47
710.998	32204
711.342	32066.15
711.687	32020.95
712.031	31961.52
712.375	31926.72
712.719	31902.31
713.063	31722.43
713.407	31816.89
713.75	31636.1
714.094	31625.48
714.438	31544.58
714.782	31634.3
715.125	31434.98
715.469	31415.32
715.812	31318.82
716.156	31173.97
716.499	31234.98
716.843	31151.82
717.186	30998.15
717.53	31190.92
717.873	31125.83
718.216	31060.53
718.559	30857.14
718.902	30783.47
719.246	30773.3
719.589	30715.68
719.932	30596.36
720.275	30652.4
720.617	30618.28
720.96	30492.18
721.303	30414.44
721.646	30492.86
721.989	30280.88
722.331	30297.83
722.674	30203.6
723.016	30272.98
723.359	30229.13
723.701	30220.77
724.044	29988.69
724.386	29842.93
724.729	30117.05
725.071	29915.24
725.413	29893.55
725.755	29828.24
726.097	29817.17
726.439	29612.43
726.782	29431.64
727.124	29689.04
727.465	29581.02
727.807	29451.98
728.149	29558.64
728.491	29455.14
728.833	29510.74
729.175	29316.84
729.516	29173.57
729.858	29222.16
730.199	29219.9
730.541	29260.35
730.882	29287.69
731.224	29230.29
731.565	29004.76
731.906	29059.22
732.248	29089.5
732.589	28946.68
732.93	28868.27
733.271	28943.29
733.612	28813.58
733.953	28772.45
734.294	28719.8
734.635	28622.17
734.976	28602.74
735.317	28553.7
735.658	28457.2
735.999	28488.39
736.339	28415.4
736.68	28603.87
737.021	28455.62
737.361	28268.73
737.702	28351.44
738.042	28313.7
738.383	28239.13
738.723	28273.48
739.063	28059.47
739.404	28300.82
739.744	28203.65
740.084	28019.7
740.424	28054.5
740.764	27978.57
741.104	28075.74
741.444	27785.81
741.784	27944.67
742.124	27991.23
742.464	27990.78
742.804	27758.01
743.143	27726.15
743.483	27816.54
743.823	27577.45
744.162	27659.48
744.502	27730.9
744.841	27432.6
745.181	27571.8
745.52	27490.68
745.86	27464.69
746.199	27488.19
746.538	27425.37
746.877	27442.09
747.216	27355.76
747.556	27207.29
747.895	27299.49
748.234	27212.72
748.573	27186.05
748.911	27104.02
749.25	27053.62
749.589	26875.1
749.928	26874.42
750.267	27070.8
750.605	26914.19
750.944	26980.63
751.283	26746.97
751.621	26905.61
751.96	26719.85
752.298	26617.25
752.636	26679.4
752.975	26551.27
753.313	26517.59
753.651	26616.57
753.989	26459.52
754.327	26509.01
754.666	26246.41
755.004	26323.93
755.342	26357.37
755.679	26281.44
756.017	26068.79
756.355	26195.12
756.693	26066.08
757.031	26142.91
757.368	25893.43
757.706	25921
758.044	25807.33
758.381	25897.5
758.719	25771.62
759.056	25761.91
759.394	25696.37
759.731	25530.95
760.068	25514.91
