Data from hue_290_FLMS001491_00063.txt Node
Date: Tue Feb 07 15:53:04 GMT 2017
User: dcchb
Spectrometer: FLMS00149
Trigger mode: 0
Integration Time (sec): 2.000000E-2
Scans to average: 10
Electric dark correction enabled: true
Nonlinearity correction enabled: false
Boxcar width: 0
XAxis mode: Wavelengths
Number of Pixels in Spectrum: 2048
>>>>>Begin Spectral Data<<<<<
341.393	0.45
341.776	0.45
342.16	0.45
342.543	-54.91
342.927	-63.5
343.31	-73.9
343.693	-77.51
344.077	-74.8
344.46	-72.99
344.843	-59.89
345.226	-40.45
345.61	-16.95
345.993	-15.59
346.376	-14.91
346.759	17.63
347.142	41.58
347.525	64.18
347.908	57.17
348.291	78.19
348.674	76.38
349.057	111.86
349.44	115.25
349.823	148.92
350.206	158.64
350.588	188.47
350.971	202.48
351.354	195.25
351.737	246.32
352.119	249.26
352.502	257.39
352.884	271.41
353.267	270.05
353.65	298.52
354.032	309.37
354.414	302.14
354.797	299.65
355.179	326.32
355.562	316.83
355.944	304.4
356.326	334
356.709	342.82
357.091	345.98
357.473	328.35
357.855	349.6
358.238	329.03
358.62	356.6
359.002	334.68
359.384	323.16
359.766	337.39
360.148	324.74
360.53	340.33
360.912	325.42
361.294	339.88
361.676	333.78
362.057	331.06
362.439	331.52
362.821	314.34
363.203	327.22
363.584	328.58
363.966	317.28
364.348	315.02
364.729	320.22
365.111	326.32
365.493	324.29
365.874	325.87
366.256	290.84
366.637	336.71
367.019	319.54
367.4	308.47
367.781	316.15
368.163	320.44
368.544	306.66
368.925	317.96
369.306	312.31
369.688	324.51
370.069	319.99
370.45	299.2
370.831	287.9
371.212	310.73
371.593	326.77
371.974	310.5
372.355	331.74
372.736	315.7
373.117	287
373.498	317.96
373.879	326.32
374.26	309.6
374.641	309.14
375.021	308.24
375.402	322.93
375.783	330.61
376.163	319.99
376.544	317.96
376.925	330.16
377.305	336.49
377.686	310.73
378.066	328.58
378.447	352.53
378.827	347.34
379.208	359.09
379.588	343.95
379.968	322.93
380.349	358.63
380.729	349.37
381.109	341.23
381.489	343.72
381.87	350.73
382.25	347.56
382.63	366.32
383.01	330.84
383.39	372.19
383.77	345.3
384.15	351.63
384.53	354.57
384.91	375.81
385.29	371.29
385.67	350.27
386.049	375.36
386.429	398.63
386.809	372.87
387.189	372.65
387.568	369.26
387.948	358.18
388.328	369.48
388.707	363.15
389.087	377.62
389.466	376.49
389.846	378.97
390.225	386.2
390.605	376.71
390.984	372.19
391.363	395.7
391.743	388.69
392.122	374.68
392.501	373.1
392.881	401.57
393.26	395.92
393.639	385.98
394.018	394.11
394.397	395.7
394.776	409.03
395.155	412.87
395.534	429.59
395.913	388.01
396.292	425.75
396.671	413.32
397.05	422.14
397.429	435.47
397.808	418.07
398.186	407.45
398.565	429.14
398.944	421.68
399.323	415.58
399.701	421.91
400.08	437.5
400.458	430.72
400.837	440.89
401.215	453.32
401.594	442.25
401.972	462.81
402.351	431.18
402.729	469.59
403.107	457.16
403.486	462.81
403.864	463.04
404.242	461.91
404.62	471.85
404.999	457.16
405.377	456.94
405.755	477.28
406.133	469.59
406.511	487.67
406.889	486.09
407.267	512.3
407.645	505.98
408.023	499.65
408.401	529.03
408.779	545.52
409.156	531.29
409.534	545.3
409.912	526.99
410.29	563.6
410.667	558.4
411.045	561.34
411.422	566.31
411.8	569.7
412.178	583.94
412.555	607.89
412.933	604.5
413.31	603.15
413.687	612.19
414.065	651.51
414.442	654.9
414.819	648.34
415.197	659.87
415.574	659.42
415.951	679.76
416.328	687.21
416.705	678.17
417.082	704.61
417.46	695.35
417.837	702.13
418.214	700.77
418.591	732.64
418.967	729.7
419.344	747.78
419.721	752.3
420.098	767.66
420.475	774.89
420.852	768.57
421.228	802.01
421.605	802.69
421.982	795.46
422.358	804.72
422.735	849.7
423.111	833.2
423.488	843.37
423.864	830.03
424.241	865.97
424.617	891.28
424.994	884.95
425.37	898.73
425.746	913.65
426.123	905.51
426.499	945.51
426.875	947.77
427.251	959.75
427.627	954.78
428.003	986.64
428.379	981.9
428.756	980.54
429.132	994.55
429.507	1001.33
429.883	1022.35
430.259	1042.23
430.635	1061.89
431.011	1052.85
431.387	1100.99
431.763	1091.04
432.138	1106.86
432.514	1135.79
432.89	1154.09
433.265	1154.77
433.641	1184.6
434.016	1200.87
434.392	1196.35
434.767	1205.84
435.143	1211.72
435.518	1238.16
435.894	1246.52
436.269	1273.86
436.644	1257.14
437.02	1301.89
437.395	1283.13
437.77	1328.1
438.145	1334.65
438.52	1349.12
438.895	1361.09
439.271	1382.11
439.646	1400.87
440.021	1435.44
440.395	1426.86
440.77	1419.85
441.145	1432.73
441.52	1467.76
441.895	1459.62
442.27	1471.6
442.645	1483.58
443.019	1482.22
443.394	1489.9
443.769	1510.92
444.143	1488.1
444.518	1545.27
444.892	1503.92
445.267	1524.48
445.641	1534.42
446.016	1563.12
446.39	1547.98
446.764	1563.12
447.139	1556.8
447.513	1549.11
447.887	1593.18
448.262	1590.01
448.636	1607.87
449.01	1589.79
449.384	1600.18
449.758	1644.25
450.132	1628.66
450.506	1655.32
450.88	1663.01
451.254	1655.78
451.628	1676.34
452.002	1673.63
452.376	1701.42
452.75	1703.91
453.123	1712.5
453.497	1726.51
453.871	1751.14
454.244	1799.95
454.618	1799.95
454.992	1779.84
455.365	1784.13
455.739	1835.43
456.112	1859.84
456.486	1850.35
456.859	1858.26
457.232	1892.38
457.606	1924.02
457.979	1930.34
458.352	1950.91
458.725	1941.87
459.099	1968.76
459.472	1974.86
459.845	1986.84
460.218	2043.79
460.591	2064.35
460.964	2011.02
461.337	2072.04
461.71	2129.21
462.083	2130.11
462.456	2103
462.829	2109.78
463.201	2172.6
463.574	2182.77
463.947	2193.84
464.32	2277.23
464.692	2278.36
465.065	2247.62
465.438	2262.31
465.81	2298.47
466.183	2314.97
466.555	2343.44
466.928	2378.69
467.3	2344.12
467.672	2370.79
468.045	2463.66
468.417	2442.65
468.789	2462.53
469.161	2482.19
469.534	2544.11
469.906	2582.53
470.278	2513.38
470.65	2600.16
471.022	2632.93
471.394	2682.19
471.766	2699.59
472.138	2732.36
472.51	2753.37
472.882	2769.64
473.253	2782.98
473.625	2859.81
473.997	2869.53
474.369	2885.57
474.74	2956.76
475.112	2971.22
475.484	2957.66
475.855	3012.8
476.227	3021.16
476.598	3152.23
476.97	3135.51
477.341	3175.74
477.713	3206.7
478.084	3230.65
478.455	3311.78
478.827	3330.31
479.198	3399.68
479.569	3373.02
479.94	3502.96
480.311	3457.31
480.682	3565.1
481.053	3606.46
481.424	3651.66
481.795	3660.47
482.166	3697.76
482.537	3738.43
482.908	3801.03
483.279	3806.68
483.65	3914.47
484.021	3914.25
484.391	3947.47
484.762	3980.01
485.133	4030.18
485.503	4100.91
485.874	4168.03
486.244	4173.45
486.615	4241.47
486.985	4277.85
487.356	4340.9
487.726	4364.63
488.097	4372.99
488.467	4435.59
488.837	4518.53
489.207	4499.99
489.578	4589.48
489.948	4644.62
490.318	4676.26
490.688	4673.1
491.058	4739.54
491.428	4806.43
491.798	4823.38
492.168	4925.97
492.538	4972.52
492.908	4958.74
493.278	5029.47
493.648	5010.04
494.017	5059.98
494.387	5116.02
494.757	5171.62
495.126	5209.13
495.496	5222.91
495.866	5219.75
496.235	5253.65
496.605	5286.19
496.974	5322.35
497.344	5406.64
497.713	5403.7
498.082	5419.74
498.452	5436.02
498.821	5498.84
499.19	5477.6
499.559	5520.08
499.928	5551.94
500.298	5571.38
500.667	5599.4
501.036	5591.27
501.405	5618.16
501.774	5654.31
502.143	5744.26
502.512	5758.94
502.88	5771.6
503.249	5798.94
503.618	5794.65
503.987	5841.65
504.356	5851.6
504.724	5861.77
505.093	5887.53
505.462	5927.53
505.83	5939.96
506.199	5958.71
506.567	6025.38
506.936	6082.1
507.304	6079.61
507.672	6078.26
508.041	6123.68
508.409	6172.04
508.777	6181.08
509.145	6214.75
509.514	6255.2
509.882	6231.7
510.25	6215.43
510.618	6307.18
510.986	6258.82
511.354	6358.48
511.722	6380.17
512.09	6405.48
512.458	6367.29
512.826	6413.84
513.193	6439.6
513.561	6496.78
513.929	6474.18
514.297	6500.17
514.664	6567.96
515.032	6560.28
515.4	6583.33
515.767	6658.58
516.135	6679.37
516.502	6578.81
516.869	6768.18
517.237	6691.35
517.604	6724.57
517.972	6742.65
518.339	6787.62
518.706	6788.3
519.073	6803.21
519.44	6835.53
519.808	6936.31
520.175	6846.83
520.542	6942.19
520.909	6939.03
521.276	6974.28
521.643	6995.97
522.009	7083.66
522.376	7156.65
522.743	7103.99
523.11	7099.93
523.477	7207.27
523.843	7194.39
524.21	7274.84
524.577	7252.92
524.943	7360.26
525.31	7384.21
525.676	7428.51
526.043	7470.99
526.409	7428.73
526.776	7519.58
527.142	7551.67
527.508	7560.25
527.874	7651.78
528.241	7668.05
528.607	7684.09
528.973	7738.33
529.339	7739.23
529.705	7793.92
530.071	7872.56
530.437	7868.27
530.803	7920.92
531.169	7960.24
531.535	7929.06
531.901	7956.17
532.267	7974.25
532.632	8019.45
532.998	8077.3
533.364	8122.95
533.73	8165.21
534.095	8242.72
534.461	8195.94
534.826	8191.42
535.192	8232.1
535.557	8295.6
535.923	8312.1
536.288	8338.76
536.653	8354.81
537.019	8345.09
537.384	8393
537.749	8390.06
538.114	8360.68
538.479	8449.95
538.845	8483.17
539.21	8448.82
539.575	8515.93
539.94	8524.3
540.305	8539.21
540.67	8578.08
541.034	8676.61
541.399	8611.07
541.764	8630.28
542.129	8702.82
542.494	8694.01
542.858	8734.01
543.223	8702.14
543.587	8844.51
543.952	8769.26
544.316	8853.33
544.681	8856.04
545.045	8913.44
545.41	8933.78
545.774	8962.25
546.138	8962.02
546.503	8971.29
546.867	8963.61
547.231	9077.05
547.595	9105.07
547.959	9108.69
548.324	9137.16
548.688	9136.48
549.052	9153.88
549.416	9208.12
549.779	9219.64
550.143	9174.22
550.507	9248.12
550.871	9230.49
551.235	9239.08
551.599	9306.65
551.962	9330.15
552.326	9368.79
552.689	9381.9
553.053	9374.89
553.417	9444.5
553.78	9487.89
554.143	9370.15
554.507	9466.19
554.87	9526.3
555.234	9615.11
555.597	9535.34
555.96	9590.93
556.323	9632.06
556.686	9565.85
557.05	9675
557.413	9671.84
557.776	9733.76
558.139	9788.9
558.502	9805.84
558.865	9782.57
559.228	9833.41
559.59	9823.92
559.953	9889.46
560.316	10007.19
560.679	9963.58
561.041	10110.69
561.404	10032.73
561.767	10083.35
562.129	10036.35
562.492	10150.47
562.854	10152.28
563.217	10119.73
563.579	10264.36
563.941	10237.24
564.304	10242.44
564.666	10290.35
565.028	10426.62
565.39	10370.12
565.753	10496.45
566.115	10433.85
566.477	10479.27
566.839	10469.56
567.201	10543.9
567.563	10596.11
567.925	10670.91
568.287	10653.28
568.648	10680.17
569.01	10767.17
569.372	10830
569.734	10864.57
570.095	10825.93
570.457	10896.44
570.819	10985.47
571.18	10901.41
571.542	10994.29
571.903	11044.91
572.265	11091.23
572.626	11107.05
572.987	11116.32
573.349	11167.62
573.71	11252.36
574.071	11319.25
574.432	11349.31
574.794	11467.72
575.155	11443.31
575.516	11448.74
575.877	11567.61
576.238	11567.38
576.599	11637.43
576.96	11749.97
577.32	11761.72
577.681	11843.08
578.042	11924.43
578.403	11952.91
578.763	11986.13
579.124	12060.93
579.485	12126.69
579.845	12268.6
580.206	12281.03
580.566	12391.99
580.927	12384.08
581.287	12467.24
581.648	12581.82
582.008	12721.7
582.368	12767.35
582.728	12846.67
583.089	12933.9
583.449	13020.45
583.809	13071.52
584.169	13306.77
584.529	13307.67
584.889	13511.06
585.249	13565.52
585.609	13579.53
585.969	13898.62
586.329	13906.3
586.688	13975.23
587.048	14160.31
587.408	14283.47
587.768	14395.78
588.127	14498.38
588.487	14606.4
588.846	14850.23
589.206	14883
589.565	15006.39
589.925	15178.58
590.284	15336.32
590.643	15440.72
591.003	15563.43
591.362	15772.01
591.721	15849.07
592.08	16023.31
592.44	16271.21
592.799	16367.48
593.158	16504.42
593.517	16646.34
593.876	16863.74
594.235	16866.68
594.593	17003.85
594.952	17230.06
595.311	17322.93
595.67	17534.45
596.029	17709.14
596.387	17857.16
596.746	18077.26
597.104	18022.35
597.463	18148.45
597.822	18327.2
598.18	18381.21
598.538	18502.79
598.897	18711.37
599.255	18774.87
599.613	19258.25
599.972	19104.13
600.33	19336.89
600.688	19295.09
601.046	19479.71
601.404	19756.54
601.762	19799.48
602.12	19961.51
602.478	20124.44
602.836	20211.45
603.194	20113.82
603.552	20374.38
603.91	20402.85
604.268	20566.01
604.625	20544.77
604.983	20760.36
605.341	20699.57
605.698	20956.96
606.056	21042.84
606.413	21058.2
606.771	21298.65
607.128	21328.93
607.485	21391.98
607.843	21452.32
608.2	21640.56
608.557	21724.63
608.914	21652.09
609.272	21883.27
609.629	22070.61
609.986	22156.93
610.343	22110.38
610.7	22318.96
611.057	22383.82
611.414	22385.63
611.771	22457.71
612.127	22695
612.484	22590.37
612.841	22800.08
613.198	22763.7
613.554	22835.33
613.911	23088.88
614.267	22965.72
614.624	23106.06
614.98	23144.48
615.337	23291.59
615.693	23321.65
616.05	23353.06
616.406	23563.9
616.762	23541.3
617.118	23537.23
617.475	23561.87
617.831	23638.47
618.187	23751.69
618.543	23695.65
618.899	23837.79
619.255	23872.59
619.611	23865.81
619.967	23946.49
620.323	24083.21
620.678	24062.64
621.034	24005.92
621.39	24173.6
621.746	23990.56
622.101	24346.25
622.457	24138.8
622.812	24231.45
623.168	24322.75
623.523	24303.77
623.879	24377.66
624.234	24274.16
624.589	24479.58
624.945	24427.83
625.3	24440.04
625.655	24606.58
626.01	24540.37
626.365	24569.07
626.72	24627.38
627.075	24562.07
627.43	24571.56
627.785	24590.09
628.14	24577.21
628.495	24619.47
628.85	24667.83
629.205	24614.27
629.559	24679.13
629.914	24663.53
630.269	24663.08
630.623	24576.3
630.978	24673.48
631.332	24725.45
631.687	24674.15
632.041	24670.54
632.396	24640.93
632.75	24532.46
633.104	24651.33
633.459	24500.82
633.813	24598
634.167	24560.26
634.521	24565.91
634.875	24622.86
635.229	24626.25
635.583	24528.62
635.937	24489.3
636.291	24480.03
636.645	24588.96
636.999	24473.25
637.352	24600.26
637.706	24369.08
638.06	24466.02
638.413	24413.37
638.767	24336.31
639.121	24373.37
639.474	24340.6
639.828	24308.06
640.181	24302.86
640.534	24440.49
640.888	24267.84
641.241	24189.42
641.594	24251.79
641.947	24398.91
642.301	24153.72
642.654	24288.4
643.007	24273.03
643.36	24294.95
643.713	24262.41
644.066	24393.93
644.419	24276.88
644.771	24050.89
645.124	23873.95
645.477	23870.11
645.83	23566.61
646.182	23607.06
646.535	23376.56
646.888	23578.36
647.24	23387.18
647.593	23532.94
647.945	23524.58
648.298	23326.62
648.65	23387.63
649.002	23294.08
649.355	23496.78
649.707	23424.69
650.059	23641.64
650.411	23875.76
650.763	23884.57
651.115	24195.07
651.467	24019.26
651.819	23969.54
652.171	24010.44
652.523	24019.93
652.875	24042.31
653.227	23995.98
653.578	24107.39
653.93	24068.52
654.282	23925.47
654.633	23948.52
654.985	24008.86
655.337	24013.15
655.688	24011.35
656.039	24093.15
656.391	23882.76
656.742	23915.53
657.094	23986.26
657.445	24100.84
657.796	24056.54
658.147	23993.04
658.498	24019.26
658.849	24000.27
659.2	23866.94
659.551	23836.89
659.902	24016.09
660.253	24002.53
660.604	24072.81
660.955	23941.74
661.306	23980.84
661.656	23991.91
662.007	24158.69
662.358	24024.23
662.708	23986.94
663.059	24025.81
663.409	23915.98
663.76	24077.11
664.11	24033.27
664.461	24061.97
664.811	24069.42
665.161	24092.47
665.511	23897.45
665.862	23944.91
666.212	24153.04
666.562	24126.37
666.912	24009.09
667.262	23986.71
667.612	24040.27
667.962	24119.82
668.312	24094.06
668.662	24133.15
669.011	24050.22
669.361	24022.65
669.711	24008.18
670.06	23988.3
670.41	23931.8
670.76	23904.68
671.109	23955.98
671.459	24026.94
671.808	23846.6
672.157	23863.55
672.507	23817.45
672.856	23776.78
673.205	23924.12
673.554	23974.51
673.904	23849.09
674.253	23935.19
674.602	23860.84
674.951	23520.96
675.3	23375.66
675.649	23720.73
675.998	23757.12
676.346	23751.69
676.695	23725.25
677.044	23639.38
677.393	23584.92
677.741	23682.32
678.09	23697.68
678.438	23548.08
678.787	23597.12
679.135	23567.29
679.484	23428.99
679.832	23493.62
680.181	23433.06
680.529	23442.55
680.877	23464.92
681.225	23340.4
681.573	23518.7
681.922	23374.3
682.27	23261.76
682.618	23250.24
682.966	23220.86
683.314	23247.07
683.661	23171.37
684.009	23060.41
684.357	23109.67
684.705	22970.24
685.053	22976.35
685.4	22970.02
685.748	22822.22
686.095	22841.43
686.443	22730.7
686.79	22634.43
687.138	22610.93
687.485	22739.06
687.832	22541.1
688.18	22623.36
688.527	22381.33
688.874	22492.29
689.221	22474.44
689.568	22397.6
689.915	22268.12
690.262	22268.57
690.609	22165.29
690.956	22167.55
691.303	22124.16
691.65	22076.03
691.997	21932.3
692.344	21812.53
692.69	21787.68
693.037	21803.04
693.383	21655.02
693.73	21697.96
694.077	21576.83
694.423	21552.88
694.769	21555.82
695.116	21533.9
695.462	21375.26
695.808	21187.69
696.155	21303.85
696.501	21062.72
696.847	21080.58
697.193	20986.79
697.539	21022.95
697.885	20783.63
698.231	20750.41
698.577	20676.07
698.923	20665.67
699.269	20626.8
699.614	20383.19
699.96	20440.59
700.306	20384.77
700.651	20412.34
700.997	20220.03
701.342	20215.06
701.688	20176.64
702.033	20150.2
702.379	20031.56
702.724	19988.4
703.069	20029.98
703.415	19833.15
703.76	19804
704.105	19793.83
704.45	19663.89
704.795	19552.93
705.14	19511.58
705.485	19525.59
705.83	19415.76
706.175	19399.26
706.52	19317.68
706.865	19270
707.209	19320.4
707.554	19147.29
707.899	19184.58
708.243	19083.34
708.588	19044.25
708.932	19011.03
709.277	18951.82
709.621	18906.62
709.966	18751.82
710.31	18874.53
710.654	18568.78
710.998	18670.47
711.342	18726.51
711.687	18648.55
712.031	18501.21
712.375	18375.11
712.719	18455.56
713.063	18367.2
713.407	18481.32
713.75	18272.06
714.094	18439.97
714.438	18244.04
714.782	18275.23
715.125	18212.18
715.469	18201.33
715.812	18072.75
716.156	17940.09
716.499	18012.86
716.843	18050.37
717.186	17861.23
717.53	17993.65
717.873	18042.69
718.216	17902.35
718.559	17884.5
718.902	17765.41
719.246	17857.61
719.589	17749.59
719.932	17630.72
720.275	17702.81
720.617	17601.35
720.96	17606.09
721.303	17620.1
721.646	17721.34
721.989	17496.26
722.331	17613.77
722.674	17486.77
723.016	17565.64
723.359	17583.04
723.701	17512.99
724.044	17424.4
724.386	17342.82
724.729	17449.94
725.071	17339.66
725.413	17307.34
725.755	17305.99
726.097	17273.22
726.439	17157.97
726.782	17237.29
727.124	17324.29
727.465	17230.06
727.807	17223.95
728.149	17229.15
728.491	17195.93
728.833	17287.91
729.175	17147.12
729.516	17049.27
729.858	17129.72
730.199	17148.7
730.541	17108.25
730.882	17103.05
731.224	17093.11
731.565	16975.37
731.906	17025.99
732.248	17099.21
732.589	17095.6
732.93	16956.39
733.271	16991.64
733.612	17044.75
733.953	16999.78
734.294	16885.21
734.635	16928.14
734.976	16939.67
735.317	16956.39
735.658	16938.76
735.999	17010.17
736.339	16856.51
736.68	17011.53
737.021	16934.7
737.361	16877.07
737.702	16915.26
738.042	16929.27
738.383	16894.25
738.723	17028.48
739.063	16896.05
739.404	16987.58
739.744	16983.06
740.084	16863.06
740.424	17160.9
740.764	16947.13
741.104	17026.9
741.444	16935.83
741.784	16932.44
742.124	16960.68
742.464	16972.44
742.804	16954.13
743.143	17027.35
743.483	17086.33
743.823	17015.82
744.162	17031.64
744.502	17183.5
744.841	17137.63
745.181	17252.2
745.52	17247.23
745.86	17287
746.199	17243.39
746.538	17256.95
746.877	17343.27
747.216	17422.37
747.556	17406.77
747.895	17552.53
748.234	17423.27
748.573	17495.13
748.911	17577.16
749.25	17706.2
749.589	17687.22
749.928	17757.05
750.267	17913.43
750.605	18001.79
750.944	17988.91
751.283	17934.44
751.621	18148.22
751.96	18124.95
752.298	18293.76
752.636	18400.19
752.975	18342.34
753.313	18472.73
753.651	18641.32
753.989	18612.39
754.327	18778.72
754.666	18780.3
755.004	18874.08
755.342	19082.66
755.679	19109.78
756.017	19152.04
756.355	19430.9
756.693	19424.8
757.031	19548.64
757.368	19678.35
757.706	19770.78
758.044	19817.11
758.381	20080.6
