Data from hue_190_FLMS001491_00091.txt Node
Date: Tue Feb 07 16:46:02 GMT 2017
User: dcchb
Spectrometer: FLMS00149
Trigger mode: 0
Integration Time (sec): 2.000000E-2
Scans to average: 10
Electric dark correction enabled: true
Nonlinearity correction enabled: false
Boxcar width: 0
XAxis mode: Wavelengths
Number of Pixels in Spectrum: 2048
>>>>>Begin Spectral Data<<<<<
341.393	-32.46
341.776	-32.46
342.16	-32.46
342.543	-47.6
342.927	-73.13
343.31	-53.02
343.693	-60.25
344.077	-59.57
344.46	-65.45
344.843	-59.8
345.226	-36.07
345.61	-18.9
345.993	-33.13
346.376	-6.69
346.759	8.9
347.142	21.1
347.525	30.82
347.908	44.6
348.291	83.02
348.674	95.22
349.057	109.23
349.44	116.01
349.823	134.32
350.206	158.5
350.588	167.54
350.971	197.82
351.354	206.86
351.737	221.1
352.119	242.79
352.502	233.75
352.884	259.29
353.267	289.34
353.65	279.85
354.032	293.86
354.414	274.88
354.797	294.77
355.179	312.17
355.562	313.75
355.944	313.3
356.326	326.4
356.709	303.35
357.091	321.66
357.473	335.9
357.855	338.15
358.238	347.42
358.62	319.17
359.002	326.4
359.384	323.92
359.766	337.7
360.148	318.95
360.53	336.12
360.912	343.8
361.294	340.19
361.676	325.95
362.057	316.91
362.439	332.96
362.821	311.94
363.203	306.97
363.584	309
363.966	299.29
364.348	308.33
364.729	306.74
365.111	285.27
365.493	313.97
365.874	315.56
366.256	324.6
366.637	305.61
367.019	294.31
367.4	314.65
367.781	314.2
368.163	297.93
368.544	325.73
368.925	296.12
369.306	301.32
369.688	310.59
370.069	316.23
370.45	307.2
370.831	305.61
371.212	315.56
371.593	312.39
371.974	306.97
372.355	314.2
372.736	302.9
373.117	283.47
373.498	302
373.879	292.28
374.26	318.49
374.641	307.42
375.021	315.78
375.402	310.13
375.783	321.88
376.163	305.16
376.544	308.78
376.925	322.56
377.305	320.08
377.686	329.79
378.066	309.91
378.447	325.73
378.827	307.42
379.208	331.83
379.588	313.52
379.968	305.39
380.349	318.72
380.729	330.02
381.109	346.74
381.489	311.04
381.87	326.86
382.25	306.74
382.63	356.46
383.01	322.34
383.39	321.88
383.77	323.01
384.15	306.07
384.53	322.56
384.91	353.52
385.29	341.54
385.67	347.65
386.049	351.94
386.429	336.8
386.809	331.15
387.189	351.04
387.568	334.77
387.948	346.74
388.328	348.78
388.707	337.25
389.087	348.78
389.466	358.72
389.846	364.82
390.225	373.41
390.605	365.5
390.984	363.69
391.363	350.36
391.743	358.72
392.122	354.88
392.501	368.44
392.881	361.88
393.26	356.01
393.639	347.87
394.018	355.56
394.397	372.28
394.776	377.25
395.155	363.24
395.534	365.27
395.913	382.22
396.292	374.99
396.671	372.96
397.05	391.71
397.429	379.06
397.808	367.98
398.186	374.31
398.565	385.84
398.944	385.16
399.323	376.8
399.701	367.53
400.08	374.76
400.458	410.7
400.837	411.83
401.215	401.43
401.594	393.52
401.972	407.53
402.351	401.88
402.729	425.38
403.107	433.97
403.486	390.13
403.864	418.38
404.242	431.26
404.62	428.1
404.999	441.66
405.377	438.04
405.755	436.68
406.133	433.07
406.511	433.75
406.889	445.27
407.267	457.02
407.645	474.87
408.023	470.35
408.401	471.48
408.779	465.16
409.156	493.18
409.534	474.65
409.912	489.56
410.29	512.84
410.667	492.73
411.045	519.62
411.422	543.12
411.8	518.49
412.178	528.21
412.555	534.31
412.933	541.54
413.31	565.27
413.687	575.44
414.065	561.88
414.442	577.24
414.819	602.33
415.197	598.49
415.574	626.96
415.951	625.61
416.328	635.32
416.705	617.47
417.082	659.28
417.46	654.3
417.837	653.17
418.214	666.28
418.591	664.25
418.967	677.58
419.344	692.27
419.721	683.91
420.098	707.86
420.475	706.05
420.852	728.43
421.228	741.31
421.605	741.76
421.982	748.54
422.358	760.74
422.735	785.37
423.111	803.45
423.488	798.71
423.864	810.91
424.241	820.63
424.617	865.37
424.994	844.36
425.37	884.36
425.746	883.68
426.123	856.56
426.499	890.68
426.875	905.37
427.251	925.71
427.627	954.41
428.003	972.04
428.379	951.47
428.756	972.49
429.132	993.28
429.507	987.63
429.883	993.5
430.259	1011.36
430.635	1032.37
431.011	1027.63
431.387	1065.14
431.763	1056.33
432.138	1093.16
432.514	1122.77
432.89	1110.79
433.265	1144.91
433.641	1175.65
434.016	1197.12
434.392	1191.92
434.767	1241.63
435.143	1246.15
435.518	1276.44
435.894	1252.48
436.269	1283.44
436.644	1322.08
437.02	1363.21
437.395	1387.17
437.77	1365.02
438.145	1422.65
438.52	1432.36
438.895	1462.19
439.271	1462.42
439.646	1497.45
440.021	1520.5
440.395	1564.34
440.77	1534.28
441.145	1560.04
441.52	1582.64
441.895	1614.96
442.27	1616.31
442.645	1653.83
443.019	1651.57
443.394	1677.1
443.769	1679.14
444.143	1687.27
444.518	1741.28
444.892	1728.4
445.267	1791.68
445.641	1810.88
446.016	1798
446.39	1819.47
446.764	1812.01
447.139	1848.17
447.513	1859.02
447.887	1863.54
448.262	1880.71
448.636	1897.66
449.01	1925.23
449.384	1944.67
449.758	1962.75
450.132	1959.58
450.506	1985.34
450.88	1992.12
451.254	1978.79
451.628	2026.02
452.002	2063.31
452.376	2089.52
452.75	2072.35
453.123	2135.62
453.497	2146.92
453.871	2160.48
454.244	2198.45
454.618	2253.81
454.992	2256.07
455.365	2284.32
455.739	2317.09
456.112	2331.32
456.486	2370.64
456.859	2391.66
457.232	2402.51
457.606	2411.55
457.979	2500.36
458.352	2475.05
458.725	2561.37
459.099	2532.9
459.472	2618.1
459.845	2614.71
460.218	2676.4
460.591	2702.84
460.964	2675.49
461.337	2741.26
461.71	2773.8
462.083	2814.47
462.456	2819.9
462.829	2860.35
463.201	2910.52
463.574	2903.51
463.947	2946.45
464.32	3072.77
464.692	3037.29
465.065	3087.91
465.438	3155.93
465.81	3162.71
466.183	3216.5
466.555	3310.05
466.928	3270.28
467.3	3320.68
467.672	3394.12
468.045	3449.03
468.417	3438.41
468.789	3498.07
469.161	3524.74
469.534	3582.14
469.906	3634.79
470.278	3676.6
470.65	3768.57
471.022	3801.79
471.394	3868.23
471.766	3901.9
472.138	3982.58
472.51	4046.53
472.882	4104.84
473.253	4161.33
473.625	4231.84
473.997	4311.61
474.369	4322.01
474.74	4457.37
475.112	4482.23
475.484	4501.89
475.855	4639.51
476.227	4680.87
476.598	4809.68
476.97	4874.53
477.341	4985.94
477.713	5046.73
478.084	5063.23
478.455	5250.57
478.827	5231.81
479.198	5404.91
479.569	5409.21
479.94	5591.8
480.311	5646.94
480.682	5739.82
481.053	5867.5
481.424	5984.79
481.795	5998.12
482.166	6110.88
482.537	6175.97
482.908	6295.06
483.279	6404.66
483.65	6573.92
484.021	6621.38
484.391	6743.64
484.762	6780.02
485.133	6841.49
485.503	6943.63
485.874	7023.4
486.244	7099.79
486.615	7191.08
486.985	7346.56
487.356	7449.38
487.726	7495.03
488.097	7712.2
488.467	7696.83
488.837	7907.9
489.207	7942.02
489.578	8096.82
489.948	8137.95
490.318	8242.35
490.688	8287.78
491.058	8475.79
491.428	8516.47
491.798	8531.61
492.168	8780.87
492.538	8774.54
492.908	8852.73
493.278	9013.63
493.648	8982.67
494.017	9116
494.387	9194.65
494.757	9218.6
495.126	9349.9
495.496	9325.72
495.866	9309.44
496.235	9489.55
496.605	9570.68
496.974	9582.88
497.344	9685.48
497.713	9712.82
498.082	9777
498.452	9808.41
498.821	9886.15
499.19	9923.21
499.559	9944.46
499.928	10020.39
500.298	10125.92
500.667	10103.32
501.036	10058.35
501.405	10138.12
501.774	10272.13
502.143	10277.55
502.512	10233.71
502.88	10333.82
503.249	10316.42
503.618	10427.38
503.987	10455.4
504.356	10478.45
504.724	10510.09
505.093	10510.99
505.462	10544.67
505.83	10587.15
506.199	10685.23
506.567	10802.06
506.936	10713.25
507.304	10828.05
507.672	10866.24
508.041	10835.96
508.409	10855.17
508.777	10866.92
509.145	10944.43
509.514	10877.09
509.882	11020.59
510.25	10959.8
510.618	11002.06
510.986	10946.46
511.354	11017.2
511.722	11101.94
512.09	11155.95
512.458	11108.72
512.826	11193.46
513.193	11079.57
513.561	11184.2
513.929	11321.59
514.297	11276.85
514.664	11314.36
515.032	11268.94
515.4	11343.52
515.767	11295.15
516.135	11319.79
516.502	11268.04
516.869	11428.71
517.237	11363.4
517.604	11315.27
517.972	11435.26
518.339	11435.72
518.706	11342.84
519.073	11409.95
519.44	11373.35
519.808	11470.97
520.175	11394.36
520.542	11454.92
520.909	11535.83
521.276	11396.4
521.643	11502.16
522.009	11506
522.376	11532.21
522.743	11606.11
523.11	11495.15
523.477	11561.59
523.843	11582.38
524.21	11633.45
524.577	11606.56
524.943	11627.58
525.31	11611.3
525.676	11669.61
526.043	11629.84
526.409	11637.29
526.776	11729.95
527.142	11597.52
527.508	11661.25
527.874	11628.03
528.241	11571.53
528.607	11598.2
528.973	11752.77
529.339	11597.75
529.705	11590.06
530.071	11649.04
530.437	11602.72
530.803	11641.36
531.169	11644.07
531.535	11450.18
531.901	11433.23
532.267	11488.6
532.632	11416.96
532.998	11379.67
533.364	11364.76
533.73	11407.47
534.095	11361.59
534.461	11349.16
534.826	11336.51
535.192	11318.43
535.557	11287.02
535.923	11237.08
536.288	11173.8
536.653	11113.24
537.019	11074.6
537.384	11012.22
537.749	11018.1
538.114	10874.15
538.479	10853.13
538.845	10818.56
539.21	10763.64
539.575	10721.84
539.94	10607.49
540.305	10665.12
540.67	10587.6
541.034	10534.72
541.399	10528.62
541.764	10490.66
542.129	10420.15
542.494	10334.5
542.858	10351.45
543.223	10255.41
543.587	10245.47
543.952	10166.6
544.316	10173.38
544.681	10074.62
545.045	10062.42
545.41	9985.13
545.774	9971.12
546.138	9904.68
546.503	9866.94
546.867	9791.24
547.231	9845.93
547.595	9715.31
547.959	9723.22
548.324	9611.58
548.688	9654.07
549.052	9522.09
549.416	9531.59
549.779	9459.05
550.143	9387.18
550.507	9370.46
550.871	9305.6
551.235	9228.09
551.599	9267.19
551.962	9187.19
552.326	9194.65
552.689	9151.03
553.053	9045.5
553.417	8986.74
553.78	8975.67
554.143	8962.56
554.507	8939.28
554.87	8920.53
555.234	8910.58
555.597	8836.24
555.96	8789.23
556.323	8830.81
556.686	8723.25
557.05	8689.57
557.413	8704.94
557.776	8677.6
558.139	8657.26
558.502	8651.83
558.865	8549.69
559.228	8602.8
559.59	8576.36
559.953	8558.5
560.316	8568.9
560.679	8535.45
561.041	8453.87
561.404	8484.38
561.767	8474.89
562.129	8407.77
562.492	8425.17
562.854	8422.91
563.217	8349.24
563.579	8375.91
563.941	8472.86
564.304	8363.03
564.666	8358.74
565.028	8385.63
565.39	8327.78
565.753	8306.31
566.115	8317.38
566.477	8344.95
566.839	8332.52
567.201	8340.43
567.563	8366.42
567.925	8295.23
568.287	8369.13
568.648	8319.64
569.01	8337.27
569.372	8346.08
569.734	8293.65
570.095	8324.39
570.457	8327.1
570.819	8356.48
571.18	8280.32
571.542	8332.97
571.903	8293.43
572.265	8255.91
572.626	8308.11
572.987	8309.92
573.349	8301.79
573.71	8315.8
574.071	8265.18
574.432	8306.76
574.794	8357.38
575.155	8298.62
575.516	8289.81
575.877	8269.47
576.238	8283.93
576.599	8240.55
576.96	8264.73
577.32	8236.7
577.681	8246.42
578.042	8252.75
578.403	8217.27
578.763	8205.97
579.124	8297.04
579.485	8225.86
579.845	8293.88
580.206	8282.35
580.566	8254.78
580.927	8254.11
581.287	8246.42
581.648	8177.04
582.008	8223.6
582.368	8232.18
582.728	8254.78
583.089	8229.02
583.449	8127.1
583.809	8189.47
584.169	8146.54
584.529	8140.44
584.889	8185.86
585.249	8164.16
585.609	8149.47
585.969	8090.95
586.329	8093.88
586.688	8100.89
587.048	8084.39
587.408	8093.43
587.768	8064.73
588.127	8087.78
588.487	8021.57
588.846	8071.28
589.206	7975.24
589.565	8026.09
589.925	8082.81
590.284	7985.64
590.643	8026.99
591.003	8024.28
591.362	7993.32
591.721	8004.17
592.08	7976.6
592.44	7992.87
592.799	7964.17
593.158	7977.73
593.517	7940.21
593.876	7955.58
594.235	7910.61
594.593	7972.53
594.952	7958.97
595.311	7903.15
595.67	7884.62
596.029	7888.01
596.387	7933.89
596.746	7925.53
597.104	7876.94
597.463	7840.33
597.822	7829.26
598.18	7812.31
598.538	7875.13
598.897	7900.22
599.255	7770.28
599.613	7838.3
599.972	7838.75
600.33	7867.45
600.688	7826.55
601.046	7826.09
601.404	7845.98
601.762	7782.48
602.12	7889.82
602.478	7849.6
602.836	7840.1
603.194	7791.74
603.552	7786.77
603.91	7761.69
604.268	7781.12
604.625	7819.77
604.983	7822.48
605.341	7751.29
605.698	7871.06
606.056	7805.53
606.413	7791.07
606.771	7861.57
607.128	7800.56
607.485	7791.74
607.843	7771.18
608.2	7834.91
608.557	7853.89
608.914	7814.12
609.272	7783.16
609.629	7866.32
609.986	7883.72
610.343	7840.78
610.7	7909.71
611.057	7835.36
611.414	7895.02
611.771	7939.09
612.127	7859.99
612.484	7908.58
612.841	7927.79
613.198	7819.54
613.554	7850.05
613.911	7868.58
614.267	7829.94
614.624	7805.53
614.98	7843.49
615.337	7895.7
615.693	7878.3
616.05	7902.25
616.406	7922.36
616.762	7917.16
617.118	7883.95
617.475	7906.54
617.831	7939.76
618.187	7867.67
618.543	7923.04
618.899	7916.71
619.255	7905.87
619.611	7942.93
619.967	8000.55
620.323	7996.26
620.678	7949.25
621.034	7866.77
621.39	7921.46
621.746	7965.07
622.101	8019.76
622.457	7870.39
622.812	7932.76
623.168	7935.47
623.523	7920.78
623.879	7975.47
624.234	7883.72
624.589	7921.68
624.945	7924.17
625.3	7874.68
625.655	7931.18
626.01	7929.82
626.365	7926.88
626.72	7925.3
627.075	7901.12
627.43	7874.68
627.785	7888.92
628.14	7922.14
628.495	7940.21
628.85	7899.99
629.205	7883.04
629.559	7909.93
629.914	7836.49
630.269	7871.52
630.623	7773.21
630.978	7830.61
631.332	7834.68
631.687	7817.05
632.041	7846.43
632.396	7876.04
632.75	7799.88
633.104	7831.29
633.459	7787.45
633.813	7825.19
634.167	7771.86
634.521	7735.47
634.875	7820.67
635.229	7688.7
635.583	7725.76
635.937	7670.17
636.291	7683.5
636.645	7689.15
636.999	7664.74
637.352	7665.87
637.706	7662.93
638.06	7713.1
638.413	7641.24
638.767	7603.5
639.121	7644.86
639.474	7571.86
639.828	7609.38
640.181	7638.08
640.534	7569.6
640.888	7564.41
641.241	7522.6
641.594	7552.88
641.947	7585.2
642.301	7583.61
642.654	7556.5
643.007	7562.82
643.36	7558.98
643.713	7540.23
644.066	7577.96
644.419	7484.18
644.771	7485.99
645.124	7391.98
645.477	7433.56
645.83	7301.14
646.182	7298.65
646.535	7263.4
646.888	7319.67
647.24	7259.78
647.593	7307.92
647.945	7334.58
648.298	7283.51
648.65	7233.57
649.002	7218.65
649.355	7298.42
649.707	7231.98
650.059	7320.57
650.411	7469.27
650.763	7367.35
651.115	7473.11
651.467	7462.94
651.819	7482.15
652.171	7450.96
652.523	7428.59
652.875	7406.67
653.227	7404.64
653.578	7420.45
653.93	7449.61
654.282	7460.91
654.633	7373.9
654.985	7467.91
655.337	7405.31
655.688	7428.59
656.039	7442.83
656.391	7425.2
656.742	7402.15
657.094	7449.38
657.445	7467.23
657.796	7461.81
658.147	7443.5
658.498	7439.66
658.849	7524.63
659.2	7438.08
659.551	7463.39
659.902	7497.74
660.253	7438.08
660.604	7518.53
660.955	7517.85
661.306	7533.9
661.656	7477.4
662.007	7518.31
662.358	7523.05
662.708	7477.18
663.059	7474.24
663.409	7475.59
663.76	7471.3
664.11	7495.48
664.461	7526.44
664.811	7516.95
665.161	7548.81
665.511	7477.4
665.862	7531.64
666.212	7562.37
666.562	7532.99
666.912	7519.44
667.262	7538.64
667.612	7530.96
667.962	7466.56
668.312	7477.4
668.662	7556.27
669.011	7499.55
669.361	7462.04
669.711	7504.07
670.06	7529.38
670.41	7495.71
670.76	7515.59
671.109	7515.37
671.459	7479.21
671.808	7487.35
672.157	7524.18
672.507	7449.83
672.856	7483.28
673.205	7502.49
673.554	7516.5
673.904	7444.41
674.253	7515.82
674.602	7463.84
674.951	7411.64
675.3	7307.24
675.649	7476.05
675.998	7417.97
676.346	7384.3
676.695	7402.83
677.044	7355.82
677.393	7425.65
677.741	7405.09
678.09	7409.38
678.438	7441.92
678.787	7390.17
679.135	7432.88
679.484	7354.69
679.832	7314.92
680.181	7310.63
680.529	7332.32
680.877	7281.25
681.225	7316.73
681.573	7302.04
681.922	7251.19
682.27	7191.08
682.618	7192.89
682.966	7185.21
683.314	7212.1
683.661	7199.9
684.009	7172.1
684.357	7149.28
684.705	7141.82
685.053	7142.27
685.4	7106.34
685.748	7116.96
686.095	7066.57
686.443	7033.12
686.79	7046.23
687.138	7009.17
687.485	7045.1
687.832	6947.47
688.18	7020.69
688.527	6951.09
688.874	6991.31
689.221	6946.79
689.568	6913.58
689.915	6940.47
690.262	6889.17
690.609	6873.12
690.956	6781.15
691.303	6808.72
691.65	6759.23
691.997	6792.67
692.344	6721.04
692.69	6706.35
693.037	6703.19
693.383	6672.9
693.73	6693.47
694.077	6625
694.423	6595.39
694.769	6541.83
695.116	6549.29
695.462	6505
695.808	6534.83
696.155	6542.74
696.501	6482.17
696.847	6486.47
697.193	6368.28
697.539	6415.96
697.885	6396.53
698.231	6321.95
698.577	6366.25
698.923	6333.48
699.269	6272.01
699.614	6262.74
699.96	6209.64
700.306	6197.89
700.651	6183.42
700.997	6215.74
701.342	6187.27
701.688	6168.06
702.033	6116.76
702.379	6093.26
702.724	6062.98
703.069	6093.94
703.415	6015.52
703.76	6025.01
704.105	6005.58
704.45	5988.63
704.795	5928.06
705.14	5973.49
705.485	5938.91
705.83	5913.38
706.175	5897.78
706.52	5855.98
706.865	5840.61
707.209	5816.88
707.554	5826.82
707.899	5801.06
708.243	5817.11
708.588	5749.31
708.932	5712.7
709.277	5717.9
709.621	5740.5
709.966	5697.11
710.31	5653.95
710.654	5630.9
710.998	5655.98
711.342	5663.66
711.687	5630.45
712.031	5602.88
712.375	5615.53
712.719	5558.81
713.063	5588.64
713.407	5548.64
713.75	5575.76
714.094	5529.2
714.438	5538.47
714.782	5551.58
715.125	5500.28
715.469	5483.1
715.812	5479.49
716.156	5446.95
716.499	5461.41
716.843	5484.46
717.186	5445.14
717.53	5467.29
717.873	5426.61
718.216	5386.38
718.559	5421.86
718.902	5410.79
719.246	5401.98
719.589	5338.48
719.932	5387.29
720.275	5390.45
720.617	5342.09
720.96	5324.69
721.303	5346.61
721.646	5369.66
721.989	5337.12
722.331	5362.88
722.674	5326.5
723.016	5306.84
723.359	5331.24
723.701	5282.66
724.044	5303.9
724.386	5281.75
724.729	5319.72
725.071	5296.67
725.413	5294.86
725.755	5310.68
726.097	5309.1
726.439	5245.14
726.782	5182.55
727.124	5282.88
727.465	5229.33
727.807	5228.2
728.149	5245.6
728.491	5252.6
728.833	5240.17
729.175	5272.71
729.516	5294.63
729.858	5236.56
730.199	5279.27
730.541	5260.06
730.882	5289.44
731.224	5235.2
731.565	5281.53
731.906	5250.34
732.248	5247.4
732.589	5212.6
732.93	5227.52
733.271	5217.12
733.612	5263.9
733.953	5273.17
734.294	5272.94
734.635	5258.25
734.976	5265.48
735.317	5221.19
735.658	5277.01
735.999	5263.9
736.339	5300.96
736.68	5327.4
737.021	5312.94
737.361	5288.53
737.702	5321.3
738.042	5295.09
738.383	5283.11
738.723	5317.69
739.063	5362.43
739.404	5358.81
739.744	5380.28
740.084	5341.19
740.424	5339.38
740.764	5361.75
741.104	5412.15
741.444	5378.93
741.784	5390.9
742.124	5471.81
742.464	5439.94
742.804	5441.07
743.143	5515.65
743.483	5498.02
743.823	5501.18
744.162	5529.2
744.502	5554.51
744.841	5583.44
745.181	5634.06
745.52	5650.78
745.86	5679.03
746.199	5673.16
746.538	5787.5
746.877	5813.49
747.216	5793.6
747.556	5843.09
747.895	5888.74
748.234	5952.47
748.573	5977.78
748.911	6003.77
749.25	6125.8
749.589	6096.2
749.928	6197.89
750.267	6279.24
750.605	6340.71
750.944	6387.94
751.283	6509.74
751.621	6555.84
751.96	6678.78
752.298	6683.75
752.636	6820.24
752.975	6923.29
753.313	6969.17
753.651	7057.3
753.989	7189.27
754.327	7202.83
754.666	7387.69
755.004	7533.45
755.342	7624.52
755.679	7789.03
756.017	7909.48
756.355	8100.44
756.693	8191.28
757.031	8344.72
757.368	8420.43
757.706	8602.57
758.044	8795.33
758.381	8886.86
758.719	9069.22
759.056	9224.7
759.394	9365.94
759.731	9536.11
760.068	9691.58
760.405	9746.72
760.743	9991.91
761.08	10180.38
761.417	10295.18
761.754	10478
762.091	10634.38
762.428	10811.78
762.765	10964.32
763.102	11154.59
763.438	11350.29
763.775	11475.94
764.112	11636.39
764.449	11883.16
764.785	11973.56
765.122	12154.34
765.458	12268.24
765.795	12529.02
766.131	12605.18
766.467	12752.29
766.804	12860.76
767.14	13045.17
