Data from hue_350_FLMS001491_87.txt Node
Date: Mon Feb 06 15:38:39 GMT 2017
User: dcchb
Spectrometer: FLMS00149
Trigger mode: 0
Integration Time (sec): 2.000000E-2
Scans to average: 10
Electric dark correction enabled: true
Nonlinearity correction enabled: false
Boxcar width: 0
XAxis mode: Wavelengths
Number of Pixels in Spectrum: 2048
>>>>>Begin Spectral Data<<<<<
341.393	-10.9
341.776	-10.9
342.16	-10.9
342.543	-36.44
342.927	-57.68
343.31	-77.57
343.693	-76.21
344.077	-49.32
344.46	-55.87
344.843	-61.07
345.226	-40.28
345.61	-41.19
345.993	-12.94
346.376	8.08
346.759	6.27
347.142	23.9
347.525	41.52
347.908	54.41
348.291	70
348.674	105.25
349.057	105.03
349.44	134.63
349.823	142.76
350.206	179.83
350.588	192.25
350.971	208.98
351.354	219.82
351.737	232.03
352.119	262.54
352.502	256.89
352.884	256.66
353.267	270.9
353.65	284.68
354.032	304.79
354.414	299.82
354.797	297.79
355.179	324.91
355.562	335.08
355.944	314.06
356.326	323.78
356.709	315.87
357.091	328.52
357.473	333.49
357.855	329.88
358.238	358.35
358.62	339.14
359.002	344.12
359.384	349.09
359.766	342.76
360.148	336.21
360.53	348.18
360.912	319.03
361.294	342.31
361.676	337.79
362.057	342.76
362.439	318.81
362.821	335.3
363.203	319.48
363.584	317.45
363.966	309.99
364.348	302.31
364.729	322.87
365.111	330.56
365.493	322.19
365.874	318.35
366.256	330.33
366.637	315.87
367.019	307.96
367.4	325.13
367.781	321.97
368.163	320.39
368.544	304.34
368.925	305.47
369.306	305.7
369.688	323.32
370.069	308.64
370.45	314.29
370.831	317.68
371.212	326.04
371.593	294.4
371.974	317.22
372.355	290.56
372.736	319.03
373.117	319.48
373.498	293.5
373.879	300.5
374.26	317.68
374.641	289.88
375.021	309.09
375.402	312.25
375.783	326.94
376.163	314.74
376.544	329.65
376.925	316.77
377.305	319.71
377.686	306.6
378.066	311.35
378.447	318.58
378.827	327.17
379.208	331.91
379.588	330.1
379.968	324
380.349	339.37
380.729	325.58
381.109	326.94
381.489	325.81
381.87	325.13
382.25	324.45
382.63	352.48
383.01	359.26
383.39	341.18
383.77	342.53
384.15	333.95
384.53	345.47
384.91	322.42
385.29	353.61
385.67	340.27
386.049	337.11
386.429	355.19
386.809	326.49
387.189	346.83
387.568	364
387.948	350.89
388.328	354.28
388.707	346.83
389.087	343.89
389.466	338.69
389.846	363.78
390.225	349.76
390.605	354.96
390.984	352.93
391.363	349.54
391.743	344.79
392.122	385.02
392.501	357
392.881	372.14
393.26	369.43
393.639	373.94
394.018	362.19
394.397	359.03
394.776	360.39
395.155	361.74
395.534	372.59
395.913	375.3
396.292	355.64
396.671	375.75
397.05	384.57
397.429	379.37
397.808	361.29
398.186	373.04
398.565	381.4
398.944	385.02
399.323	394.96
399.701	391.57
400.08	398.8
400.458	393.61
400.837	379.82
401.215	385.24
401.594	407.84
401.972	377.11
402.351	400.38
402.729	400.84
403.107	407.62
403.486	392.7
403.864	388.18
404.242	413.04
404.62	380.27
404.999	418.46
405.377	390.22
405.755	399.26
406.133	415.75
406.511	415.98
406.889	418.69
407.267	431.34
407.645	420.5
408.023	416.88
408.401	413.72
408.779	418.92
409.156	440.16
409.534	453.72
409.912	439.93
410.29	436.99
410.667	426.37
411.045	439.48
411.422	452.14
411.8	444.23
412.178	438.35
412.555	448.75
412.933	472.47
413.31	459.59
413.687	472.47
414.065	457.78
414.442	478.12
414.819	482.64
415.197	469.08
415.574	485.13
415.951	477.22
416.328	502.08
416.705	474.06
417.082	483.77
417.46	505.47
417.837	493.26
418.214	494.17
418.591	493.49
418.967	519.48
419.344	518.8
419.721	523.09
420.098	502.76
420.475	521.29
420.852	522.64
421.228	524.9
421.605	534.62
421.982	533.04
422.358	547.95
422.735	556.31
423.111	532.58
423.488	536.43
423.864	558.8
424.241	550.89
424.617	560.38
424.994	538.46
425.37	549.31
425.746	586.82
426.123	576.88
426.499	575.75
426.875	577.78
427.251	576.2
427.627	595.41
428.003	601.28
428.379	607.39
428.756	627.5
429.132	590.21
429.507	620.49
429.883	620.72
430.259	634.5
430.635	636.31
431.011	638.57
431.387	628.63
431.763	647.84
432.138	627.05
432.514	669.53
432.89	655.29
433.265	655.75
433.641	665.01
434.016	674.95
434.392	687.84
434.767	698.46
435.143	677.89
435.518	688.06
435.894	705.24
436.269	705.91
436.644	714.5
437.02	716.76
437.395	711.11
437.77	719.92
438.145	741.17
438.52	737.1
438.895	731.22
439.271	732.81
439.646	736.2
440.021	761.28
440.395	741.39
440.77	759.02
441.145	773.93
441.52	777.1
441.895	780.94
442.27	777.1
442.645	780.94
443.019	791.79
443.394	786.14
443.769	809.19
444.143	780.49
444.518	800.37
444.892	779.81
445.267	809.19
445.641	792.01
446.016	810.77
446.39	821.16
446.764	819.58
447.139	800.37
447.513	817.78
447.887	830.2
448.262	826.36
448.636	850.99
449.01	840.83
449.384	867.27
449.758	848.73
450.132	867.04
450.506	863.65
450.88	875.17
451.254	870.43
451.628	884.44
452.002	881.05
452.376	898.45
452.75	894.61
453.123	912.91
453.497	919.02
453.871	894.16
454.244	946.59
454.618	931.67
454.992	957.66
455.365	941.39
455.739	935.74
456.112	972.8
456.486	973.25
456.859	963.76
457.232	985
457.606	989.07
457.979	983.87
458.352	1011.44
458.725	1021.84
459.099	1026.13
459.472	1046.92
459.845	1065.68
460.218	1052.57
460.591	1067.03
460.964	1066.36
461.337	1086.24
461.71	1113.36
462.083	1093.25
462.456	1091.67
462.829	1113.59
463.201	1113.36
463.574	1148.16
463.947	1157.43
464.32	1169.86
464.692	1206.92
465.065	1205.34
465.438	1213.47
465.81	1198.56
466.183	1225.9
466.555	1247.59
466.928	1258.89
467.3	1237.65
467.672	1268.84
468.045	1288.95
468.417	1300.93
468.789	1288.72
469.161	1300.93
469.534	1332.11
469.906	1366.01
470.278	1360.13
470.65	1356.74
471.022	1399.91
471.394	1446.01
471.766	1450.75
472.138	1462.5
472.51	1481.03
472.882	1504.54
473.253	1548.83
473.625	1574.82
473.997	1568.94
474.369	1589.28
474.74	1562.61
475.112	1621.37
475.484	1634.7
475.855	1681.71
476.227	1695.49
476.598	1725.55
476.97	1747.69
477.341	1765.09
477.713	1824.08
478.084	1810.97
478.455	1859.78
478.827	1893.91
479.198	1937.07
479.569	1907.24
479.94	1971.42
480.311	1967.58
480.682	2014.58
481.053	2074.01
481.424	2134.58
481.795	2116.27
482.166	2147.91
482.537	2213.44
482.908	2261.13
483.279	2290.96
483.65	2300.22
484.021	2343.16
484.391	2388.13
484.762	2419.77
485.133	2423.83
485.503	2458.64
485.874	2526.43
486.244	2537.73
486.615	2610.27
486.985	2598.52
487.356	2671.51
487.726	2658.4
488.097	2731.4
488.467	2716.03
488.837	2789.7
489.207	2811.17
489.578	2882.35
489.948	2940.88
490.318	2934.78
490.688	2961
491.058	3016.59
491.428	3053.65
491.798	3080.99
492.168	3158.05
492.538	3182.23
492.908	3190.59
493.278	3191.95
493.648	3258.61
494.017	3295.68
494.387	3296.13
494.757	3334.32
495.126	3368.67
495.496	3377.03
495.866	3413.41
496.235	3457.03
496.605	3483.47
496.974	3493.41
497.344	3554.43
497.713	3522.56
498.082	3613.18
498.452	3628.55
498.821	3600.75
499.19	3642.56
499.559	3718.72
499.928	3731.6
500.298	3734.08
500.667	3768.21
501.036	3749.22
501.405	3787.87
501.774	3788.77
502.143	3810.24
502.512	3825.15
502.88	3836.45
503.249	3884.81
503.618	3899.5
503.987	3941.99
504.356	3934.08
504.724	3961.2
505.093	3952.38
505.462	3993.74
505.83	4032.61
506.199	4023.79
506.567	4084.81
506.936	4080.29
507.304	4107.41
507.672	4158.25
508.041	4117.58
508.409	4129.78
508.777	4158.7
509.145	4218.14
509.514	4218.14
509.882	4230.57
510.25	4296.78
510.618	4289.77
510.986	4278.02
511.354	4287.29
511.722	4321.86
512.09	4358.92
512.458	4356.89
512.826	4379.72
513.193	4377.23
513.561	4401.64
513.929	4395.31
514.297	4478.92
514.664	4499.49
515.032	4499.94
515.4	4517.79
515.767	4510.79
516.135	4597.56
516.502	4495.87
516.869	4596.88
517.237	4551.91
517.604	4594.85
517.972	4604.12
518.339	4656.54
518.706	4682.08
519.073	4683.21
519.44	4624.91
519.808	4744.68
520.175	4714.85
520.542	4769.08
520.909	4708.07
521.276	4755.3
521.643	4815.18
522.009	4828.52
522.376	4851.34
522.743	4847.95
523.11	4882.75
523.477	4920.04
523.843	4987.83
524.21	4949.87
524.577	5035.97
524.943	5060.83
525.31	5061.05
525.676	5063.31
526.043	5063.77
526.409	5088.4
526.776	5132.92
527.142	5127.94
527.508	5183.08
527.874	5243.42
528.241	5215.63
528.607	5265.79
528.973	5333.14
529.339	5278.67
529.705	5359.35
530.071	5409.29
530.437	5393.47
530.803	5440.48
531.169	5415.39
531.535	5485.45
531.901	5493.81
532.267	5541.72
532.632	5569.74
532.998	5534.94
533.364	5603.41
533.73	5603.19
534.095	5639.8
534.461	5638.44
534.826	5720.92
535.192	5709.62
535.557	5757.76
535.923	5740.13
536.288	5724.54
536.653	5847.02
537.019	5796.63
537.384	5819.23
537.749	5781.94
538.114	5885.21
538.479	5939.22
538.845	5910.52
539.21	5901.94
539.575	5987.81
539.94	5964.98
540.305	6013.57
540.67	6018.54
541.034	6047.69
541.399	6102.61
541.764	6159.33
542.129	6136.73
542.494	6133.34
542.858	6206.11
543.223	6179.89
543.587	6256.5
543.952	6258.99
544.316	6283.17
544.681	6203.4
545.045	6347.8
545.41	6328.14
545.774	6377.63
546.138	6427.35
546.503	6417.18
546.867	6409.94
547.231	6487.91
547.595	6499.89
547.959	6481.81
548.324	6520.45
548.688	6545.76
549.052	6535.36
549.416	6617.62
549.779	6612.43
550.143	6667.79
550.507	6678.19
550.871	6664.85
551.235	6632.76
551.599	6718.64
551.962	6738.3
552.326	6768.35
552.689	6791.86
553.053	6778.3
553.417	6830.72
553.78	6880.89
554.143	6846.32
554.507	6909.59
554.87	6885.41
555.234	6915.92
555.597	6928.12
555.96	6998.63
556.323	6983.71
556.686	7005.18
557.05	7068.01
557.413	7119.3
557.776	7061.23
558.139	7133.77
558.502	7256.25
558.865	7170.83
559.228	7256.48
559.59	7205.86
559.953	7236.14
560.316	7284.27
560.679	7316.81
561.041	7324.27
561.404	7384.61
561.767	7445.62
562.129	7374.89
562.492	7465.74
562.854	7377.38
563.217	7451.5
563.579	7466.41
563.941	7452.63
564.304	7565.39
564.666	7629.35
565.028	7613.08
565.39	7641.78
565.753	7705.5
566.115	7754.54
566.477	7712.74
566.839	7736.46
567.201	7796.57
567.563	7788.44
567.925	7793.86
568.287	7872.05
568.648	7895.56
569.01	7951.37
569.372	7927.42
569.734	7980.75
570.095	7986.17
570.457	8068.21
570.819	8108.66
571.18	8074.53
571.542	8165.38
571.903	8162.21
572.265	8209.45
572.626	8261.65
572.987	8252.38
573.349	8419.16
573.71	8389.1
574.071	8480.62
574.432	8435.88
574.794	8616.44
575.155	8551.13
575.516	8582.54
575.877	8706.16
576.238	8753.61
576.599	8821.41
576.96	8876.32
577.32	8839.26
577.681	9001.06
578.042	9112.92
578.403	9146.14
578.763	9240.83
579.124	9293.94
579.485	9426.59
579.845	9553.36
580.206	9583.65
580.566	9738.9
580.927	9740.93
581.287	9949.51
581.648	10009.17
582.008	10144.76
582.368	10291.2
582.728	10395.6
583.089	10541.59
583.449	10634.01
583.809	10862.71
584.169	11082.14
584.529	11084.17
584.889	11417.27
585.249	11431.28
585.609	11554.22
585.969	11832.17
586.329	11949.91
586.688	12210.92
587.048	12411.14
587.408	12629.44
587.768	12812.04
588.127	12930.68
588.487	13176.55
588.846	13543.09
589.206	13598
589.565	13897.43
589.925	14130.87
590.284	14436.17
590.643	14614.7
591.003	14932.43
591.362	15152.31
591.721	15414
592.08	15777.61
592.44	16072.29
592.799	16224.6
593.158	16467.99
593.517	16802.67
593.876	17020.06
594.235	17264.35
594.593	17636.54
594.952	18001.28
595.311	18205.34
595.67	18528.27
596.029	18894.14
596.387	19150.4
596.746	19421.13
597.104	19612.31
597.463	19977.27
597.822	20300.65
598.18	20462
598.538	20760.98
598.897	21141.76
599.255	21357.35
599.613	21784
599.972	22004.34
600.33	22358.45
600.688	22521.61
601.046	22916.63
601.404	23139.22
601.762	23407.24
602.12	23763.39
602.478	24073.43
602.836	24263.26
603.194	24453.54
603.552	24824.15
603.91	24958.16
604.268	25374.19
604.625	25552.04
604.983	25864.57
605.341	25984.57
605.698	26434.95
606.056	26680.37
606.413	26797.88
606.771	27163.98
607.128	27418.43
607.485	27429.05
607.843	27736.84
608.2	28149.26
608.557	28359.88
608.914	28440.55
609.272	28871.27
609.629	28990.14
609.986	29291.15
610.343	29436.01
610.7	29807.07
611.057	29991.02
611.414	30150.11
611.771	30459.48
612.127	30677.1
612.484	30725.69
612.841	31063.31
613.198	31082.74
613.554	31333.13
613.911	31669.17
614.267	31739.9
614.624	31993.23
614.98	32055.6
615.337	32443.61
615.693	32459.43
616.05	32486.77
616.406	32908.68
616.762	32899.87
617.118	33002.24
617.475	33215.57
617.831	33395.68
618.187	33556.35
618.543	33805.83
618.899	34082.44
619.255	34156.79
619.611	34171.93
619.967	34390
620.323	34626.15
620.678	34472.26
621.034	34545.7
621.39	34746.6
621.746	34807.39
622.101	35263.65
622.457	35058.23
622.812	35189.07
623.168	35496.86
623.523	35468.16
623.879	35557.43
624.234	35589.06
624.589	35703.64
624.945	35849.17
625.3	36006.68
625.655	36039.67
626.01	36085.32
626.365	36177.98
626.72	36277.18
627.075	36331.42
627.43	36349.27
627.785	36216.62
628.14	36432.66
628.495	36530.73
628.85	36514.01
629.205	36466.56
629.559	36916.71
629.914	36751.29
630.269	36754.46
630.623	36675.82
630.978	36716.72
631.332	37019.08
631.687	37049.36
632.041	36994.23
632.396	36996.03
632.75	36895.92
633.104	36991.97
633.459	36851.18
633.813	36843.04
634.167	37033.55
634.521	36968.69
634.875	36994.9
635.229	37031.74
635.583	36951.74
635.937	36959.88
636.291	37049.14
636.645	36988.35
636.999	36990.16
637.352	36943.6
637.706	36912.87
638.06	37156.03
638.413	37043.49
638.767	36865.19
639.121	37054.56
639.474	36917.16
639.828	36904.74
640.181	36996.48
640.534	37001.23
640.888	37020.89
641.241	36852.53
641.594	36868.58
641.947	37158.74
642.301	36852.76
642.654	36879.88
643.007	36874
643.36	36819.09
643.713	36943.83
644.066	37025.18
644.419	36771.41
644.771	36621.35
645.124	36177.75
645.477	36211.87
645.83	35890.98
646.182	35915.38
646.535	35740.7
646.888	35968.94
647.24	35715.84
647.593	36017.75
647.945	35930.98
648.298	35648.27
648.65	35572.34
649.002	35430.2
649.355	35755.61
649.707	35629.29
650.059	35813.92
650.411	36359.67
650.763	36201.48
651.115	36552.88
651.467	36605.76
651.819	36598.98
652.171	36502.71
652.523	36439.89
652.875	36435.14
653.227	36397.18
653.578	36593.78
653.93	36411.87
654.282	36304.3
654.633	36293
654.985	36428.59
655.337	36329.38
655.688	36317.18
656.039	36369.83
656.391	36122.61
656.742	36184.3
657.094	36317.41
657.445	36535.03
657.796	36316.28
658.147	36253.68
658.498	36304.53
658.849	36184.75
659.2	36292.1
659.551	36086
659.902	36284.64
660.253	36190.63
660.604	36277.63
660.955	36239.22
661.306	36243.74
661.656	36245.09
662.007	36163.29
662.358	36146.11
662.708	36051.42
663.059	36199.44
663.409	35822.96
663.76	36214.13
664.11	36131.65
664.461	36192.44
664.811	36162.61
665.161	36132.55
665.511	36048.71
665.862	36217.75
666.212	36283.74
666.562	36210.06
666.912	36036.51
667.262	36254.13
667.612	36089.39
667.962	36114.47
668.312	36069.5
668.662	36217.97
669.011	36094.59
669.361	35865.67
669.711	36018.43
670.06	35967.36
670.41	35990.64
670.76	35895.95
671.109	36045.1
671.459	36078.54
671.808	35848.49
672.157	35971.2
672.507	35834.03
672.856	35807.82
673.205	35752.22
673.554	35946.12
673.904	35747.03
674.253	35898.21
674.602	35872.9
674.951	35383.19
675.3	35188.17
675.649	35677.42
675.998	35774.6
676.346	35659.8
676.695	35825.44
677.044	35578.22
677.393	35714.03
677.741	35723.52
678.09	35695.95
678.438	35579.57
678.787	35668.16
679.135	35588.84
679.484	35392.91
679.832	35440.59
680.181	35218.9
680.529	35469.29
680.877	35406.24
681.225	35280.82
681.573	35441.5
681.922	35206.25
682.27	35059.81
682.618	35157.89
682.966	35049.87
683.314	35077.21
683.661	35001.51
684.009	34932.13
684.357	34933.94
684.705	34682.2
685.053	34827.5
685.4	34705.25
685.748	34548.87
686.095	34528.98
686.443	34494.63
686.79	34492.6
687.138	34536.44
687.485	34507.74
687.832	34444.46
688.18	34361.98
688.527	34226.84
688.874	34142.32
689.221	34055.77
689.568	33892.16
689.915	33931.25
690.262	33978.94
690.609	33893.29
690.956	33759.73
691.303	33642.9
691.65	33468.22
691.997	33595.9
692.344	33368.78
692.69	33409.01
693.037	33417.37
693.383	33043.59
693.73	33268.9
694.077	33100.99
694.423	33023.48
694.769	33011.73
695.116	32903.03
695.462	32893.77
695.808	32710.95
696.155	32730.61
696.501	32538.52
696.847	32505.08
697.193	32230.28
697.539	32510.28
697.885	32147.8
698.231	32086.56
698.577	32019.21
698.923	31987.13
699.269	31960.01
699.614	31730.86
699.96	31724.99
700.306	31777.64
700.651	31537.19
700.997	31250.42
701.342	31358.22
701.688	31323.87
702.033	31239.12
702.379	31253.36
702.724	31187.82
703.069	31263.3
703.415	30821.96
703.76	30925.91
704.105	30856.53
704.45	30755.52
704.795	30671.68
705.14	30545.81
705.485	30576.54
705.83	30427.62
706.175	30478.01
706.52	30385.81
706.865	30273.95
707.209	30271.24
707.554	30153.27
707.899	30193.73
708.243	29999.38
708.588	29979.72
708.932	29817.92
709.277	29808.43
709.621	29797.58
709.966	29495.21
710.31	29690.91
710.654	29419.51
710.998	29585.83
711.342	29412.28
711.687	29325.27
712.031	29305.84
712.375	29069.69
712.719	29279.4
713.063	29145.39
713.407	29202.34
713.75	29031.95
714.094	29105.62
714.438	28900.88
714.782	28968
715.125	28760.54
715.469	28799.86
715.812	28643.94
716.156	28364.85
716.499	28539.98
716.843	28608.23
717.186	28482.36
717.53	28496.37
717.873	28486.88
718.216	28389.48
718.559	28281.91
718.902	28158.53
719.246	28032.43
719.589	28120.11
719.932	28005.99
720.275	27872.88
720.617	27829.27
720.96	27794.24
721.303	27950.17
721.646	27914.24
721.989	27687.35
722.331	27856.61
722.674	27660.01
723.016	27688.48
723.359	27633.57
723.701	27708.82
724.044	27382.27
724.386	27392.67
724.729	27526.45
725.071	27444.87
725.413	27373.46
725.755	27471.09
726.097	27165.1
726.439	27069.29
726.782	27051.89
727.124	27258.89
727.465	26993.36
727.807	27061.83
728.149	26886.24
728.491	26920.14
728.833	26961.04
729.175	26734.16
729.516	26851.89
729.858	26666.36
730.199	26773.25
730.541	26716.76
730.882	26695.06
731.224	26737.77
731.565	26438.8
731.906	26670.88
732.248	26560.83
732.589	26401.28
732.93	26340.72
733.271	26365.13
733.612	26453.03
733.953	26391.11
734.294	26240.84
734.635	26201.51
734.976	26260.04
735.317	26164.23
735.658	26178.01
735.999	26175.53
736.339	26109.54
736.68	26080.84
737.021	26058.02
737.361	25946.38
737.702	26079.94
738.042	25916.55
738.383	25848.08
738.723	25849.43
739.063	25764.24
739.404	25840.85
739.744	25712.04
740.084	25575.77
740.424	25788.42
740.764	25665.71
741.104	25707.06
741.444	25502.32
741.784	25427.98
742.124	25460.74
742.464	25469.1
742.804	25496.45
743.143	25406.73
743.483	25340.75
743.823	25165.38
744.162	25273.86
744.502	25277.92
744.841	25173.97
745.181	25171.26
745.52	25066.4
745.86	25080.64
746.199	25104.37
746.538	25034.31
746.877	25142.33
747.216	25044.71
747.556	24927.65
747.895	24969.68
748.234	24905.73
748.573	24900.31
748.911	24873.41
749.25	24695.79
749.589	24693.53
749.928	24768.33
750.267	24654.44
750.605	24609.24
750.944	24644.72
751.283	24583.03
751.621	24610.37
751.96	24356.82
752.298	24380.32
752.636	24436.82
752.975	24300.77
753.313	24264.84
753.651	24197.27
753.989	24146.65
754.327	24079.54
754.666	23903.5
755.004	24029.59
755.342	24098.29
755.679	23954.79
756.017	23911.86
756.355	23884.97
756.693	23754.57
757.031	23734.23
757.368	23625.31
757.706	23643.84
758.044	23415.15
758.381	23504.18
758.719	23482.26
759.056	23456.28
759.394	23467.8
759.731	23253.8
760.068	23194.36
760.405	23188.03
760.743	23151.2
