Data from hue_32_FLMS001491_00089.txt Node
Date: Tue Feb 07 17:24:02 GMT 2017
User: dcchb
Spectrometer: FLMS00149
Trigger mode: 0
Integration Time (sec): 2.000000E-2
Scans to average: 10
Electric dark correction enabled: true
Nonlinearity correction enabled: false
Boxcar width: 0
XAxis mode: Wavelengths
Number of Pixels in Spectrum: 2048
>>>>>Begin Spectral Data<<<<<
341.393	-17.23
341.776	-17.23
342.16	-17.23
342.543	-64.01
342.927	-73.5
343.31	-79.83
343.693	-47.29
344.077	-74.4
344.46	-57
344.843	-42.77
345.226	-41.64
345.61	-34.86
345.993	-11.81
346.376	-22.2
346.759	-2.32
347.142	35.65
347.525	20.73
347.908	74.97
348.291	81.07
348.674	86.27
349.057	115.42
349.44	139.15
349.823	132.82
350.206	143.44
350.588	212.37
350.971	197.23
351.354	235.42
351.737	233.61
352.119	267.06
352.502	270.67
352.884	251.91
353.267	277.45
353.65	304.34
354.032	305.02
354.414	291.24
354.797	310.44
355.179	337.56
355.562	316.77
355.944	330.78
356.326	354.28
356.709	332.36
357.091	336.21
357.473	342.76
357.855	331.01
358.238	347.5
358.62	340.73
359.002	327.17
359.384	345.02
359.766	345.02
360.148	326.71
360.53	330.56
360.912	337.11
361.294	341.4
361.676	342.53
362.057	348.63
362.439	315.19
362.821	351.35
363.203	344.57
363.584	325.81
363.966	321.52
364.348	324
364.729	326.71
365.111	322.87
365.493	324.45
365.874	338.24
366.256	300.95
366.637	322.65
367.019	312.93
367.4	311.12
367.781	317.9
368.163	314.29
368.544	323.55
368.925	330.33
369.306	309.31
369.688	303.44
370.069	320.16
370.45	302.53
370.831	306.38
371.212	300.73
371.593	305.47
371.974	310.67
372.355	319.48
372.736	324.23
373.117	313.16
373.498	316.32
373.879	325.36
374.26	323.78
374.641	315.64
375.021	308.64
375.402	307.73
375.783	338.69
376.163	326.94
376.544	331.23
376.925	323.32
377.305	352.7
377.686	313.16
378.066	334.17
378.447	328.3
378.827	319.94
379.208	337.34
379.588	327.17
379.968	350.89
380.349	340.5
380.729	331.01
381.109	339.6
381.489	354.06
381.87	337.56
382.25	339.14
382.63	343.21
383.01	351.35
383.39	343.89
383.77	337.79
384.15	352.93
384.53	330.56
384.91	359.26
385.29	351.12
385.67	355.64
386.049	362.42
386.429	353.38
386.809	362.42
387.189	367.84
387.568	366.94
387.948	378.01
388.328	374.4
388.707	341.18
389.087	350.89
389.466	368.75
389.846	383.21
390.225	360.84
390.605	372.82
390.984	380.5
391.363	366.26
391.743	371.69
392.122	336.66
392.501	373.94
392.881	391.57
393.26	394.74
393.639	396.32
394.018	391.12
394.397	386.83
394.776	392.25
395.155	374.17
395.534	389.09
395.913	383.21
396.292	392.48
396.671	378.46
397.05	397.22
397.429	400.84
397.808	390.67
398.186	404.9
398.565	408.07
398.944	395.41
399.323	412.59
399.701	397.22
400.08	420.5
400.458	421.18
400.837	405.81
401.215	410.78
401.594	400.61
401.972	420.05
402.351	388.63
402.729	411.91
403.107	417.56
403.486	408.75
403.864	415.75
404.242	431.12
404.62	434.51
404.999	424.11
405.377	410.78
405.755	436.32
406.133	429.31
406.511	416.2
406.889	424.79
407.267	430.89
407.645	446.94
408.023	443.77
408.401	452.14
408.779	432.47
409.156	468.63
409.534	459.37
409.912	471.12
410.29	453.49
410.667	482.19
411.045	480.38
411.422	462.53
411.8	451.23
412.178	484.68
412.555	460.5
412.933	470.89
413.31	491
413.687	496.65
414.065	500.27
414.442	490.55
414.819	493.49
415.197	515.41
415.574	511.34
415.951	518.8
416.328	501.63
416.705	519.25
417.082	509.76
417.46	538.23
417.837	527.39
418.214	520.83
418.591	529.42
418.967	525.81
419.344	534.39
419.721	521.96
420.098	541.62
420.475	552.47
420.852	545.24
421.228	550.21
421.605	540.95
421.982	559.93
422.358	543.21
422.735	560.83
423.111	565.8
423.488	550.21
423.864	570.32
424.241	575.3
424.617	571
424.994	589.98
425.37	569.42
425.746	613.26
426.123	586.59
426.499	594.5
426.875	600.83
427.251	604
427.627	618.68
428.003	622.07
428.379	634.96
428.756	625.46
429.132	624.33
429.507	629.08
429.883	636.54
430.259	658.68
430.635	674.95
431.011	641.28
431.387	646.25
431.763	673.6
432.138	653.03
432.514	688.29
432.89	661.17
433.265	679.93
433.641	676.08
434.016	694.39
434.392	702.52
434.767	710.66
435.143	717.44
435.518	684.9
435.894	708.85
436.269	705.91
436.644	737.33
437.02	750.21
437.395	736.2
437.77	754.27
438.145	759.92
438.52	767.83
438.895	769.41
439.271	758.57
439.646	792.47
440.021	787.27
440.395	781.84
440.77	764.67
441.145	784.78
441.52	813.26
441.895	791.34
442.27	816.42
442.645	837.89
443.019	830.43
443.394	836.98
443.769	819.81
444.143	830.2
444.518	828.62
444.892	845.12
445.267	858.45
445.641	849.19
446.016	833.59
446.39	866.14
446.764	830.66
447.139	853.93
447.513	876.76
447.887	886.47
448.262	868.4
448.636	880.15
449.01	887.38
449.384	888.28
449.758	903.65
450.132	925.12
450.506	919.24
450.88	930.77
451.254	922.63
451.628	938
452.002	954.04
452.376	950.2
452.75	943.87
453.123	965.79
453.497	998.11
453.871	1007.15
454.244	1022.97
454.618	985.68
454.992	990.2
455.365	1023.65
455.739	1040.59
456.112	1028.84
456.486	1064.32
456.859	1065
457.232	1090.08
457.606	1079.24
457.979	1083.3
458.352	1092.12
458.725	1136.86
459.099	1135.73
459.472	1139.57
459.845	1163.08
460.218	1180.25
460.591	1153.36
460.964	1173.7
461.337	1211.66
461.71	1203.53
462.083	1232.91
462.456	1242.17
462.829	1239.46
463.201	1253.47
463.574	1274.71
463.947	1314.94
464.32	1296.86
464.692	1326.01
465.065	1344.99
465.438	1344.77
465.81	1374.82
466.183	1380.02
466.555	1419.79
466.928	1445.1
467.3	1454.37
467.672	1468.38
468.045	1487.81
468.417	1499.79
468.789	1477.64
469.161	1536.85
469.534	1567.59
469.906	1577.3
470.278	1618.43
470.65	1632.67
471.022	1680.13
471.394	1699.11
471.766	1719.67
472.138	1730.07
472.51	1787.92
472.882	1815.71
473.253	1818.88
473.625	1860.69
473.997	1903.17
474.369	1919.67
474.74	1963.73
475.112	2007.35
475.484	2048.03
475.855	2103.62
476.227	2132.54
476.598	2182.26
476.97	2211.64
477.341	2266.32
477.713	2286.44
478.084	2354.46
478.455	2421.8
478.827	2437.85
479.198	2509.93
479.569	2525.75
479.94	2622.02
480.311	2694.34
480.682	2747.22
481.053	2789.7
481.424	2898.62
481.795	2900.21
482.166	3010.26
482.537	3053.42
482.908	3134.78
483.279	3206.41
483.65	3267.65
484.021	3375.9
484.391	3451.6
484.762	3476.46
485.133	3580.41
485.503	3634.65
485.874	3739.28
486.244	3788.77
486.615	3871.93
486.985	3967.3
487.356	4067.18
487.726	4151.7
488.097	4229.21
488.467	4293.62
488.837	4429.21
489.207	4469.88
489.578	4600.5
489.948	4683.89
490.318	4762.3
490.688	4805.01
491.058	4910.1
491.428	4984.22
491.798	5082.3
492.168	5209.52
492.538	5292.23
492.908	5334.94
493.278	5456.75
493.648	5491.32
494.017	5586.46
494.387	5712.34
494.757	5763.41
495.126	5817.87
495.496	5872.33
495.866	5924.76
496.235	6094.92
496.605	6182.38
496.974	6160.69
497.344	6263.06
497.713	6372.66
498.082	6443.39
498.452	6491.98
498.821	6591.63
499.19	6673.44
499.559	6738.3
499.928	6832.98
500.298	6835.24
500.667	6948.24
501.036	6983.71
501.405	7039.76
501.774	7105.07
502.143	7172.41
502.512	7219.41
502.88	7321.33
503.249	7353.42
503.618	7446.08
503.987	7463.7
504.356	7475.45
504.724	7565.85
505.093	7644.04
505.462	7760.19
505.83	7800.42
506.199	7844.03
506.567	7910.47
506.936	7965.61
507.304	8030.01
507.672	8057.58
508.041	8130.8
508.409	8248.31
508.777	8328.99
509.145	8382.32
509.514	8340.29
509.882	8401.98
510.25	8462.32
510.618	8462.32
510.986	8567.63
511.354	8682.88
511.722	8728.08
512.09	8796.1
512.458	8751.8
512.826	8886.94
513.193	8989.99
513.561	8919.48
513.929	9010.78
514.297	9090.1
514.664	9133.04
515.032	9161.06
515.4	9188.18
515.767	9321.05
516.135	9341.84
516.502	9278.34
516.869	9476.08
517.237	9516.76
517.604	9466.14
517.972	9600.82
518.339	9586.58
518.706	9684.66
519.073	9691.21
519.44	9746.13
519.808	9854.6
520.175	9885.56
520.542	9951.09
520.909	10003.97
521.276	10025.44
521.643	10140.69
522.009	10194.03
522.376	10247.58
522.743	10254.36
523.11	10319.9
523.477	10408.26
523.843	10494.58
524.21	10558.31
524.577	10615.48
524.943	10679.44
525.31	10697.06
525.676	10824.74
526.043	10914.91
526.409	10896.15
526.776	11058.41
527.142	11036.94
527.508	11168.01
527.874	11178.41
528.241	11249.37
528.607	11290.72
528.973	11358.06
529.339	11413.2
529.705	11500.88
530.071	11591.73
530.437	11629.69
530.803	11680.77
531.169	11802.35
531.535	11739.52
531.901	11763.02
532.267	11927.09
532.632	11980.42
532.998	12049.34
533.364	12057.48
533.73	12133.86
534.095	12201.66
534.461	12226.29
534.826	12304.7
535.192	12375.66
535.557	12489.78
535.923	12464.02
536.288	12491.82
536.653	12520.52
537.019	12550.35
537.384	12641.19
537.749	12662.66
538.114	12669.89
538.479	12782.88
538.845	12707.86
539.21	12752.6
539.575	12832.15
539.94	12907.17
540.305	12995.76
540.67	12925.71
541.034	13103.1
541.399	13133.38
541.764	13197.56
542.129	13215.42
542.494	13255.41
542.858	13351.46
543.223	13369.08
543.587	13440.49
543.952	13453.38
544.316	13460.83
544.681	13558.01
545.045	13602.3
545.41	13660.38
545.774	13810.43
546.138	13752.12
546.503	13762.97
546.867	13868.96
547.231	13939.01
547.595	14023.08
547.959	14047.94
548.324	14079.12
548.688	14114.83
549.052	14167.93
549.416	14279.12
549.779	14220.36
550.143	14282.28
550.507	14393.24
550.871	14401.15
551.235	14385.1
551.599	14474.37
551.962	14589.62
552.326	14517.53
552.689	14657.19
553.053	14572.89
553.417	14637.52
553.78	14891.53
554.143	14790.74
554.507	14898.53
554.87	14949.83
555.234	14942.15
555.597	14991.41
555.96	15134.01
556.323	15176.49
556.686	15182.82
557.05	15265.76
557.413	15234.57
557.776	15338.52
558.139	15407.45
558.502	15498.52
558.865	15403.83
559.228	15585.75
559.59	15642.24
559.953	15677.72
560.316	15807.44
560.679	15745.74
561.041	15855.35
561.404	15920.65
561.767	16068
562.129	15981.44
562.492	16091.95
562.854	16180.76
563.217	16108.45
563.579	16179.18
563.941	16274.09
564.304	16274.09
564.666	16496.91
565.028	16418.72
565.39	16546.18
565.753	16595.89
566.115	16647.42
566.477	16727.19
566.839	16796.11
567.201	16816.9
567.563	16859.61
567.925	16925.6
568.287	16968.76
568.648	17013.28
569.01	17190.45
569.372	17232.71
569.734	17279.94
570.095	17368.07
570.457	17457.56
570.819	17425.25
571.18	17451.24
571.542	17519.48
571.903	17715.41
572.265	17673.38
572.626	17867.5
572.987	17895.52
573.349	17964.22
573.71	18114.27
574.071	18148.17
574.432	18233.81
574.794	18445.11
575.155	18418.44
575.516	18470.87
575.877	18551.55
576.238	18759.22
576.599	18968.94
576.96	18981.14
577.32	19043.06
577.681	19157.86
578.042	19334.58
578.403	19395.82
578.763	19563.04
579.124	19642.36
579.485	19885.97
579.845	19936.14
580.206	20108.57
580.566	20250.26
580.927	20382.46
581.287	20573.64
581.648	20655.22
582.008	21017.7
582.368	21120.97
582.728	21345.37
583.089	21376.1
583.449	21600.51
583.809	21769.54
584.169	22131.79
584.529	22199.59
584.889	22559.58
585.249	22703.53
585.609	22753.7
585.969	23217.86
586.329	23289.05
586.688	23539.44
587.048	23733.1
587.408	23956.6
587.768	24094.45
588.127	24324.95
588.487	24544.83
588.846	24926.97
589.206	25032.05
589.565	25399.5
589.925	25667.29
590.284	25814.86
590.643	26103.66
591.003	26362.19
591.362	26766.7
591.721	26944.09
592.08	27138.21
592.44	27465.66
592.799	27583.85
593.158	27972.54
593.517	28255.02
593.876	28462.7
594.235	28662.92
594.593	28855.91
594.952	29139.06
595.311	29255.22
595.67	29632.16
596.029	30106.5
596.387	30382.2
596.746	30608.4
597.104	30683.2
597.463	30885.46
597.822	31244.77
598.18	31417.42
598.538	31604.54
598.897	31924.75
599.255	31986
599.613	32704.85
599.972	32541.46
600.33	32922.24
600.688	33032.52
601.046	33430.93
601.404	33709.57
601.762	33685.16
602.12	34228.87
602.478	34345.03
602.836	34588.19
603.194	34601.29
603.552	34850.33
603.91	34972.81
604.268	35312.69
604.625	35385.23
604.983	35677.2
605.341	35761.49
605.698	36052.33
606.056	36266.33
606.413	36356.95
606.771	36641.01
607.128	36888.01
607.485	36861.12
607.843	37151.74
608.2	37257.49
608.557	37559.18
608.914	37645.06
609.272	37935.22
609.629	38076.68
609.986	38280.29
610.343	38249.79
610.7	38710.79
611.057	38649.77
611.414	38688.64
611.771	39005.47
612.127	39339.93
612.484	39327.95
612.841	39478.45
613.198	39506.25
613.554	39673.02
613.911	40086.8
614.267	40012.22
614.624	40186.23
614.98	40357.07
615.337	40577.63
615.693	40490.18
616.05	40729.04
616.406	41032.76
616.762	40821.7
617.118	41061.69
617.475	41111.63
617.831	41260.55
618.187	41430.72
618.543	41652.63
618.899	41706.19
619.255	41709.58
619.611	41739.41
619.967	41961.78
620.323	42180.3
620.678	42089.91
621.034	41993.42
621.39	42018.5
621.746	42299.4
622.101	42584.81
622.457	42427.53
622.812	42540.29
623.168	42660.52
623.523	42763.34
623.879	42797.91
624.234	42695.32
624.589	42882.66
624.945	42980.96
625.3	42944.13
625.655	43150.9
626.01	43105.48
626.365	43155.42
626.72	43197.9
627.075	43135.98
627.43	43396.77
627.785	43146.15
628.14	43245.59
628.495	43467.05
628.85	43301.4
629.205	43286.94
629.559	43491.46
629.914	43410.1
630.269	43512.02
630.623	43304.57
630.978	43366.26
631.332	43553.15
631.687	43605.12
632.041	43537.33
632.396	43701.85
632.75	43539.14
633.104	43627.04
633.459	43461.17
633.813	43471.12
634.167	43514.51
634.521	43454.17
634.875	43605.8
635.229	43462.76
635.583	43325.58
635.937	43436.32
636.291	43521.29
636.645	43363.1
636.999	43345.47
637.352	43555.41
637.706	43333.72
638.06	43492.13
638.413	43336.43
638.767	43352.93
639.121	43365.13
639.474	43110.22
639.828	43188.19
640.181	43213.72
640.534	43230.45
640.888	43139.83
641.241	43072.94
641.594	43152.03
641.947	43151.35
642.301	43100.05
642.654	43124.69
643.007	43124.01
643.36	43131.24
643.713	43120.17
644.066	43210.33
644.419	43044.24
644.771	42797.91
645.124	42355.21
645.477	42362.67
645.83	42182.11
646.182	42010.36
646.535	41994.55
646.888	41872.29
647.24	41628
647.593	41922.23
647.945	41771.5
648.298	41702.8
648.65	41666.19
649.002	41597.72
649.355	41825.51
649.707	41798.39
650.059	41819.41
650.411	42282.9
650.763	42406.74
651.115	42648.31
651.467	42477.02
651.819	42618.48
652.171	42559.95
652.523	42530.35
652.875	42434.99
653.227	42387.53
653.578	42577.58
653.93	42582.33
654.282	42319.06
654.633	42282
654.985	42364.93
655.337	42284.48
655.688	42508.66
656.039	42526.96
656.391	42197.03
656.742	42400.41
657.094	42111.15
657.445	42496.68
657.796	42339.85
658.147	42339.62
658.498	42255.1
658.849	42306.18
659.2	42234.99
659.551	42004.94
659.902	42204.71
660.253	42160.64
660.604	42270.47
660.955	42027.09
661.306	42148.67
661.656	42025.51
662.007	42266.18
662.358	42161.55
662.708	42147.54
663.059	42127.88
663.409	41923.13
663.76	42079.52
664.11	42117.93
664.461	42150.47
664.811	42059.85
665.161	42027.31
665.511	41938.28
665.862	41903.25
666.212	42140.53
666.562	42009.46
666.912	41987.77
667.262	41961.55
667.612	41891.5
667.962	41926.75
668.312	41723.37
668.662	42078.84
669.011	41918.62
669.361	41913.42
669.711	41842.46
670.06	41968.33
670.41	41869.13
670.76	41852.85
671.109	41842.69
671.459	41783.48
671.808	41783.25
672.157	41894.89
672.507	41674.1
672.856	41610.37
673.205	41594.56
673.554	41728.79
673.904	41646.08
674.253	41780.31
674.602	41909.8
674.951	41208.35
675.3	41042.48
675.649	41653.54
675.998	41617.38
676.346	41556.14
676.695	41714.1
677.044	41308.46
677.393	41533.77
677.741	41491.73
678.09	41542.35
678.438	41190.27
678.787	41419.87
679.135	41418.29
679.484	41187.56
679.832	41255.58
680.181	41043.38
680.529	41235.7
680.877	41021.01
681.225	41009.03
681.573	41215.13
681.922	40916.83
682.27	40982.59
682.618	40790.51
682.966	40832.09
683.314	40789.38
683.661	40735.6
684.009	40691.98
684.357	40549.39
684.705	40523.85
685.053	40607.01
685.4	40374.02
685.748	40240.92
686.095	40180.58
686.443	40225.78
686.79	40240.47
687.138	40058.1
687.485	40236.85
687.832	40112.56
688.18	40025.78
688.527	39806.35
688.874	39801.83
689.221	39664.21
689.568	39553.03
689.915	39514.16
690.262	39583.76
690.609	39515.06
690.956	39325.24
691.303	39224
691.65	39040.72
691.997	39237.78
692.344	38843.44
692.69	38893.84
693.037	38813.39
693.383	38531.81
693.73	38716.44
694.077	38466.28
694.423	38591.47
694.769	38328.88
695.116	38259.05
695.462	38219.5
695.808	38123.01
696.155	38160.07
696.501	37913.75
696.847	37906.29
697.193	37721.21
697.539	37746.97
697.885	37628.33
698.231	37573.64
698.577	37519.86
698.923	37435.34
699.269	37169.81
699.614	37097.5
699.96	37092.3
700.306	36897.5
700.651	36865.41
700.997	36760.33
701.342	36528.93
701.688	36592.88
702.033	36400.79
702.379	36428.14
702.724	36434.47
703.069	36468.14
703.415	35991.54
703.76	36031.54
704.105	36019.11
704.45	35894.82
704.795	35723.3
705.14	35719.23
705.485	35615.28
705.83	35417.54
706.175	35627.71
706.52	35446.7
706.865	35240.37
707.209	35389.07
707.554	35083.77
707.899	35285.12
708.243	35117.89
708.588	35010.32
708.932	34770.78
709.277	34881.74
709.621	34864.34
709.966	34460.96
710.31	34608.53
710.654	34272.94
710.998	34397.23
711.342	34346.39
711.687	34208.99
712.031	34105.71
712.375	33984.13
712.719	34046.28
713.063	33946.4
713.407	34006.96
713.75	33776.46
714.094	33885.15
714.438	33641.54
714.782	33703.92
715.125	33499.18
715.469	33675.44
715.812	33376.24
716.156	33414.43
716.499	33380.31
716.843	33335.79
717.186	33122.24
717.53	33265.28
717.873	33194.32
718.216	33293.31
718.559	32889.93
718.902	32635.47
719.246	32870.72
719.589	32726.31
719.932	32649.71
720.275	32630.5
720.617	32645.64
720.96	32436.38
721.303	32519.77
721.646	32570.16
721.989	32343.27
722.331	32464.4
722.674	32440.22
723.016	32352.99
723.359	32228.25
723.701	32369.49
724.044	32133.34
724.386	31870.52
724.729	32215.82
725.071	31934.7
725.413	32097.18
725.755	32027.8
726.097	31837.52
726.439	31620.13
726.782	31604.08
727.124	31834.13
727.465	31572.22
727.807	31513.92
728.149	31509.85
728.491	31480.7
728.833	31603.63
729.175	31362.73
729.516	31268.27
729.858	31313.24
730.199	31161.84
730.541	31288.39
730.882	31123.42
731.224	31241.83
731.565	31126.81
731.906	30941.28
732.248	31135.85
732.589	30865.35
732.93	30788.51
733.271	30828.51
733.612	30798.68
733.953	30853.14
734.294	30676.43
734.635	30705.8
734.976	30639.59
735.317	30605.92
735.658	30529.99
735.999	30471.23
736.339	30417
736.68	30532.7
737.021	30390.56
737.361	30295.42
737.702	30468.52
738.042	30294.97
738.383	30284.34
738.723	30160.96
739.063	30114.18
739.404	30275.31
739.744	30089.32
740.084	29963.68
740.424	29961.19
740.764	29851.36
741.104	30024.24
741.444	29832.83
741.784	29709.67
742.124	29818.14
742.464	29820.4
742.804	29708.09
743.143	29676.9
743.483	29741.31
743.823	29446.4
744.162	29446.4
744.502	29537.02
744.841	29395.78
745.181	29418.38
745.52	29291.15
745.86	29414.99
746.199	29307.42
746.538	29252.06
746.877	29309
747.216	29364.37
747.556	29273.75
747.895	29093.87
748.234	29043.47
748.573	29137.26
748.911	29015.68
749.25	28992.85
749.589	28859.3
749.928	28914.66
750.267	28924.15
750.605	28752.41
750.944	28838.51
751.283	28551.06
751.621	28819.07
751.96	28622.02
752.298	28649.13
752.636	28654.11
752.975	28468.8
753.313	28289.14
753.651	28501.57
753.989	28242.59
754.327	28344.28
754.666	28212.99
755.004	28143.84
755.342	28191.29
755.679	28076.49
756.017	27903.84
756.355	28063.84
756.693	27948.59
757.031	28052.09
757.368	27737.75
757.706	27730.29
