Data from hue_34_FLMS001491_00027.txt Node
Date: Tue Feb 07 17:25:24 GMT 2017
User: dcchb
Spectrometer: FLMS00149
Trigger mode: 0
Integration Time (sec): 2.000000E-2
Scans to average: 10
Electric dark correction enabled: true
Nonlinearity correction enabled: false
Boxcar width: 0
XAxis mode: Wavelengths
Number of Pixels in Spectrum: 2048
>>>>>Begin Spectral Data<<<<<
341.393	-14.38
341.776	-14.38
342.16	-14.38
342.543	-73.81
342.927	-67.71
343.31	-74.49
343.693	-57.99
344.077	-57.31
344.46	-48.28
344.843	-57.99
345.226	-37.43
345.61	-25.9
345.993	-20.03
346.376	7.32
346.759	-3.76
347.142	29.01
347.525	45.06
347.908	50.93
348.291	84.15
348.674	83.02
349.057	83.7
349.44	138.84
349.823	167.31
350.206	159.63
350.588	183.36
350.971	225.62
351.354	246.63
351.737	244.37
352.119	256.12
352.502	263.81
352.884	284.6
353.267	273.75
353.65	323.92
354.032	305.16
354.414	292.73
354.797	317.14
355.179	322.11
355.562	328.21
355.944	308.33
356.326	337.48
356.709	345.16
357.091	351.94
357.473	337.7
357.855	333.86
358.238	330.02
358.62	328.44
359.002	338.15
359.384	365.05
359.766	363.92
360.148	350.13
360.53	340.87
360.912	355.1
361.294	332.96
361.676	344.26
362.057	325.73
362.439	319.17
362.821	328.44
363.203	356.01
363.584	319.62
363.966	347.19
364.348	339.96
364.729	327.08
365.111	327.76
365.493	302.9
365.874	300.64
366.256	311.26
366.637	324.14
367.019	313.75
367.4	308.33
367.781	314.2
368.163	342.22
368.544	295.22
368.925	336.8
369.306	331.83
369.688	304.03
370.069	329.12
370.45	339.28
370.831	315.56
371.212	309.46
371.593	318.04
371.974	323.01
372.355	318.27
372.736	321.43
373.117	343.58
373.498	316.69
373.879	335.22
374.26	316.46
374.641	317.82
375.021	314.43
375.402	321.21
375.783	334.54
376.163	324.82
376.544	314.88
376.925	324.37
377.305	346.06
377.686	330.7
378.066	323.24
378.447	324.37
378.827	339.06
379.208	327.76
379.588	343.13
379.968	353.75
380.349	326.86
380.729	344.93
381.109	342.67
381.489	348.1
381.87	344.93
382.25	343.13
382.63	341.09
383.01	360.75
383.39	360.98
383.77	344.48
384.15	324.82
384.53	344.71
384.91	352.84
385.29	334.54
385.67	329.79
386.049	357.82
386.429	352.62
386.809	350.13
387.189	349.91
387.568	359.17
387.948	351.71
388.328	357.14
388.707	372.28
389.087	350.58
389.466	365.72
389.846	370.47
390.225	355.56
390.605	342
390.984	370.7
391.363	389.91
391.743	342.22
392.122	369.79
392.501	376.57
392.881	396.23
393.26	393.29
393.639	365.72
394.018	371.83
394.397	390.36
394.776	389
395.155	382.22
395.534	387.42
395.913	389.23
396.292	387.87
396.671	378.61
397.05	389
397.429	382.45
397.808	399.85
398.186	359.62
398.565	395.33
398.944	371.15
399.323	386.97
399.701	378.15
400.08	413.63
400.458	387.65
400.837	416.8
401.215	398.27
401.594	392.62
401.972	386.74
402.351	397.59
402.729	406.4
403.107	401.88
403.486	423.35
403.864	407.76
404.242	418.15
404.62	403.24
404.999	400.98
405.377	415.44
405.755	404.82
406.133	423.8
406.511	444.59
406.889	432.16
407.267	439.4
407.645	426.29
408.023	431.94
408.401	412.96
408.779	428.1
409.156	443.01
409.534	457.7
409.912	453.18
410.29	449.34
410.667	477.81
411.045	466.97
411.422	452.5
411.8	479.85
412.178	469.45
412.555	448.21
412.933	467.42
413.31	456.8
413.687	468.1
414.065	481.43
414.442	469.22
414.819	469.68
415.197	480.52
415.574	479.62
415.951	477.36
416.328	458.83
416.705	478.26
417.082	495.66
417.46	480.98
417.837	501.54
418.214	493.18
418.591	496.12
418.967	486.4
419.344	511.26
419.721	513.29
420.098	516.68
420.475	514.42
420.852	501.77
421.228	522.1
421.605	509.22
421.982	525.04
422.358	541.77
422.735	543.35
423.111	550.13
423.488	546.74
423.864	530.92
424.241	562.1
424.617	548.09
424.994	539.96
425.37	567.75
425.746	559.39
426.123	576.79
426.499	558.26
426.875	566.85
427.251	559.17
427.627	563.01
428.003	567.98
428.379	606.85
428.756	592.39
429.132	597.13
429.507	619.5
429.883	603.91
430.259	625.61
430.635	619.73
431.011	611.59
431.387	615.21
431.763	644.36
432.138	630.12
432.514	638.71
432.89	635.32
433.265	625.83
433.641	624.25
434.016	650.24
434.392	664.93
434.767	680.52
435.143	657.24
435.518	672.84
435.894	678.48
436.269	684.81
436.644	704.25
437.02	679.16
437.395	685.26
437.77	688.2
438.145	704.25
438.52	704.47
438.895	705.15
439.271	717.58
439.646	722.1
440.021	725.04
440.395	720.74
440.77	733.4
441.145	750.57
441.52	755.32
441.895	771.82
442.27	731.59
442.645	752.16
443.019	742.66
443.394	758.93
443.769	793.28
444.143	757.13
444.518	780.4
444.892	765.26
445.267	765.71
445.641	804.81
446.016	784.7
446.39	800.52
446.764	771.59
447.139	783.34
447.513	825.83
447.887	791.7
448.262	813.4
448.636	800.74
449.01	824.7
449.384	831.25
449.758	845.26
450.132	830.12
450.506	831.02
450.88	857.69
451.254	843.45
451.628	840.74
452.002	846.84
452.376	849.1
452.75	865.6
453.123	867.63
453.497	879.38
453.871	899.27
454.244	927.29
454.618	939.95
454.992	927.52
455.365	920.06
455.739	963
456.112	944.69
456.486	967.74
456.859	975.88
457.232	981.98
457.606	964.58
457.979	988.53
458.352	994.18
458.725	1003.9
459.099	1035.99
459.472	1047.74
459.845	1055.88
460.218	1067.85
460.591	1058.14
460.964	1066.5
461.337	1082.32
461.71	1119.83
462.083	1125.03
462.456	1104.01
462.829	1104.46
463.201	1149.89
463.574	1141.98
463.947	1131.13
464.32	1187.62
464.692	1196.89
465.065	1214.06
465.438	1205.02
465.81	1212.93
466.183	1255.42
466.555	1285.7
466.928	1265.81
467.3	1298.36
467.672	1304.46
468.045	1342.65
468.417	1318.47
468.789	1353.5
469.161	1366.38
469.534	1401.4
469.906	1416.54
470.278	1443.66
470.65	1449.76
471.022	1482.76
471.394	1513.49
471.766	1536.99
472.138	1580.38
472.51	1591.91
472.882	1628.52
473.253	1656.99
473.625	1694.5
473.997	1706.71
474.369	1733.82
474.74	1761.85
475.112	1799.59
475.484	1824.9
475.855	1845.46
476.227	1875.06
476.598	1958.9
476.97	1995.06
477.341	2027.6
477.713	2048.39
478.084	2096.75
478.455	2171.1
478.827	2204.09
479.198	2250.87
479.569	2312.79
479.94	2360.02
480.311	2404.77
480.682	2484.54
481.053	2528.38
481.424	2609.28
481.795	2636.63
482.166	2669.62
482.537	2788.03
482.908	2865.32
483.279	2920.69
483.65	2948.71
484.021	3087.24
484.391	3136.95
484.762	3159.78
485.133	3235.48
485.503	3294.01
485.874	3379.2
486.244	3506.21
486.615	3540.33
486.985	3628.46
487.356	3746.2
487.726	3798.4
488.097	3905.29
488.467	3944.39
488.837	4050.83
489.207	4137.83
489.578	4259.41
489.948	4298.73
490.318	4444.71
490.688	4489.01
491.058	4605.84
491.428	4684.26
491.798	4719.96
492.168	4853.97
492.538	4909.33
492.908	4982.78
493.278	5123.79
493.648	5160.63
494.017	5298.48
494.387	5332.6
494.757	5459.6
495.126	5535.31
495.496	5579.37
495.866	5643.1
496.235	5773.04
496.605	5844
496.974	5903.21
497.344	6003.99
497.713	6053.94
498.082	6140.49
498.452	6207.15
498.821	6239.69
499.19	6338.9
499.559	6388.84
499.928	6509.97
500.298	6509.52
500.667	6618.44
501.036	6642.17
501.405	6737.31
501.774	6794.26
502.143	6911.54
502.512	6886.46
502.88	7038.09
503.249	7031.09
503.618	7113.8
503.987	7177.98
504.356	7238.99
504.724	7254.13
505.093	7288.48
505.462	7331.64
505.83	7409.61
506.199	7532.77
506.567	7670.39
506.936	7640.34
507.304	7712.65
507.672	7730.28
508.041	7838.75
508.409	7878.75
508.777	7952.19
509.145	8027.44
509.514	8032.64
509.882	8104.5
510.25	8161
510.618	8206.2
510.986	8186.99
511.354	8351.96
511.722	8370.71
512.09	8453.65
512.458	8462.46
512.826	8574.32
513.193	8566.64
513.561	8622
513.929	8643.7
514.297	8718.05
514.664	8883.47
515.032	8862.22
515.4	8958.72
515.767	8935.44
516.135	8962.79
516.502	9014.99
516.869	9154.42
517.237	9169.56
517.604	9140.18
517.972	9298.15
518.339	9307.86
518.706	9267.41
519.073	9358.03
519.44	9443
519.808	9509.67
520.175	9465.37
520.542	9598.93
520.909	9688.87
521.276	9604.58
521.643	9732.94
522.009	9737.23
522.376	9906.49
522.743	9861.07
523.11	10085.7
523.477	10018.8
523.843	10071.91
524.21	10242.98
524.577	10224.45
524.943	10332.92
525.31	10305.35
525.676	10436.65
526.043	10519.36
526.409	10525.23
526.776	10613.14
527.142	10632.12
527.508	10682.06
527.874	10764.32
528.241	10857.65
528.607	10818.11
528.973	10993.69
529.339	11014.26
529.705	11099
530.071	11184.2
530.437	11255.16
530.803	11266.68
531.169	11288.6
531.535	11346.23
531.901	11307.36
532.267	11402.95
532.632	11535.83
532.998	11556.39
533.364	11567.92
533.73	11661.25
534.095	11698.76
534.461	11829.83
534.826	11866.89
535.192	11939.66
535.557	12007.68
535.923	12039.09
536.288	12059.2
536.653	12086.32
537.019	12081.12
537.384	12195.47
537.749	12171.52
538.114	12256.03
538.479	12268.46
538.845	12394.56
539.21	12309.59
539.575	12429.59
539.94	12382.36
540.305	12573.54
540.67	12538.96
541.034	12624.61
541.399	12634.55
541.764	12745.51
542.129	12730.82
542.494	12720.65
542.858	12859.18
543.223	12808.11
543.587	12976.01
543.952	12955.45
544.316	13060.98
544.681	13021.44
545.045	13194.99
545.41	13147.31
545.774	13308.66
546.138	13328.32
546.503	13352.5
546.867	13361.99
547.231	13385.95
547.595	13404.93
547.959	13427.75
548.324	13553.4
548.688	13587.3
549.052	13638.82
549.416	13698.48
549.779	13724.24
550.143	13760.85
550.507	13809.89
550.871	13942.32
551.235	13874.3
551.599	14045.59
551.962	14049.21
552.326	14091.01
552.689	14116.32
553.053	14164.91
553.417	14159.03
553.78	14297.11
554.143	14177.57
554.507	14335.75
554.87	14333.95
555.234	14447.61
555.597	14496.65
555.96	14507.73
556.323	14589.98
556.686	14534.84
557.05	14656.2
557.413	14773.26
557.776	14688.29
558.139	14774.61
558.502	14872.46
558.865	14921.27
559.228	15026.36
559.59	15040.59
559.953	15093.47
560.316	15197.43
560.679	15265.67
561.041	15367.14
561.404	15382.28
561.767	15512.22
562.129	15368.49
562.492	15500.92
562.854	15517.87
563.217	15480.81
563.579	15519.9
563.941	15670.18
564.304	15667.24
564.666	15789.5
565.028	15901.14
565.39	15891.19
565.753	16015.48
566.115	16067.68
566.477	16089.15
566.839	16137.06
567.201	16182.48
567.563	16298.19
567.925	16397.62
568.287	16382.48
568.648	16372.31
569.01	16469.26
569.372	16618.63
569.734	16619.76
570.095	16665.64
570.457	16844.39
570.819	16918.06
571.18	16884.61
571.542	16963.93
571.903	17095.45
572.265	17020.2
572.626	17180.2
572.987	17277.14
573.349	17355.11
573.71	17501.77
574.071	17494.31
574.432	17608.44
574.794	17786.96
575.155	17781.09
575.516	17806.62
575.877	17986.05
576.238	18008.65
576.599	18219.49
576.96	18219.27
577.32	18391.01
577.681	18493.16
578.042	18661.74
578.403	18750.78
578.763	18826.93
579.124	18983.09
579.485	19244.32
579.845	19234.38
580.206	19378.33
580.566	19564.32
580.927	19652.68
581.287	19964.98
581.648	19925.89
582.008	20089.95
582.368	20250.85
582.728	20494.24
583.089	20710.95
583.449	20902.13
583.809	21023.26
584.169	21271.39
584.529	21308.45
584.889	21805.84
585.249	21790.92
585.609	21989.11
585.969	22337.8
586.329	22434.98
586.688	22650.34
587.048	22930.33
587.408	23105.69
587.768	23254.16
588.127	23548.39
588.487	23689.18
588.846	24072.67
589.206	24246.9
589.565	24419.1
589.925	24719.43
590.284	24817.06
590.643	25166.88
591.003	25436.03
591.362	25746.07
591.721	25997.14
592.08	26278.04
592.44	26521.65
592.799	26711.7
593.158	26916.44
593.517	27153.95
593.876	27379.03
594.235	27653.82
594.593	27859.47
594.952	28108.05
595.311	28380.13
595.67	28665.32
596.029	29051.52
596.387	29277.73
596.746	29471.63
597.104	29646.31
597.463	29877.49
597.822	30152.74
598.18	30307.54
598.538	30450.36
598.897	30971.47
599.255	30888.76
599.613	31587.28
599.972	31425.47
600.33	31726.93
600.688	31848.51
601.046	32174.61
601.404	32466.35
601.762	32543.86
602.12	32888.71
602.478	33031.76
602.836	33183.62
603.194	33319.66
603.552	33418.19
603.91	33553.1
604.268	33939.76
604.625	34074.44
604.983	34396.24
605.341	34422.91
605.698	34676.01
606.056	34993.29
606.413	35090.24
606.771	35435.54
607.128	35560.05
607.485	35601.41
607.843	35717.11
608.2	35985.58
608.557	36295.85
608.914	36290.66
609.272	36465.79
609.629	36729.51
609.986	36875.27
610.343	36930.41
610.7	37272.33
611.057	37317.07
611.414	37444.75
611.771	37638.87
612.127	37847.45
612.484	38000.22
612.841	38184.84
613.198	37999.31
613.554	38151.62
613.911	38658.28
614.267	38513.87
614.624	38681.1
614.98	38827.76
615.337	39075.44
615.693	39035.22
616.05	39260.52
616.406	39522.66
616.762	39391.37
617.118	39460.29
617.475	39521.31
617.831	39753.16
618.187	39851.01
618.543	39958.13
618.899	40375.52
619.255	40213.04
619.611	40361.74
619.967	40366.48
620.323	40556.53
620.678	40482.86
621.034	40567.38
621.39	40717.88
621.746	40553.14
622.101	41109.51
622.457	40900.25
622.812	40983.64
623.168	41188.15
623.523	41157.42
623.879	41278.1
624.234	41015.5
624.589	41308.6
624.945	41379.11
625.3	41452.78
625.655	41444.87
626.01	41599.89
626.365	41595.83
626.72	41571.65
627.075	41601.93
627.43	41615.04
627.785	41558.54
628.14	41598.76
628.495	41946.78
628.85	41795.6
629.205	41576.62
629.559	41965.99
629.914	41778.87
630.269	41857.52
630.623	41805.99
630.978	41794.92
631.332	41993.78
631.687	42176.15
632.041	41911.98
632.396	42052.76
632.75	41930.73
633.104	41994.46
633.459	41900
633.813	41919.89
634.167	41814.58
634.521	41901.36
634.875	41997.62
635.229	41929.83
635.583	41729.83
635.937	41820.23
636.291	41843.28
636.645	41759.89
636.999	41767.35
637.352	41923.95
637.706	41653
638.06	41822.26
638.413	41742.49
638.767	41693.45
639.121	41821.81
639.474	41590.18
639.828	41607.35
640.181	41630.18
640.534	41633.11
640.888	41497.75
641.241	41374.14
641.594	41420.69
641.947	41540.46
642.301	41432.89
642.654	41413.91
643.007	41505.21
643.36	41467.02
643.713	41532.1
644.066	41514.93
644.419	41318.32
644.771	41073.58
645.124	40635.4
645.477	40700.48
645.83	40397.67
646.182	40288.74
646.535	40243.09
646.888	40326.48
647.24	39989.77
647.593	40421.62
647.945	40225.24
648.298	40044
648.65	40121.06
649.002	39874.74
649.355	40094.17
649.707	39931.24
650.059	40318.8
650.411	40764.44
650.763	40864.32
651.115	41170.53
651.467	40981.61
651.819	40982.06
652.171	40822.74
652.523	40656.64
652.875	40929.4
653.227	40714.27
653.578	40928.27
653.93	40795.17
654.282	40680.37
654.633	40700.48
654.985	40687.83
655.337	40859.35
655.688	40780.71
656.039	40837.66
656.391	40412.36
656.742	40634.04
657.094	40671.78
657.445	40803.31
657.796	40592.92
658.147	40703.42
658.498	40687.83
658.849	40622.29
659.2	40516.99
659.551	40373.26
659.902	40559.92
660.253	40524.89
660.604	40546.36
660.955	40420.94
661.306	40641.95
661.656	40464.33
662.007	40520.38
662.358	40479.7
662.708	40503.88
663.059	40486.48
663.409	40221.4
663.76	40601.05
664.11	40369.87
664.461	40645.8
664.811	40584.1
665.161	40402.41
665.511	40439.93
665.862	40401.96
666.212	40551.33
666.562	40552.01
666.912	40357.44
667.262	40328.74
667.612	40312.92
667.962	40465.91
668.312	40378.46
668.662	40414.84
669.011	40406.48
669.361	40224.56
669.711	40375.29
670.06	40285.81
670.41	40098.92
670.76	40113.15
671.109	40191.12
671.459	40106.37
671.808	40127.17
672.157	40414.16
672.507	40070.9
672.856	40063.44
673.205	40034.29
673.554	40217.11
673.904	40027.96
674.253	40296.65
674.602	40008.52
674.951	39615.31
675.3	39413.06
675.649	39753.84
675.998	39993.38
676.346	39799.26
676.695	40097.11
677.044	39825.03
677.393	40001.29
677.741	39920.17
678.09	39993.84
678.438	39651.25
678.787	39880.62
679.135	39792.94
679.484	39502.1
679.832	39710.68
680.181	39568.76
680.529	39558.14
680.877	39586.84
681.225	39463.91
681.573	39715.65
681.922	39454.41
682.27	39454.41
682.618	39411.7
682.966	39211.03
683.314	39300.75
683.661	39185.5
684.009	39060.3
684.357	38873.19
684.705	39044.93
685.053	39070.47
685.4	38859.63
685.748	38717.71
686.095	38778.27
686.443	38586.19
686.79	38643.59
687.138	38572.4
687.485	38707.54
687.832	38541.22
688.18	38563.36
688.527	38244.73
688.874	38200.89
689.221	38286.08
689.568	38109.14
689.915	37892.2
690.262	37899.65
690.609	37835.02
690.956	37654.46
691.303	37657.4
691.65	37516.84
691.997	37534.24
692.344	37224.19
692.69	37347.8
693.037	37346.67
693.383	37024.42
693.73	37252.89
694.077	36888.38
694.423	37002.73
694.769	36776.97
695.116	36933.8
695.462	36852
695.808	36702.62
696.155	36685
696.501	36472.57
696.847	36352.12
697.193	36152.58
697.539	36333.37
697.885	36127.27
698.231	35884.79
698.577	35935.19
698.923	35832.59
699.269	35708.3
699.614	35496.78
699.96	35550.79
700.306	35530.22
700.651	35402.32
700.997	35080.07
701.342	35227.86
701.688	35148.77
702.033	35080.07
702.379	35001.88
702.724	34843.91
703.069	34938.83
703.415	34511.72
703.76	34463.81
704.105	34552.85
704.45	34608.44
704.795	34206.42
705.14	34211.84
705.485	34220.65
705.83	34117.61
706.175	34042.35
706.52	34007.55
706.865	33904.28
707.209	33966.42
707.554	33687.79
707.899	33805.07
708.243	33539.32
708.588	33492.54
708.932	33374.35
709.277	33320.56
709.621	33403.73
709.966	33072.44
710.31	33196.95
710.654	32836.28
710.998	32947.02
711.342	32991.99
711.687	32890.29
712.031	32814.82
712.375	32653.69
712.719	32782.05
713.063	32615.95
713.407	32785.66
713.75	32427.93
714.094	32549.29
714.438	32343.87
714.782	32314.04
715.125	32204.89
715.469	32443.53
715.812	32113.82
716.156	31979.58
716.499	31986.81
716.843	32050.54
717.186	31832.02
717.53	31980.03
717.873	31905.23
718.216	31818.91
718.559	31659.37
718.902	31444.23
719.246	31551.35
719.589	31420.28
719.932	31254.86
720.275	31265.25
720.617	31309.32
720.96	31270
721.303	31256.21
721.646	31249.88
721.989	31107.06
722.331	31197.23
722.674	31119.04
723.016	30995.43
723.359	31086.95
723.701	31040.62
724.044	30770.35
724.386	30703.68
724.729	30876.56
725.071	30651.71
725.413	30742.78
725.755	30645.83
726.097	30525.84
726.439	30386.86
726.782	30375.56
727.124	30508.44
727.465	30303.24
727.807	30263.47
728.149	30345.05
728.491	30075.23
728.833	30194.32
729.175	30098.28
729.516	29958.62
729.858	30020.54
730.199	29994.32
730.541	29906.42
730.882	29977.83
731.224	29983.03
731.565	29800.66
731.906	29836.81
732.248	29769.02
732.589	29605.63
732.93	29543.26
733.271	29636.37
733.612	29553.66
733.953	29683.82
734.294	29525.86
734.635	29425.75
734.976	29422.81
735.317	29331.06
735.658	29218.3
735.999	29277.96
736.339	29169.71
736.68	29205.87
737.021	29150.28
737.361	29132.43
737.702	29152.99
738.042	29052.88
738.383	28981.47
738.723	29096.04
739.063	28883.17
739.404	28917.06
739.744	28911.41
740.084	28718.43
740.424	28726.56
740.764	28761.81
741.104	28828.03
741.444	28670.29
741.784	28487.47
742.124	28704.64
742.464	28504.65
742.804	28453.8
743.143	28409.06
743.483	28467.58
743.823	28298.32
744.162	28268.27
744.502	28277.76
744.841	28120.48
745.181	28326.8
745.52	28153.47
745.86	28165.9
746.199	28066.92
746.538	28147.14
746.877	28226.24
747.216	28112.79
747.556	28052.68
747.895	27981.27
748.234	27836.87
748.573	27794.16
748.911	27800.03
749.25	27727.49
749.589	27585.12
749.928	27667.15
750.267	27763.42
750.605	27705.8
750.944	27558.46
751.283	27445.92
751.621	27530.21
751.96	27368.63
752.298	27363.89
752.636	27257.67
752.975	27139.48
753.313	27186.71
753.651	27253.83
753.989	27179.26
754.327	27011.8
754.666	26972.48
755.004	27004.8
755.342	27124.12
755.679	26992.82
756.017	26697.01
756.355	26800.51
756.693	26727.74
757.031	26829.66
757.368	26598.03
757.706	26445.49
758.044	26451.14
