Data from hue_300_FLMS001491_00077.txt Node
Date: Tue Feb 07 15:51:12 GMT 2017
User: dcchb
Spectrometer: FLMS00149
Trigger mode: 0
Integration Time (sec): 2.000000E-2
Scans to average: 10
Electric dark correction enabled: true
Nonlinearity correction enabled: false
Boxcar width: 0
XAxis mode: Wavelengths
Number of Pixels in Spectrum: 2048
>>>>>Begin Spectral Data<<<<<
341.393	-2.46
341.776	-2.46
342.16	-2.46
342.543	-60.54
342.927	-64.38
343.31	-57.37
343.693	-76.13
344.077	-61.67
344.46	-74.32
344.843	-60.08
345.226	-37.26
345.61	-29.8
345.993	-28.9
346.376	-11.27
346.759	20.59
347.142	32.57
347.525	62.4
347.908	30.99
348.291	89.74
348.674	100.82
349.057	99.69
349.44	106.01
349.823	144.66
350.206	151.89
350.588	205.67
350.971	193.92
351.354	219.91
351.737	227.14
352.119	260.36
352.502	240.7
352.884	252.68
353.267	254.94
353.65	281.83
354.032	300.13
354.414	292.68
354.797	315.5
355.179	329.96
355.562	295.39
355.944	327.03
356.326	324.31
356.709	345.78
357.091	327.48
357.473	334.26
357.855	331.09
358.238	322.51
358.62	323.18
359.002	318.66
359.384	327.03
359.766	324.09
360.148	342.62
360.53	324.31
360.912	315.27
361.294	324.09
361.676	343.75
362.057	315.73
362.439	324.77
362.821	322.28
363.203	324.09
363.584	325.67
363.966	304.43
364.348	317.76
364.729	326.35
365.111	299.68
365.493	309.4
365.874	332.45
366.256	326.8
366.637	312.11
367.019	304.65
367.4	302.39
367.781	325.22
368.163	326.12
368.544	313.01
368.925	318.44
369.306	313.24
369.688	301.72
370.069	314.82
370.45	299.46
370.831	329.51
371.212	317.76
371.593	322.28
371.974	300.36
372.355	326.35
372.736	313.47
373.117	302.39
373.498	304.2
373.879	313.69
374.26	305.56
374.641	303.52
375.021	303.98
375.402	303.75
375.783	299.46
376.163	327.48
376.544	345.78
376.925	314.6
377.305	336.52
377.686	322.73
378.066	343.3
378.447	324.31
378.827	343.07
379.208	325.44
379.588	329.51
379.968	315.5
380.349	337.65
380.729	336.97
381.109	332.67
381.489	349.85
381.87	328.83
382.25	339
382.63	315.73
383.01	321.83
383.39	333.58
383.77	332
384.15	350.08
384.53	358.21
384.91	326.57
385.29	350.3
385.67	353.24
386.049	329.74
386.429	354.37
386.809	347.36
387.189	352.34
387.568	372.45
387.948	360.7
388.328	366.8
388.707	378.55
389.087	361.15
389.466	358.21
389.846	358.21
390.225	358.21
390.605	359.57
390.984	400.92
391.363	370.19
391.743	400.24
392.122	372.67
392.501	369.74
392.881	386.46
393.26	368.15
393.639	370.64
394.018	365.44
394.397	382.17
394.776	384.88
395.155	373.13
395.534	379.45
395.913	380.81
396.292	376.52
396.671	391.66
397.05	377.87
397.429	388.04
397.808	393.46
398.186	394.82
398.565	416.74
398.944	396.18
399.323	409.06
399.701	402.28
400.08	416.51
400.458	413.12
400.837	416.97
401.215	397.31
401.594	417.87
401.972	405.67
402.351	433.46
402.729	421.94
403.107	420.36
403.486	442.73
403.864	428.27
404.242	454.03
404.62	442.95
404.999	434.59
405.377	428.04
405.755	444.76
406.133	458.1
406.511	458.32
406.889	473.24
407.267	469.85
407.645	456.06
408.023	492.44
408.401	479.34
408.779	491.09
409.156	489.05
409.534	513.46
409.912	502.61
410.29	506.91
410.667	515.95
411.045	530.41
411.422	516.62
411.8	527.92
412.178	544.87
412.555	550.07
412.933	572.22
413.31	589.17
413.687	564.99
414.065	616.74
414.442	571.09
414.819	600.92
415.197	613.57
415.574	610.41
415.951	607.7
416.328	630.52
416.705	655.15
417.082	654.02
417.46	657.64
417.837	685.66
418.214	667.13
418.591	695.6
418.967	696.06
419.344	712.33
419.721	707.35
420.098	725.88
420.475	715.26
420.852	740.57
421.228	767.24
421.605	764.98
421.982	740.12
422.358	758.43
422.735	786.22
423.111	793.68
423.488	808.82
423.864	794.81
424.241	824.64
424.617	822.15
424.994	823.74
425.37	837.97
425.746	853.11
426.123	864.64
426.499	868.03
426.875	865.77
427.251	880.68
427.627	888.37
428.003	890.17
428.379	915.48
428.756	909.83
429.132	955.48
429.507	944.18
429.883	973.34
430.259	963.39
430.635	993.45
431.011	977.4
431.387	1023.28
431.763	1017.85
432.138	1047.91
432.514	1043.16
432.89	1050.85
433.265	1071.86
433.641	1068.02
434.016	1105.08
434.392	1088.81
434.767	1122.26
435.143	1123.39
435.518	1161.58
435.894	1183.95
436.269	1167.23
436.644	1176.72
437.02	1149.83
437.395	1171.52
437.77	1224.4
438.145	1214.46
438.52	1243.39
438.895	1221.92
439.271	1234.12
439.646	1266.44
440.021	1266.21
440.395	1286.1
440.77	1262.59
441.145	1298.75
441.52	1276.6
441.895	1294.68
442.27	1318.19
442.645	1315.7
443.019	1326.32
443.394	1328.35
443.769	1341.24
444.143	1323.38
444.518	1356.15
444.892	1351.86
445.267	1375.36
445.641	1370.84
446.016	1365.42
446.39	1369.26
446.764	1395.47
447.139	1388.47
447.513	1405.19
447.887	1408.58
448.262	1383.27
448.636	1407.67
449.01	1418.3
449.384	1422.14
449.758	1413.1
450.132	1428.01
450.506	1423.95
450.88	1453.55
451.254	1444.74
451.628	1461.23
452.002	1482.02
452.376	1497.84
452.75	1486.99
453.123	1479.31
453.497	1496.26
453.871	1512.76
454.244	1525.19
454.618	1562.02
454.992	1539.87
455.365	1561.8
455.739	1581.46
456.112	1586.65
456.486	1619.42
456.859	1605.41
457.232	1619.42
457.606	1611.06
457.979	1659.42
458.352	1661.45
458.725	1651.28
459.099	1661
459.472	1679.31
459.845	1693.09
460.218	1702.36
460.591	1723.82
460.964	1701
461.337	1770.15
461.71	1771.73
462.083	1752.98
462.456	1787.1
462.829	1806.99
463.201	1791.85
463.574	1813.99
463.947	1836.14
464.32	1873.88
464.692	1875.69
465.065	1888.11
465.438	1899.19
465.81	1902.35
466.183	1875.69
466.555	1966.3
466.928	1948.68
467.3	1939.41
467.672	1985.06
468.045	2010.82
468.417	2002.69
468.789	2042.01
469.161	2052.4
469.534	2067.09
469.906	2099.18
470.278	2115
470.65	2108.45
471.022	2143.93
471.394	2170.14
471.766	2178.95
472.138	2176.24
472.51	2237.26
472.882	2273.41
473.253	2264.15
473.625	2307.54
473.997	2337.37
474.369	2338.95
474.74	2378.72
475.112	2368.78
475.484	2405.16
475.855	2409
476.227	2433.86
476.598	2468.44
476.97	2506.85
477.341	2536.23
477.713	2577.59
478.084	2560.41
478.455	2623.69
478.827	2620.07
479.198	2667.75
479.569	2698.04
479.94	2718.37
480.311	2759.28
480.682	2801.76
481.053	2825.04
481.424	2847.86
481.795	2862.78
482.166	2902.1
482.537	2946.39
482.908	2958.14
483.279	2968.09
483.65	3034.07
484.021	3063.22
484.391	3115.2
484.762	3098.03
485.133	3129.44
485.503	3135.31
485.874	3194.52
486.244	3246.04
486.615	3246.04
486.985	3327.62
487.356	3332.82
487.726	3350
488.097	3377.11
488.467	3429.09
488.837	3453.04
489.207	3485.36
489.578	3531.01
489.948	3535.53
490.318	3567.39
490.688	3551.35
491.058	3630.44
491.428	3639.03
491.798	3658.46
492.168	3689.42
492.538	3712.02
492.908	3749.08
493.278	3807.39
493.648	3796.54
494.017	3871.56
494.387	3863.66
494.757	3896.2
495.126	3880.6
495.496	3909.76
495.866	3909.76
496.235	4004.44
496.605	4001.05
496.974	4020.49
497.344	3998.57
497.713	4042.86
498.082	4076.76
498.452	4080.82
498.821	4109.98
499.19	4108.17
499.559	4126.47
499.928	4152.91
500.298	4106.59
500.667	4199.24
501.036	4207.83
501.405	4216.19
501.774	4200.37
502.143	4250.54
502.512	4239.46
502.88	4288.73
503.249	4297.54
503.618	4313.81
503.987	4298.9
504.356	4345.9
504.724	4365.79
505.093	4381.16
505.462	4351.33
505.83	4403.53
506.199	4404.43
506.567	4463.41
506.936	4456.86
507.304	4492.57
507.672	4509.97
508.041	4526.69
508.409	4522.4
508.777	4603.52
509.145	4547.25
509.514	4579.34
509.882	4599.23
510.25	4592.9
510.618	4644.88
510.986	4604.65
511.354	4651.88
511.722	4682.84
512.09	4743.86
512.458	4716.51
512.826	4722.39
513.193	4697.53
513.561	4769.85
513.929	4708.61
514.297	4712.22
514.664	4749.06
515.032	4812.33
515.4	4826.34
515.767	4830.41
516.135	4834.7
516.502	4817.3
516.869	4878.32
517.237	4899.79
517.604	4842.16
517.972	4875.83
518.339	4917.64
518.706	4940.24
519.073	4918.54
519.44	4975.72
519.808	4991.76
520.175	4989.05
520.542	4953.34
520.909	5046.68
521.276	5039.44
521.643	4973.68
522.009	5086.9
522.376	5083.28
522.743	5129.61
523.11	5199.44
523.477	5156.5
523.843	5186.56
524.21	5282.15
524.577	5263.39
524.943	5282.83
525.31	5290.96
525.676	5333.9
526.043	5332.77
526.409	5358.08
526.776	5389.94
527.142	5427.23
527.508	5431.3
527.874	5494.35
528.241	5493.44
528.607	5537.06
528.973	5559.2
529.339	5534.8
529.705	5558.53
530.071	5616.83
530.437	5625.42
530.803	5612.31
531.169	5724.4
531.535	5693.21
531.901	5714
532.267	5728.01
532.632	5791.97
532.998	5764.17
533.364	5778.41
533.73	5809.37
534.095	5887.33
534.461	5938.86
534.826	5921.91
535.192	5917.39
535.557	5968.01
535.923	5918.29
536.288	6011.17
536.653	6061.56
537.019	5980.89
537.384	6063.6
537.749	6077.16
538.114	6086.2
538.479	6116.03
538.845	6135.23
539.21	6131.17
539.575	6151.5
539.94	6268.56
540.305	6211.62
540.67	6224.05
541.034	6284.38
541.399	6266.08
541.764	6292.29
542.129	6384.95
542.494	6365.74
542.858	6406.41
543.223	6398.96
543.587	6451.38
543.952	6434.89
544.316	6513.3
544.681	6493.64
545.045	6525.05
545.41	6584.94
545.774	6616.8
546.138	6607.54
546.503	6588.1
546.867	6627.65
547.231	6713.98
547.595	6707.2
547.959	6710.59
548.324	6716.46
548.688	6707.65
549.052	6782
549.416	6814.76
549.779	6827.65
550.143	6810.24
550.507	6836.01
550.871	6879.4
551.235	6898.15
551.599	6933.63
551.962	6955.1
552.326	6941.09
552.689	7071.03
553.053	6976.12
553.417	6946.74
553.78	7109.9
554.143	7075.55
554.507	7102.44
554.87	7120.07
555.234	7174.08
555.597	7156
555.96	7183.12
556.323	7205.71
556.686	7183.79
557.05	7204.13
557.413	7298.82
557.776	7287.52
558.139	7289.78
558.502	7304.92
558.865	7306.95
559.228	7334.07
559.59	7406.61
559.953	7373.39
560.316	7465.82
560.679	7487.97
561.041	7485.93
561.404	7502.2
561.767	7525.93
562.129	7509.21
562.492	7644.57
562.854	7590.79
563.217	7627.17
563.579	7622.88
563.941	7697.45
564.304	7706.72
564.666	7745.36
565.028	7746.27
565.39	7773.16
565.753	7800.5
566.115	7805.47
566.477	7859.26
566.839	7914.17
567.201	7948.52
567.563	7901.97
567.925	7976.54
568.287	7968.63
568.648	8005.92
569.01	8061.96
569.372	8118.68
569.734	8089.99
570.095	8181.96
570.457	8174.95
570.819	8189.64
571.18	8226.93
571.542	8255.86
571.903	8350.77
572.265	8386.47
572.626	8379.69
572.987	8456.53
573.349	8424.44
573.71	8521.16
574.071	8526.58
574.432	8594.15
574.794	8741.95
575.155	8739.23
575.516	8732
575.877	8880.47
576.238	8913.69
576.599	9040.92
576.96	9105.55
577.32	9170.63
577.681	9242.95
578.042	9301.48
578.403	9406.79
578.763	9539.66
579.124	9572.66
579.485	9650.17
579.845	9885.87
580.206	9925.42
580.566	10045.19
580.927	10152.76
581.287	10327.67
581.648	10393.65
582.008	10583.03
582.368	10675
582.728	10883.81
583.089	11054.65
583.449	11187.76
583.809	11376.45
584.169	11553.85
584.529	11804.01
584.889	11927.62
585.249	12094.17
585.609	12278.35
585.969	12627.94
586.329	12745.91
586.688	12934.83
587.048	13188.61
587.408	13429.73
587.768	13715.6
588.127	13916.95
588.487	14099.32
588.846	14452.98
589.206	14610.04
589.565	14819.75
589.925	15190.82
590.284	15443.24
590.643	15724.36
591.003	15934.52
591.362	16316.89
591.721	16485.7
592.08	16899.92
592.44	17233.47
592.799	17498.78
593.158	17650.19
593.517	18078.65
593.876	18259.89
594.235	18491.07
594.593	18857.84
594.952	19199.98
595.311	19519.74
595.67	19824.59
596.029	20160.85
596.387	20472.26
596.746	20892.59
597.104	20999.25
597.463	21347.94
597.822	21698.89
598.18	21863.41
598.538	22196.05
598.897	22560.79
599.255	22691.18
599.613	23290.72
599.972	23494.78
600.33	23704.94
600.688	23927.99
601.046	24339.05
601.404	24730.45
601.762	24868.3
602.12	25250.44
602.478	25528.17
602.836	25751.44
603.194	25906.01
603.552	26367.47
603.91	26424.87
604.268	26689.04
604.625	26942.37
604.983	27209.03
605.341	27394.11
605.698	27742.8
606.056	28058.27
606.413	28202.68
606.771	28683.34
607.128	28711.59
607.485	28956.33
607.843	29064.12
608.2	29389.31
608.557	29795.18
608.914	29887.38
609.272	30195.62
609.629	30437.65
609.986	30775.26
610.343	30677.87
610.7	31109.94
611.057	31236.72
611.414	31542.93
611.771	31623.38
612.127	31960.32
612.484	32139.52
612.841	32393.53
613.198	32328.44
613.554	32535.44
613.911	32959.84
614.267	33023.11
614.624	33242.77
614.98	33355.08
615.337	33731.57
615.693	33607.28
616.05	33769.08
616.406	34123.2
616.762	34233.25
617.118	34331.1
617.475	34335.85
617.831	34461.04
618.187	34569.74
618.543	34882.27
618.899	35160.01
619.255	35328.59
619.611	35254.92
619.967	35565.87
620.323	35668.92
620.678	35662.14
621.034	35621.24
621.39	35917.05
621.746	35865.07
622.101	36342.8
622.457	36155.24
622.812	36479.52
623.168	36552.74
623.523	36529.24
623.879	36598.61
624.234	36493.53
624.589	36829.12
624.945	36880.87
625.3	37067.98
625.655	37021.65
626.01	37088.54
626.365	37266.17
626.72	37190.01
627.075	37264.36
627.43	37397.46
627.785	37314.98
628.14	37410.8
628.495	37450.57
628.85	37546.61
629.205	37423.45
629.559	37784.57
629.914	37494.64
630.269	37688.75
630.623	37613.5
630.978	37600.85
631.332	37855.3
631.687	37922.65
632.041	37736.66
632.396	37914.96
632.75	37765.81
633.104	37893.5
633.459	37747.51
633.813	37931.69
634.167	37810.11
634.521	37878.81
634.875	37889.43
635.229	37804.23
635.583	37838.58
635.937	37882.2
636.291	37871.12
636.645	37887.85
636.999	37694.18
637.352	37852.37
637.706	37897.11
638.06	38004.68
638.413	37816.89
638.767	37799.49
639.121	37872.48
639.474	37697.34
639.828	37738.7
640.181	37866.38
640.534	37774.18
640.888	37710.45
641.241	37635.2
641.594	37734.86
641.947	37885.13
642.301	37719.26
642.654	37800.16
643.007	37862.76
643.36	37818.92
643.713	37756.1
644.066	37889.88
644.419	37662.54
644.771	37515.65
645.124	37105.49
645.477	37036.79
645.83	36823.69
646.182	36870.47
646.535	36677.26
646.888	36702.34
647.24	36508.45
647.593	36744.82
647.945	36724.49
648.298	36643.81
648.65	36507.99
649.002	36385.51
649.355	36663.7
649.707	36443.36
650.059	36702.11
650.411	37169.22
650.763	37229.33
651.115	37553.84
651.467	37329.67
651.819	37435.65
652.171	37303.68
652.523	37224.59
652.875	37187.75
653.227	37141.2
653.578	37385.49
653.93	37393.17
654.282	37255.55
654.633	37140.75
654.985	37251.7
655.337	37239.28
655.688	37245.38
656.039	37303.45
656.391	37142.33
656.742	37236.79
657.094	37062.33
657.445	37128.32
657.796	37190.91
658.147	37089.22
658.498	37193.4
658.849	37223
659.2	37121.09
659.551	36945.95
659.902	37144.36
660.253	37091.48
660.604	37250.12
660.955	37028.66
661.306	37048.77
661.656	37031.37
662.007	37026.17
662.358	37105.49
662.708	37046.06
663.059	37108.43
663.409	36845.16
663.76	37044.48
664.11	36949.57
664.461	37053.29
664.811	37099.17
665.161	37051.94
665.511	36948.66
665.862	37096
666.212	37149.56
666.562	37100.3
666.912	37081.54
667.262	36925.16
667.612	36987.76
667.962	37046.74
668.312	36964.71
668.662	37254.87
669.011	37035.44
669.361	36934.42
669.711	36892.17
670.06	36912.05
670.41	36914.76
670.76	36864.37
671.109	37046.96
671.459	36964.03
671.808	36729.46
672.157	36917.02
672.507	36640.65
672.856	36616.47
673.205	36715.45
673.554	36725.16
673.904	36632.96
674.253	36805.84
674.602	36782.11
674.951	36283.82
675.3	36111.85
675.649	36641.1
675.998	36550.93
676.346	36674.54
676.695	36656.47
677.044	36510.03
677.393	36529.69
677.741	36656.01
678.09	36495.79
678.438	36455.11
678.787	36539.63
679.135	36462.57
679.484	36346.64
679.832	36391.84
680.181	36127.89
680.529	36341.9
680.877	36191.39
681.225	36157.04
681.573	36357.04
681.922	36176.48
682.27	35975.81
682.618	36068.68
682.966	36054.22
683.314	35965.41
683.661	35840.22
684.009	35812.19
684.357	35677.51
684.705	35614.46
685.053	35788.01
685.4	35703.72
685.748	35406.1
686.095	35555.03
686.443	35471.64
686.79	35214.92
687.138	35352.09
687.485	35296.05
687.832	35183.74
688.18	35400.23
688.527	35105.09
688.874	34979.45
689.221	34915.72
689.568	34926.34
689.915	34705.33
690.262	34765.44
690.609	34713.24
690.956	34451.33
691.303	34574.94
691.65	34303.31
691.997	34406.13
692.344	34146.02
692.69	34138.34
693.037	34256.08
693.383	33956.42
693.73	34018.57
694.077	33884.34
694.423	33907.61
694.769	33792.36
695.116	33610.9
695.462	33593.5
695.808	33415.65
696.155	33657.45
696.501	33373.84
696.847	33299.72
697.193	33208.19
697.539	33127.29
697.885	32816.79
698.231	32832.61
698.577	32868.09
698.923	32788.32
699.269	32719.39
699.614	32599.17
699.96	32427.42
700.306	32399.85
700.651	32230.37
700.997	32161.89
701.342	32190.59
701.688	32113.08
702.033	32069.92
702.379	32004.61
702.724	31915.8
703.069	31984.95
703.415	31553.55
703.76	31527.11
704.105	31631.06
704.45	31502.02
704.795	31224.29
705.14	31080.79
705.485	31181.58
705.83	31042.6
706.175	31115.14
706.52	30953.11
706.865	30898.2
707.209	30833.79
707.554	30727.36
707.899	30819.78
708.243	30691.88
708.588	30734.14
708.932	30545.44
709.277	30472.9
709.621	30454.37
709.966	30173.25
710.31	30399.68
710.654	30154.04
710.998	30103.42
711.342	30202.4
711.687	30010.31
712.031	29975.96
712.375	29809.19
712.719	29875.85
713.063	29815.06
713.407	29900.03
713.75	29779.36
714.094	29721.28
714.438	29631.79
714.782	29517.44
715.125	29358.8
715.469	29399.03
715.812	29311.57
716.156	29176.44
716.499	29086.95
716.843	29165.82
717.186	29010.11
717.53	29236.32
717.873	29105.93
718.216	28977.8
718.559	28938.93
718.902	28777.12
719.246	28922.88
719.589	28730.8
719.932	28695.09
720.275	28635.21
720.617	28616
720.96	28530.58
721.303	28543.91
721.646	28610.35
721.989	28444.48
722.331	28527.19
722.674	28234.54
723.016	28290.58
723.359	28242.45
723.701	28284.03
724.044	28124.03
724.386	27987.99
724.729	28131.94
725.071	27944.15
725.413	27988.44
725.755	27901.67
726.097	27847.21
726.439	27762.01
726.782	27859.18
727.124	27963.59
727.465	27617.83
727.807	27700.09
728.149	27627.55
728.491	27613.09
728.833	27602.24
729.175	27479.08
729.516	27418.97
729.858	27447.22
730.199	27545.07
730.541	27451.06
730.882	27265.53
731.224	27487.22
731.565	27260.33
731.906	27368.57
732.248	27293.32
732.589	27208.13
732.93	27072.99
733.271	27159.54
733.612	27129.26
733.953	27063.05
734.294	27060.33
734.635	26987.79
734.976	26976.72
735.317	26795.93
735.658	26798.42
735.999	26852.66
736.339	26837.29
736.68	26861.69
737.021	26686.78
737.361	26676.16
737.702	26783.73
738.042	26744.86
738.383	26588.93
738.723	26697.86
739.063	26687.46
739.404	26625.99
739.744	26543.74
740.084	26363.18
740.424	26515.72
740.764	26384.65
741.104	26457.64
741.444	26157.76
741.784	26167.93
742.124	26230.52
742.464	26279.34
742.804	26207.02
743.143	26083.64
743.483	26175.16
743.823	26114.14
744.162	26041.6
744.502	26008.16
744.841	25852.91
745.181	26019.23
745.52	25974.03
745.86	25970.64
746.199	25957.99
746.538	25866.24
746.877	25977.42
747.216	25830.54
747.556	25809.97
747.895	25834.6
748.234	25742.4
748.573	25750.09
748.911	25769.07
749.25	25619.69
749.589	25616.08
749.928	25749.18
750.267	25665.79
750.605	25702.63
750.944	25542.41
751.283	25413.6
751.621	25429.64
751.96	25400.94
752.298	25225.81
752.636	25284.34
752.975	25263.54
753.313	25103.1
753.651	25383.77
753.989	25182.19
754.327	25162.08
754.666	25044.57
755.004	25196.2
755.342	25210.44
755.679	25107.39
756.017	24929.99
756.355	24947.85
756.693	24872.59
757.031	24911.46
757.368	24842.99
757.706	24762.54
758.044	24741.98
758.381	24855.87
758.719	24764.8
759.056	24711.47
759.394	24726.38
