Data from White_reflection_standard_Reflection_00007.txt Node
Date: Mon Feb 06 14:42:24 GMT 2017
User: dcchb
Spectrometer: FLMS00149
Trigger mode: 0
Integration Time (sec): 2.000000E-2
Scans to average: 10
Electric dark correction enabled: true
Nonlinearity correction enabled: false
Boxcar width: 0
XAxis mode: Wavelengths
Number of Pixels in Spectrum: 2048
>>>>>Begin Spectral Data<<<<<
341.393	-230.1
341.776	-230.1
342.16	-230.1
342.543	-29.51
342.927	-313.13
343.31	-220.19
343.693	-58.47
344.077	-75.05
344.46	155.07
344.843	-11.76
345.226	370.7
345.61	-13.48
345.993	170.75
346.376	-224.43
346.759	-45.27
347.142	0.86
347.525	222.77
347.908	149.09
348.291	-531.28
348.674	70.91
349.057	-172.25
349.44	81.99
349.823	-164.4
350.206	63.36
350.588	93.74
350.971	87.74
351.354	69.44
351.737	82.02
352.119	122.24
352.502	103.12
352.884	104.56
353.267	93.08
353.65	76.74
354.032	104.05
354.414	109.78
354.797	74.32
355.179	99.87
355.562	74.45
355.944	100.1
356.326	93.27
356.709	86.26
357.091	101.81
357.473	92.61
357.855	105.52
358.238	96.4
358.62	86.26
359.002	81.35
359.384	67.12
359.766	97.92
360.148	87.88
360.53	63.97
360.912	92.85
361.294	88.68
361.676	106.29
362.057	100.24
362.439	91.94
362.821	83.7
363.203	91.27
363.584	84.22
363.966	73.64
364.348	77.12
364.729	93.94
365.111	120.18
365.493	87.66
365.874	91.08
366.256	83.09
366.637	84.67
367.019	92.72
367.4	95.01
367.781	88.01
368.163	80.1
368.544	91.16
368.925	76.9
369.306	109.48
369.688	91.52
370.069	97.96
370.45	87.73
370.831	104.83
371.212	100.76
371.593	84.46
371.974	91.38
372.355	87.87
372.736	94
373.117	89.22
373.498	85.14
373.879	83.63
374.26	87.22
374.641	85.53
375.021	83.87
375.402	87.91
375.783	82.55
376.163	98.57
376.544	93.84
376.925	99.6
377.305	80.51
377.686	88.24
378.066	94.04
378.447	82.69
378.827	94.71
379.208	91.33
379.588	93.24
379.968	100.31
380.349	88.44
380.729	88.13
381.109	95.89
381.489	90.09
381.87	97.77
382.25	89.98
382.63	89.95
383.01	92.7
383.39	93.56
383.77	94.1
384.15	87.46
384.53	92.55
384.91	94.8
385.29	94.88
385.67	87.66
386.049	88.73
386.429	84.21
386.809	89.62
387.189	90.34
387.568	98.25
387.948	100.07
388.328	91.95
388.707	99.37
389.087	89.23
389.466	95.94
389.846	85.92
390.225	92.19
390.605	90.82
390.984	88.77
391.363	93.46
391.743	94.32
392.122	97.62
392.501	95.06
392.881	88.57
393.26	89.41
393.639	93.45
394.018	89.71
394.397	95.57
394.776	96.97
395.155	91.71
395.534	94.66
395.913	90.25
396.292	91.69
396.671	97.01
397.05	95.46
397.429	89.45
397.808	89.88
398.186	90.61
398.565	90.76
398.944	94.51
399.323	93.84
399.701	90.8
400.08	91.77
400.458	92.91
400.837	96.85
401.215	91.19
401.594	91.48
401.972	93.02
402.351	90.09
402.729	90.92
403.107	95.04
403.486	94.09
403.864	91.57
404.242	96.04
404.62	92.4
404.999	92.42
405.377	92.29
405.755	96.66
406.133	93.54
406.511	93.86
406.889	95.35
407.267	92.84
407.645	95.17
408.023	95.42
408.401	91.79
408.779	92.96
409.156	95.67
409.534	95.41
409.912	95.09
410.29	92.93
410.667	93.82
411.045	94.6
411.422	93.86
411.8	92.52
412.178	94.6
412.555	93.96
412.933	93.19
413.31	95.19
413.687	91.41
414.065	92.72
414.442	94.24
414.819	93.45
415.197	95.28
415.574	92.87
415.951	91.19
416.328	94.15
416.705	91.39
417.082	93.95
417.46	92.83
417.837	95.16
418.214	94.67
418.591	93
418.967	92.67
419.344	93.01
419.721	93.46
420.098	95.17
420.475	94.62
420.852	93.44
421.228	90.3
421.605	93.62
421.982	93.47
422.358	94.18
422.735	94.27
423.111	92.83
423.488	92.2
423.864	94.08
424.241	91.22
424.617	94.87
424.994	91.53
425.37	92.31
425.746	92.43
426.123	93.84
426.499	93.7
426.875	94.45
427.251	90.89
427.627	93.64
428.003	90.85
428.379	93.26
428.756	93.68
429.132	92.7
429.507	94.43
429.883	93.06
430.259	91.74
430.635	94
431.011	94.21
431.387	93.5
431.763	93.69
432.138	93.9
432.514	94.18
432.89	92.72
433.265	92.85
433.641	93.04
434.016	94.35
434.392	93.26
434.767	92.7
435.143	94.44
435.518	92.54
435.894	91.48
436.269	93.41
436.644	95.43
437.02	92.96
437.395	94.65
437.77	94.1
438.145	92.94
438.52	93.42
438.895	92.61
439.271	93.07
439.646	92.62
440.021	92.73
440.395	94.12
440.77	95.21
441.145	93.24
441.52	92.1
441.895	92.93
442.27	93.07
442.645	92.91
443.019	93.31
443.394	94.6
443.769	93.92
444.143	93.92
444.518	92.11
444.892	94.07
445.267	93.54
445.641	93.5
446.016	93.19
446.39	92.8
446.764	92.96
447.139	93.89
447.513	93.55
447.887	93.25
448.262	94.68
448.636	92.89
449.01	93.14
449.384	93.59
449.758	92.83
450.132	93.24
450.506	92.97
450.88	93.47
451.254	93.9
451.628	92.39
452.002	93.84
452.376	93.77
452.75	93.12
453.123	94.49
453.497	93.76
453.871	92.91
454.244	93.08
454.618	93.83
454.992	93.5
455.365	93.31
455.739	92.14
456.112	93.34
456.486	93.62
456.859	93.38
457.232	92.93
457.606	92.56
457.979	93.7
458.352	94.23
458.725	93.16
459.099	93.5
459.472	92.76
459.845	93.3
460.218	92.33
460.591	94.35
460.964	93.47
461.337	93.22
461.71	93.44
462.083	93.23
462.456	93.61
462.829	92.68
463.201	93.88
463.574	93.44
463.947	94.07
464.32	94.54
464.692	92.99
465.065	93.25
465.438	92.84
465.81	92.47
466.183	93.06
466.555	92.67
466.928	92.95
467.3	93.57
467.672	92.7
468.045	93.35
468.417	94.03
468.789	93.44
469.161	92.66
469.534	93.32
469.906	93.77
470.278	93.36
470.65	92.5
471.022	92.98
471.394	93.23
471.766	92.62
472.138	93.83
472.51	92.69
472.882	93.36
473.253	93.36
473.625	92.61
473.997	92.74
474.369	93.23
474.74	93.23
475.112	93.81
475.484	92.7
475.855	92.48
476.227	92.64
476.598	93.67
476.97	93.46
477.341	93.16
477.713	92.98
478.084	93.21
478.455	92.69
478.827	92.46
479.198	93.16
479.569	93.95
479.94	93.1
480.311	93.48
480.682	92.92
481.053	93.44
481.424	92.95
481.795	92.88
482.166	93.88
482.537	93.23
482.908	93.02
483.279	92.67
483.65	93.82
484.021	93.69
484.391	93.37
484.762	93.95
485.133	92.81
485.503	93.58
485.874	92.99
486.244	93.19
486.615	93.37
486.985	93.17
487.356	93.77
487.726	93.2
488.097	93.31
488.467	93.72
488.837	93.44
489.207	93.42
489.578	93.36
489.948	93.5
490.318	92.84
490.688	93.09
491.058	93.17
491.428	93.51
491.798	93.5
492.168	93.29
492.538	93.3
492.908	93.75
493.278	93.79
493.648	93.09
494.017	93.23
494.387	93.35
494.757	93.96
495.126	93.39
495.496	93.38
495.866	92.7
496.235	93.16
496.605	92.97
496.974	93.81
497.344	93.62
497.713	93.45
498.082	94.1
498.452	93.25
498.821	93.36
499.19	93.79
499.559	92.85
499.928	93.43
500.298	93.55
500.667	93.84
501.036	93.38
501.405	93.13
501.774	93.05
502.143	93.67
502.512	93.54
502.88	93.48
503.249	93.25
503.618	93.38
503.987	93.45
504.356	93.2
504.724	93.62
505.093	93.52
505.462	93.4
505.83	93.6
506.199	93.43
506.567	93.16
506.936	93.41
507.304	93.63
507.672	93.47
508.041	93.61
508.409	93.15
508.777	93.34
509.145	93.17
509.514	93.37
509.882	93.36
510.25	93.6
510.618	93.44
510.986	93.36
511.354	93.62
511.722	93.64
512.09	93.57
512.458	93.6
512.826	93.24
513.193	93.31
513.561	93.75
513.929	93.12
514.297	93.48
514.664	93.23
515.032	93.59
515.4	93.32
515.767	93.58
516.135	93.56
516.502	93.46
516.869	93.4
517.237	93.33
517.604	93.04
517.972	93.07
518.339	93.56
518.706	93.33
519.073	93.28
519.44	93.64
519.808	93.57
520.175	93.39
520.542	93.49
520.909	93.8
521.276	93.72
521.643	93.34
522.009	93.26
522.376	93.5
522.743	93.69
523.11	93.64
523.477	93.89
523.843	93.77
524.21	93.74
524.577	93.85
524.943	93.81
525.31	94
525.676	93.8
526.043	93.65
526.409	93.81
526.776	94.07
527.142	93.7
527.508	93.85
527.874	93.75
528.241	93.78
528.607	93.73
528.973	93.79
529.339	94.13
529.705	93.73
530.071	93.8
530.437	94.04
530.803	93.78
531.169	94.01
531.535	93.81
531.901	94.3
532.267	93.98
532.632	94.17
532.998	94.05
533.364	94.21
533.73	94.36
534.095	94.39
534.461	94.4
534.826	94.63
535.192	94.01
535.557	94.03
535.923	94.27
536.288	94.43
536.653	94.62
537.019	94.41
537.384	94.88
537.749	94.74
538.114	94.39
538.479	94.36
538.845	94.89
539.21	94.67
539.575	94.98
539.94	94.74
540.305	94.79
540.67	94.73
541.034	94.63
541.399	94.41
541.764	95.15
542.129	95.05
542.494	95.06
542.858	94.9
543.223	94.91
543.587	95.03
543.952	94.84
544.316	95.36
544.681	94.78
545.045	94.92
545.41	95.45
545.774	95.25
546.138	95.44
546.503	95.29
546.867	95.37
547.231	95.4
547.595	95.5
547.959	95.61
548.324	95.61
548.688	95.67
549.052	95.47
549.416	95.8
549.779	95.87
550.143	95.63
550.507	96.06
550.871	95.75
551.235	95.73
551.599	96.01
551.962	95.86
552.326	95.74
552.689	96
553.053	95.84
553.417	95.82
553.78	95.96
554.143	95.92
554.507	96.01
554.87	96.12
555.234	96.03
555.597	95.93
555.96	96.08
556.323	96.36
556.686	96.21
557.05	96.15
557.413	96.11
557.776	96.24
558.139	96.42
558.502	96.35
558.865	96.3
559.228	96.56
559.59	96.41
559.953	96.44
560.316	96.55
560.679	96.51
561.041	96.54
561.404	96.5
561.767	96.75
562.129	96.5
562.492	96.63
562.854	96.83
563.217	96.66
563.579	96.79
563.941	96.71
564.304	96.7
564.666	96.84
565.028	96.72
565.39	96.84
565.753	96.96
566.115	96.82
566.477	96.76
566.839	96.9
567.201	96.99
567.563	96.81
567.925	96.97
568.287	97.04
568.648	97.11
569.01	97.05
569.372	97.11
569.734	96.98
570.095	97.09
570.457	97.16
570.819	97.09
571.18	97
571.542	97.17
571.903	97.06
572.265	97.22
572.626	97.15
572.987	97.03
573.349	97.03
573.71	97.21
574.071	97.26
574.432	97.03
574.794	97.08
575.155	97.3
575.516	97.2
575.877	97.24
576.238	97.22
576.599	97.22
576.96	97.14
577.32	97.29
577.681	97.28
578.042	97.15
578.403	97.28
578.763	97.26
579.124	97.46
579.485	97.26
579.845	97.5
580.206	97.44
580.566	97.19
580.927	97.29
581.287	97.37
581.648	97.25
582.008	97.21
582.368	97.24
582.728	97.43
583.089	97.28
583.449	97.29
583.809	97.27
584.169	97.32
584.529	97.29
584.889	97.32
585.249	97.26
585.609	97.18
585.969	97.37
586.329	97.3
586.688	97.33
587.048	97.3
587.408	97.23
587.768	97.19
588.127	97.31
588.487	97.09
588.846	97.24
589.206	97.36
589.565	97.28
589.925	97.22
590.284	97.18
590.643	97.32
591.003	97.15
591.362	97.39
591.721	97.47
592.08	97.28
592.44	97.23
592.799	97.31
593.158	97.36
593.517	97.35
593.876	97.17
594.235	97.31
594.593	97.41
594.952	97.41
595.311	97.29
595.67	97.26
596.029	97.34
596.387	97.35
596.746	97.35
597.104	97.39
597.463	97.42
597.822	97.25
598.18	97.39
598.538	97.25
598.897	97.44
599.255	97.29
599.613	97.34
599.972	97.39
600.33	97.35
600.688	97.47
601.046	97.46
601.404	97.46
601.762	97.23
602.12	97.5
602.478	97.29
602.836	97.5
603.194	97.3
603.552	97.47
603.91	97.41
604.268	97.36
604.625	97.36
604.983	97.41
605.341	97.47
605.698	97.4
606.056	97.41
606.413	97.45
606.771	97.43
607.128	97.38
607.485	97.42
607.843	97.46
608.2	97.41
608.557	97.39
608.914	97.43
609.272	97.45
609.629	97.46
609.986	97.31
610.343	97.31
610.7	97.42
611.057	97.44
611.414	97.36
611.771	97.34
612.127	97.35
612.484	97.42
612.841	97.37
613.198	97.48
613.554	97.52
613.911	97.46
614.267	97.39
614.624	97.44
614.98	97.5
615.337	97.47
615.693	97.45
616.05	97.5
616.406	97.56
616.762	97.5
617.118	97.56
617.475	97.47
617.831	97.62
618.187	97.53
618.543	97.38
618.899	97.43
619.255	97.53
619.611	97.41
619.967	97.47
620.323	97.51
620.678	97.46
621.034	97.38
621.39	97.39
621.746	97.47
622.101	97.35
622.457	97.51
622.812	97.34
623.168	97.41
623.523	97.46
623.879	97.36
624.234	97.6
624.589	97.53
624.945	97.53
625.3	97.57
625.655	97.51
626.01	97.38
626.365	97.4
626.72	97.46
627.075	97.62
627.43	97.48
627.785	97.56
628.14	97.54
628.495	97.5
628.85	97.54
629.205	97.53
629.559	97.37
629.914	97.49
630.269	97.48
630.623	97.47
630.978	97.48
631.332	97.4
631.687	97.43
632.041	97.55
632.396	97.46
632.75	97.42
633.104	97.3
633.459	97.46
633.813	97.41
634.167	97.43
634.521	97.46
634.875	97.39
635.229	97.53
635.583	97.38
635.937	97.43
636.291	97.34
636.645	97.38
636.999	97.36
637.352	97.37
637.706	97.24
638.06	97.43
638.413	97.43
638.767	97.35
639.121	97.47
639.474	97.27
639.828	97.41
640.181	97.44
640.534	97.36
640.888	97.4
641.241	97.39
641.594	97.44
641.947	97.33
642.301	97.42
642.654	97.32
643.007	97.37
643.36	97.49
643.713	97.49
644.066	97.44
644.419	97.19
644.771	97.35
645.124	97.35
645.477	97.22
645.83	97.25
646.182	97.41
646.535	97.24
646.888	97.33
647.24	97.33
647.593	97.31
647.945	97.26
648.298	97.17
648.65	97.22
649.002	97.32
649.355	97.2
649.707	97.22
650.059	97.28
650.411	97.27
650.763	97.31
651.115	97.38
651.467	97.37
651.819	97.37
652.171	97.35
652.523	97.31
652.875	97.23
653.227	97.25
653.578	97.36
653.93	97.31
654.282	97.31
654.633	97.32
654.985	97.26
655.337	97.32
655.688	97.4
656.039	97.24
656.391	97.19
656.742	97.38
657.094	97.35
657.445	97.34
657.796	97.23
658.147	97.37
658.498	97.21
658.849	97.26
659.2	97.28
659.551	96.94
659.902	97.26
660.253	97.26
660.604	97.38
660.955	97.27
661.306	97.25
661.656	97.33
662.007	97.25
662.358	97.21
662.708	97.21
663.059	97.28
663.409	97.32
663.76	97.31
664.11	97.26
664.461	97.18
664.811	97.17
665.161	97.21
665.511	97.24
665.862	97.19
666.212	97.22
666.562	97.15
666.912	97.22
667.262	97.17
667.612	97.17
667.962	97.21
668.312	97.19
668.662	97.28
669.011	97.26
669.361	97.24
669.711	97.08
670.06	97.17
670.41	97.19
670.76	97.22
671.109	97.31
671.459	97.26
671.808	97.19
672.157	97.35
672.507	97.11
672.856	97.27
673.205	97.19
673.554	97.31
673.904	97.2
674.253	97.15
674.602	97.3
674.951	97.23
675.3	97.06
675.649	97.13
675.998	97.18
676.346	97.2
676.695	97.32
677.044	97.31
677.393	97.26
677.741	97.25
678.09	97.16
678.438	97.2
678.787	97.32
679.135	97.29
679.484	97.08
679.832	97.23
680.181	97.32
680.529	97.12
680.877	97.22
681.225	97.24
681.573	97.19
681.922	97.17
682.27	97.1
682.618	96.98
682.966	97.2
683.314	97.06
683.661	97.34
684.009	97.17
684.357	97.13
684.705	97.07
685.053	97.17
685.4	97.04
685.748	97.09
686.095	97
686.443	97.05
686.79	97.07
687.138	97.05
687.485	97.15
687.832	96.92
688.18	97.19
688.527	97.01
688.874	96.92
689.221	96.97
689.568	96.97
689.915	97.04
690.262	96.9
690.609	96.96
690.956	96.85
691.303	96.93
691.65	96.92
691.997	96.96
692.344	96.92
692.69	96.88
693.037	96.76
693.383	97.02
693.73	96.8
694.077	96.84
694.423	96.77
694.769	96.76
695.116	96.96
695.462	96.74
695.808	96.88
696.155	96.81
696.501	96.62
696.847	96.88
697.193	96.69
697.539	96.81
697.885	96.72
698.231	96.51
698.577	96.81
698.923	96.82
699.269	96.53
699.614	96.8
699.96	96.63
700.306	96.67
700.651	96.57
700.997	96.45
701.342	96.6
701.688	96.56
702.033	96.55
702.379	96.62
702.724	96.48
703.069	96.55
703.415	96.51
703.76	96.31
704.105	96.38
704.45	96.42
704.795	96.16
705.14	96.35
705.485	96.3
705.83	96.33
706.175	96.45
706.52	96.33
706.865	96.3
707.209	96.33
707.554	96.28
707.899	96.08
708.243	96.29
708.588	96.3
708.932	96.28
709.277	96.05
709.621	96.15
709.966	96.01
710.31	96.26
710.654	96.07
710.998	95.9
711.342	95.92
711.687	96.12
712.031	95.97
712.375	96.03
712.719	96.04
713.063	96.01
713.407	95.99
713.75	96.08
714.094	95.94
714.438	95.79
714.782	96
715.125	95.72
715.469	95.8
715.812	95.91
716.156	95.57
716.499	95.85
716.843	95.75
717.186	95.77
717.53	95.69
717.873	95.6
718.216	95.77
718.559	95.68
718.902	95.69
719.246	95.5
719.589	95.6
719.932	95.24
720.275	95.46
720.617	95.57
720.96	95.51
721.303	95.34
721.646	95.41
721.989	95.44
722.331	95.38
722.674	95.37
723.016	95.26
723.359	95.16
723.701	95.78
724.044	95.44
724.386	95.22
724.729	95.48
725.071	95.26
725.413	95.26
725.755	95.2
726.097	95.42
726.439	95.29
726.782	94.95
727.124	95.47
727.465	95.17
727.807	95.14
728.149	95.06
728.491	95.3
728.833	95.01
729.175	95.15
729.516	95.2
729.858	95.13
730.199	94.98
730.541	94.97
730.882	94.92
731.224	94.85
731.565	95.1
731.906	94.77
732.248	95.11
732.589	95.03
732.93	95.19
733.271	94.86
733.612	94.79
733.953	94.91
734.294	94.82
734.635	94.67
734.976	94.98
735.317	94.8
735.658	94.7
735.999	94.48
736.339	94.96
736.68	94.48
737.021	94.61
737.361	94.63
737.702	94.83
738.042	95.07
738.383	94.83
738.723	94.81
739.063	94.53
739.404	94.58
739.744	94.86
740.084	94.55
740.424	95.05
740.764	94.61
741.104	94.25
741.444	94.87
741.784	94.66
742.124	94.81
742.464	94.56
742.804	94.32
743.143	94.79
743.483	94.73
743.823	94.35
744.162	94.54
744.502	94.4
744.841	94.32
745.181	94.42
745.52	94.36
745.86	94.66
746.199	94.82
746.538	94.39
746.877	94.65
747.216	94.58
747.556	94.3
747.895	94.31
748.234	94.34
748.573	94.42
748.911	94.4
749.25	94.3
749.589	94.68
749.928	94.03
750.267	94.52
750.605	94.5
750.944	94.42
751.283	94.72
751.621	94.32
751.96	94.12
752.298	94.4
752.636	94.26
752.975	93.94
753.313	94.07
753.651	94.14
753.989	94.31
754.327	94.03
754.666	94.34
755.004	94.31
755.342	94.47
755.679	94.15
756.017	94.34
756.355	93.81
756.693	93.86
757.031	94.24
757.368	94.06
757.706	93.96
758.044	93.89
758.381	94.11
758.719	94.27
759.056	94.2
759.394	94.18
759.731	94.29
760.068	94.48
760.405	94.33
760.743	94.08
761.08	94.22
761.417	94.28
761.754	94.27
762.091	93.95
762.428	93.96
762.765	93.93
763.102	94.01
763.438	94.26
763.775	94.52
764.112	93.89
764.449	94
764.785	94.19
765.122	93.97
765.458	93.91
765.795	93.74
766.131	94.15
766.467	93.88
766.804	94.82
767.14	93.81
767.476	94.01
767.812	93.9
768.148	94.1
768.485	93.97
768.821	93.76
769.157	93.62
769.492	93.79
769.828	93.65
770.164	93.82
770.5	93.83
770.836	94.08
771.171	93.94
771.507	94.23
771.842	93.92
772.178	94
772.513	93.87
772.849	93.78
773.184	93.85
773.519	94.35
773.855	94.29
774.19	94.11
774.525	93.57
774.86	93.85
775.195	93.93
775.53	93.92
775.865	93.49
776.2	93.68
776.535	93.81
776.87	93.91
777.205	94.24
777.539	93.87
777.874	94.07
778.209	93.69
778.543	93.74
778.878	93.86
779.212	94.11
779.547	93.96
779.881	93.88
780.215	93.82
780.55	93.65
780.884	93.9
781.218	93.6
781.552	94.09
781.886	94.08
782.22	93.89
782.554	93.35
782.888	93.65
783.222	94.25
783.556	93.64
783.889	93.92
784.223	93.73
784.557	93.75
784.89	94.2
785.224	94.04
785.557	94
785.891	94.23
786.224	94.25
786.558	94.31
786.891	93.61
787.224	94.1
787.557	94.18
787.891	94.06
788.224	94
788.557	94.09
788.89	93.4
789.223	93.52
789.556	93.49
789.888	94.42
790.221	93.76
790.554	93.77
790.887	93.91
791.219	93.64
791.552	93.47
791.884	93.61
792.217	94.02
792.549	93.45
792.882	93.76
793.214	93.74
793.546	93.59
793.879	93.46
794.211	93.6
794.543	93.99
794.875	93.65
795.207	93.97
795.539	93.93
795.871	93.9
796.203	93.77
796.535	94.24
796.867	93.76
797.198	93.71
797.53	93.54
797.862	93.41
798.193	93.58
798.525	93.99
798.856	93.45
799.188	93.97
799.519	93.38
799.85	94.03
800.182	93.48
800.513	94.1
800.844	93.85
801.175	93.9
801.506	94.24
801.837	94.41
802.168	93.86
802.499	93.94
802.83	93.77
803.161	93.68
803.491	93.77
803.822	93.78
804.153	93.83
804.483	93.56
804.814	93.84
805.145	93.93
805.475	93.33
805.805	93.7
806.136	93.81
806.466	93.48
806.796	94.33
807.126	93.66
807.457	93.83
807.787	94.18
808.117	93.92
808.447	93.76
808.777	94.13
809.107	93.72
809.436	94.1
809.766	93.53
810.096	93.9
810.426	93.91
810.755	94.49
811.085	93.89
811.414	93.46
811.744	93.45
812.073	93.98
812.403	93.7
812.732	93.76
813.061	93.7
813.39	93.34
813.719	93.73
814.049	93.73
814.378	93.86
814.707	93.88
815.036	93.74
815.365	93.91
815.693	93.38
816.022	93.29
816.351	93.81
