Data from White_reflection_standard_Reflection_00014.txt Node
Date: Mon Feb 06 14:43:20 GMT 2017
User: dcchb
Spectrometer: FLMS00149
Trigger mode: 0
Integration Time (sec): 2.000000E-2
Scans to average: 10
Electric dark correction enabled: true
Nonlinearity correction enabled: false
Boxcar width: 0
XAxis mode: Wavelengths
Number of Pixels in Spectrum: 2048
>>>>>Begin Spectral Data<<<<<
341.393	-147.18
341.776	-147.18
342.16	-147.18
342.543	9.66
342.927	621.21
343.31	78.55
343.693	61.25
344.077	333.9
344.46	379.45
344.843	-191.4
345.226	-24.84
345.61	45.12
345.993	44.92
346.376	-92.37
346.759	70.01
347.142	59.8
347.525	-21.59
347.908	235.27
348.291	-349.34
348.674	95.59
349.057	-1095.38
349.44	55.21
349.823	-31.26
350.206	88.22
350.588	92.12
350.971	103.37
351.354	70.23
351.737	96.04
352.119	120.11
352.502	93.78
352.884	110.32
353.267	103.86
353.65	85.92
354.032	103.02
354.414	125.5
354.797	80.65
355.179	114.3
355.562	76.93
355.944	99.82
356.326	97.12
356.709	106.6
357.091	95.18
357.473	91.67
357.855	112.36
358.238	84.16
358.62	78.12
359.002	99.09
359.384	112.7
359.766	96.1
360.148	106.6
360.53	88.56
360.912	84.35
361.294	97.15
361.676	92.39
362.057	99.71
362.439	86.55
362.821	78.26
363.203	85.61
363.584	84.7
363.966	84.36
364.348	77.22
364.729	87.78
365.111	100.04
365.493	93.83
365.874	97.18
366.256	81.97
366.637	86.14
367.019	90.42
367.4	95.49
367.781	96.31
368.163	75.47
368.544	93.53
368.925	87.66
369.306	101.56
369.688	91.91
370.069	95.64
370.45	84.21
370.831	94.79
371.212	91.97
371.593	89.03
371.974	91.05
372.355	90.85
372.736	93.76
373.117	98.9
373.498	88.31
373.879	82.08
374.26	91.2
374.641	78.39
375.021	104.76
375.402	85.99
375.783	85.69
376.163	100.41
376.544	86.37
376.925	88.31
377.305	76.64
377.686	87.78
378.066	102.9
378.447	88.48
378.827	93.16
379.208	94.99
379.588	89.9
379.968	95.85
380.349	89.32
380.729	93.68
381.109	86.98
381.489	90.08
381.87	94.17
382.25	97.7
382.63	96.33
383.01	94.9
383.39	96.11
383.77	99.2
384.15	88.87
384.53	91.4
384.91	94.02
385.29	99.78
385.67	91.16
386.049	90.46
386.429	80.62
386.809	94.28
387.189	99.01
387.568	94.89
387.948	90.26
388.328	92.43
388.707	98.62
389.087	91.17
389.466	94.97
389.846	82.82
390.225	89.06
390.605	90.49
390.984	91.86
391.363	93.15
391.743	89.9
392.122	95.41
392.501	93.56
392.881	89.07
393.26	93.37
393.639	90.53
394.018	94.51
394.397	96.01
394.776	95.56
395.155	92.51
395.534	91.4
395.913	90.78
396.292	91.72
396.671	95.77
397.05	92.15
397.429	94.38
397.808	92.58
398.186	89.49
398.565	92.47
398.944	95.82
399.323	93.42
399.701	89.11
400.08	90.23
400.458	96.03
400.837	96.91
401.215	92.58
401.594	92.41
401.972	89.44
402.351	93.12
402.729	92.83
403.107	90.02
403.486	91.94
403.864	92.11
404.242	92.53
404.62	90.76
404.999	93.25
405.377	88.21
405.755	92.19
406.133	90
406.511	94.15
406.889	96.62
407.267	91.69
407.645	91.47
408.023	94.11
408.401	94.51
408.779	94.88
409.156	91.57
409.534	94.89
409.912	92.62
410.29	91.32
410.667	95.18
411.045	92.74
411.422	91.81
411.8	93.39
412.178	94.72
412.555	95.53
412.933	93.84
413.31	92.6
413.687	89.76
414.065	93.05
414.442	92.9
414.819	92.45
415.197	94.45
415.574	96.05
415.951	93.28
416.328	92.51
416.705	91.31
417.082	92.16
417.46	93.69
417.837	95.04
418.214	94.01
418.591	93.51
418.967	91.1
419.344	91.83
419.721	93.99
420.098	94.88
420.475	94.9
420.852	93.34
421.228	91.74
421.605	93.42
421.982	93.93
422.358	93.26
422.735	93.56
423.111	93.83
423.488	94.62
423.864	93
424.241	90.94
424.617	92.89
424.994	92.98
425.37	92.15
425.746	93.51
426.123	94.31
426.499	95.01
426.875	94.24
427.251	92.34
427.627	95.06
428.003	92.81
428.379	95.33
428.756	92.77
429.132	93.27
429.507	93.61
429.883	92.34
430.259	93.12
430.635	92.09
431.011	93.29
431.387	94.29
431.763	94.38
432.138	93.92
432.514	93.81
432.89	92.21
433.265	93.49
433.641	94.29
434.016	93.48
434.392	93.45
434.767	93.07
435.143	94.68
435.518	94.24
435.894	90.94
436.269	93.29
436.644	94.51
437.02	92.42
437.395	94.44
437.77	93.46
438.145	92.19
438.52	92.58
438.895	92.72
439.271	94.96
439.646	93.14
440.021	93.03
440.395	93.19
440.77	94.73
441.145	93.27
441.52	91.57
441.895	93.57
442.27	94.03
442.645	91.75
443.019	93.61
443.394	92.64
443.769	93.23
444.143	93.81
444.518	94.38
444.892	93.98
445.267	92.5
445.641	92.83
446.016	92.19
446.39	92.26
446.764	94.01
447.139	92.27
447.513	93.33
447.887	93.19
448.262	95.3
448.636	93.48
449.01	93.01
449.384	93.9
449.758	94.2
450.132	94.53
450.506	93.89
450.88	93.21
451.254	92.24
451.628	92.63
452.002	94.38
452.376	93.58
452.75	94.35
453.123	93.85
453.497	93.46
453.871	94.34
454.244	93.04
454.618	94.68
454.992	94.18
455.365	93.39
455.739	92.74
456.112	93.25
456.486	93.59
456.859	94.74
457.232	93.55
457.606	92.3
457.979	93.69
458.352	93.94
458.725	93.32
459.099	93.57
459.472	93.58
459.845	92.5
460.218	93.23
460.591	93.7
460.964	93.78
461.337	93.07
461.71	92.27
462.083	93.26
462.456	92.85
462.829	93.84
463.201	94.17
463.574	93.15
463.947	93.82
464.32	93.51
464.692	91.93
465.065	92.74
465.438	93.47
465.81	93.13
466.183	94.21
466.555	93.05
466.928	92.82
467.3	94.14
467.672	92.46
468.045	93.71
468.417	93.13
468.789	93.66
469.161	92.88
469.534	92.95
469.906	94.03
470.278	93.12
470.65	92.8
471.022	92.73
471.394	93.28
471.766	92.94
472.138	93.91
472.51	92.96
472.882	93.38
473.253	93.42
473.625	92.29
473.997	92.97
474.369	93.18
474.74	94.25
475.112	93.91
475.484	92.7
475.855	91.85
476.227	92.62
476.598	93.42
476.97	92.75
477.341	92.96
477.713	92.95
478.084	93.55
478.455	92.93
478.827	92.48
479.198	93.24
479.569	94
479.94	92.64
480.311	93.26
480.682	92.92
481.053	93.51
481.424	92.9
481.795	93.01
482.166	93.17
482.537	92.93
482.908	93.39
483.279	92.61
483.65	92.99
484.021	93.39
484.391	93.83
484.762	94.1
485.133	93.2
485.503	93.3
485.874	93.32
486.244	93.39
486.615	93.21
486.985	93.93
487.356	93.38
487.726	93.35
488.097	94.03
488.467	93.36
488.837	93.73
489.207	93.48
489.578	93.36
489.948	93.13
490.318	93.24
490.688	93.33
491.058	93.32
491.428	93.23
491.798	93.7
492.168	92.65
492.538	93.3
492.908	93.58
493.278	93.76
493.648	92.79
494.017	93.61
494.387	93.35
494.757	93.83
495.126	93.51
495.496	93.45
495.866	93.17
496.235	93.6
496.605	93.31
496.974	93.97
497.344	93.98
497.713	93.37
498.082	94.27
498.452	93.19
498.821	93.08
499.19	93.41
499.559	93.51
499.928	93.66
500.298	93.2
500.667	93.81
501.036	93.54
501.405	93.13
501.774	93.65
502.143	93.51
502.512	93.32
502.88	92.96
503.249	93.11
503.618	93.4
503.987	93.44
504.356	93.1
504.724	93.7
505.093	93.38
505.462	93.54
505.83	93.77
506.199	93.27
506.567	93.25
506.936	93.65
507.304	93.84
507.672	93.72
508.041	93.48
508.409	93.36
508.777	93.61
509.145	93.42
509.514	93.16
509.882	92.81
510.25	93.57
510.618	93.15
510.986	93.43
511.354	93.31
511.722	93.53
512.09	93.1
512.458	93.03
512.826	93.15
513.193	93.45
513.561	93.21
513.929	93.28
514.297	93.28
514.664	93.23
515.032	93.34
515.4	93.4
515.767	93.7
516.135	94.04
516.502	93.33
516.869	93.5
517.237	93.44
517.604	93.53
517.972	93.54
518.339	93.53
518.706	93.5
519.073	93.86
519.44	93.72
519.808	93.73
520.175	93.96
520.542	93.4
520.909	93.46
521.276	93.78
521.643	93.5
522.009	93.48
522.376	93.91
522.743	93.76
523.11	93.58
523.477	93.62
523.843	93.71
524.21	93.86
524.577	93.74
524.943	93.48
525.31	93.82
525.676	93.66
526.043	93.72
526.409	94.08
526.776	93.73
527.142	93.85
527.508	93.56
527.874	94.09
528.241	93.94
528.607	93.99
528.973	94
529.339	93.64
529.705	94.02
530.071	93.73
530.437	93.99
530.803	93.82
531.169	93.91
531.535	94.21
531.901	94.17
532.267	94.26
532.632	94.08
532.998	93.98
533.364	94.39
533.73	94.36
534.095	94.08
534.461	94.12
534.826	94.29
535.192	94.08
535.557	94.26
535.923	94.29
536.288	94.4
536.653	94.44
537.019	94.18
537.384	94.86
537.749	94.42
538.114	94.6
538.479	94.23
538.845	94.68
539.21	94.49
539.575	94.89
539.94	94.89
540.305	94.97
540.67	95.06
541.034	94.58
541.399	94.68
541.764	94.89
542.129	95.11
542.494	95.22
542.858	94.97
543.223	95.08
543.587	94.99
543.952	95.09
544.316	95.23
544.681	94.86
545.045	95.11
545.41	95.45
545.774	95.22
546.138	95.47
546.503	95.25
546.867	95.25
547.231	95.25
547.595	95.43
547.959	95.69
548.324	95.5
548.688	95.42
549.052	95.44
549.416	95.59
549.779	95.62
550.143	95.47
550.507	95.92
550.871	95.74
551.235	95.64
551.599	95.95
551.962	95.85
552.326	95.65
552.689	96.07
553.053	95.93
553.417	95.91
553.78	96.07
554.143	95.98
554.507	96.01
554.87	95.76
555.234	96.06
555.597	95.89
555.96	96.11
556.323	96.39
556.686	96.39
557.05	96.25
557.413	96.19
557.776	96.19
558.139	96.43
558.502	96.3
558.865	96.52
559.228	96.38
559.59	96.44
559.953	96.48
560.316	96.57
560.679	96.42
561.041	96.31
561.404	96.51
561.767	96.74
562.129	96.62
562.492	96.72
562.854	96.67
563.217	96.67
563.579	96.76
563.941	96.81
564.304	96.82
564.666	96.9
565.028	96.69
565.39	96.92
565.753	96.88
566.115	96.96
566.477	96.75
566.839	96.92
567.201	96.9
567.563	97.02
567.925	96.97
568.287	97.03
568.648	97.11
569.01	97
569.372	97.09
569.734	96.95
570.095	96.91
570.457	97.07
570.819	97.06
571.18	96.98
571.542	96.97
571.903	97.14
572.265	97.14
572.626	97.12
572.987	97.13
573.349	97.11
573.71	97.11
574.071	97.1
574.432	97.04
574.794	97.15
575.155	97.18
575.516	97.06
575.877	97.21
576.238	97.18
576.599	97.18
576.96	97.02
577.32	97.33
577.681	97.4
578.042	97.11
578.403	97.25
578.763	97.24
579.124	97.28
579.485	97.26
579.845	97.33
580.206	97.34
580.566	97.28
580.927	97.23
581.287	97.27
581.648	97.19
582.008	97.19
582.368	97.23
582.728	97.36
583.089	97.22
583.449	97.29
583.809	97.15
584.169	97.33
584.529	97.3
584.889	97.26
585.249	97.27
585.609	97.19
585.969	97.39
586.329	97.33
586.688	97.34
587.048	97.3
587.408	97.15
587.768	97.22
588.127	97.33
588.487	97.35
588.846	97.19
589.206	97.37
589.565	97.26
589.925	97.12
590.284	97.25
590.643	97.27
591.003	97.25
591.362	97.31
591.721	97.44
592.08	97.25
592.44	97.32
592.799	97.26
593.158	97.35
593.517	97.35
593.876	97.27
594.235	97.35
594.593	97.29
594.952	97.23
595.311	97.33
595.67	97.26
596.029	97.17
596.387	97.43
596.746	97.42
597.104	97.29
597.463	97.35
597.822	97.32
598.18	97.28
598.538	97.24
598.897	97.46
599.255	97.3
599.613	97.3
599.972	97.3
600.33	97.4
600.688	97.34
601.046	97.49
601.404	97.3
601.762	97.24
602.12	97.32
602.478	97.33
602.836	97.48
603.194	97.34
603.552	97.39
603.91	97.44
604.268	97.36
604.625	97.33
604.983	97.43
605.341	97.46
605.698	97.3
606.056	97.33
606.413	97.38
606.771	97.39
607.128	97.34
607.485	97.27
607.843	97.3
608.2	97.32
608.557	97.41
608.914	97.3
609.272	97.48
609.629	97.41
609.986	97.33
610.343	97.28
610.7	97.35
611.057	97.41
611.414	97.41
611.771	97.3
612.127	97.33
612.484	97.43
612.841	97.34
613.198	97.4
613.554	97.38
613.911	97.4
614.267	97.42
614.624	97.41
614.98	97.46
615.337	97.38
615.693	97.43
616.05	97.44
616.406	97.34
616.762	97.55
617.118	97.42
617.475	97.42
617.831	97.53
618.187	97.51
618.543	97.38
618.899	97.39
619.255	97.45
619.611	97.52
619.967	97.43
620.323	97.4
620.678	97.39
621.034	97.46
621.39	97.34
621.746	97.44
622.101	97.38
622.457	97.42
622.812	97.46
623.168	97.4
623.523	97.38
623.879	97.45
624.234	97.43
624.589	97.43
624.945	97.61
625.3	97.53
625.655	97.43
626.01	97.44
626.365	97.47
626.72	97.41
627.075	97.57
627.43	97.46
627.785	97.51
628.14	97.54
628.495	97.5
628.85	97.51
629.205	97.44
629.559	97.37
629.914	97.53
630.269	97.39
630.623	97.59
630.978	97.49
631.332	97.36
631.687	97.49
632.041	97.44
632.396	97.41
632.75	97.48
633.104	97.39
633.459	97.4
633.813	97.42
634.167	97.47
634.521	97.38
634.875	97.34
635.229	97.49
635.583	97.46
635.937	97.43
636.291	97.34
636.645	97.44
636.999	97.35
637.352	97.44
637.706	97.24
638.06	97.42
638.413	97.41
638.767	97.38
639.121	97.45
639.474	97.35
639.828	97.38
640.181	97.36
640.534	97.3
640.888	97.35
641.241	97.38
641.594	97.41
641.947	97.36
642.301	97.4
642.654	97.46
643.007	97.42
643.36	97.42
643.713	97.39
644.066	97.42
644.419	97.16
644.771	97.29
645.124	97.2
645.477	97.32
645.83	97.3
646.182	97.21
646.535	97.33
646.888	97.34
647.24	97.17
647.593	97.32
647.945	97.21
648.298	97.32
648.65	97.15
649.002	97.22
649.355	97.17
649.707	97.27
650.059	97.21
650.411	97.37
650.763	97.28
651.115	97.28
651.467	97.25
651.819	97.34
652.171	97.32
652.523	97.16
652.875	97.23
653.227	97.28
653.578	97.35
653.93	97.27
654.282	97.2
654.633	97.27
654.985	97.25
655.337	97.31
655.688	97.4
656.039	97.31
656.391	97.34
656.742	97.45
657.094	97.36
657.445	97.22
657.796	97.14
658.147	97.36
658.498	97.2
658.849	97.24
659.2	97.19
659.551	97.09
659.902	97.21
660.253	97.24
660.604	97.26
660.955	97.17
661.306	97.19
661.656	97.19
662.007	97.1
662.358	97.13
662.708	97.28
663.059	97.29
663.409	97.22
663.76	97.28
664.11	97.2
664.461	97.2
664.811	97.16
665.161	97.12
665.511	97.19
665.862	97.12
666.212	97.28
666.562	97.13
666.912	97.25
667.262	97.22
667.612	97.04
667.962	97.12
668.312	97.16
668.662	97.27
669.011	97.25
669.361	97.31
669.711	97.18
670.06	97.22
670.41	97.23
670.76	97.22
671.109	97.23
671.459	97.12
671.808	97.19
672.157	97.12
672.507	97.03
672.856	97.28
673.205	97.2
673.554	97.45
673.904	97.1
674.253	97.19
674.602	97.32
674.951	97.29
675.3	97.06
675.649	97.25
675.998	97.2
676.346	97.2
676.695	97.34
677.044	97.16
677.393	97.28
677.741	97.16
678.09	97.16
678.438	97.22
678.787	97.27
679.135	97.28
679.484	97.14
679.832	97.15
680.181	97.19
680.529	97.19
680.877	97.2
681.225	97.29
681.573	97.26
681.922	97.15
682.27	97.1
682.618	96.98
682.966	97.23
683.314	97.21
683.661	97.09
684.009	97.04
684.357	97.14
684.705	97.1
685.053	97.01
685.4	97.03
685.748	97.07
686.095	97.01
686.443	97.22
686.79	96.87
687.138	97.07
687.485	97.15
687.832	97.07
688.18	97.03
688.527	96.98
688.874	96.99
689.221	96.82
689.568	96.88
689.915	97.03
690.262	97.02
690.609	96.99
690.956	96.8
691.303	96.97
691.65	96.84
691.997	96.91
692.344	96.72
692.69	96.98
693.037	96.97
693.383	97.1
693.73	96.94
694.077	96.81
694.423	96.7
694.769	96.73
695.116	96.98
695.462	96.85
695.808	96.92
696.155	96.67
696.501	96.79
696.847	96.76
697.193	96.77
697.539	96.83
697.885	96.67
698.231	96.52
698.577	96.8
698.923	96.84
699.269	96.69
699.614	96.64
699.96	96.56
700.306	96.49
700.651	96.51
700.997	96.39
701.342	96.55
701.688	96.58
702.033	96.49
702.379	96.54
702.724	96.52
703.069	96.53
703.415	96.44
703.76	96.39
704.105	96.29
704.45	96.38
704.795	96.09
705.14	96.28
705.485	96.32
705.83	96.24
706.175	96.45
706.52	96.3
706.865	96.26
707.209	96.23
707.554	96.34
707.899	96.2
708.243	96.18
708.588	96.07
708.932	96.26
709.277	96.05
709.621	96.12
709.966	95.95
710.31	96.19
710.654	96.06
710.998	96.14
711.342	95.92
711.687	95.94
712.031	96.03
712.375	96.05
712.719	96.01
713.063	96.04
713.407	95.92
713.75	96.14
714.094	95.79
714.438	95.88
714.782	96.1
715.125	95.71
715.469	95.83
715.812	95.94
716.156	95.53
716.499	95.8
716.843	95.93
717.186	95.86
717.53	95.82
717.873	95.47
718.216	95.46
718.559	95.74
718.902	95.67
719.246	95.58
719.589	95.51
719.932	95.09
720.275	95.56
720.617	95.5
720.96	95.48
721.303	95.51
721.646	95.29
721.989	95.45
722.331	95.37
722.674	95.39
723.016	95.2
723.359	95.19
723.701	95.25
724.044	95.32
724.386	95.43
724.729	95.66
725.071	95.2
725.413	95.31
725.755	95.26
726.097	95.2
726.439	95.03
726.782	95.14
727.124	95.46
727.465	94.85
727.807	95.23
728.149	95.3
728.491	95.32
728.833	95.13
729.175	95.03
729.516	95.08
729.858	95.14
730.199	95.02
730.541	95.07
730.882	94.87
731.224	95.09
731.565	94.99
731.906	95.01
732.248	94.93
732.589	94.95
732.93	94.95
733.271	95.01
733.612	94.9
733.953	94.65
734.294	94.76
734.635	94.57
734.976	94.85
735.317	94.76
735.658	94.74
735.999	94.52
736.339	95.03
736.68	94.79
737.021	94.69
737.361	94.68
737.702	94.65
738.042	94.84
738.383	94.76
738.723	95.02
739.063	94.47
739.404	94.76
739.744	95.18
740.084	94.61
740.424	95.04
740.764	94.63
741.104	94.4
741.444	94.5
741.784	94.97
742.124	94.71
742.464	94.45
742.804	94.46
743.143	94.77
743.483	94.92
743.823	94.52
744.162	94.2
744.502	94.61
744.841	94.31
745.181	94.09
745.52	94.16
745.86	94.57
746.199	94.42
746.538	94.34
746.877	94.37
747.216	94.48
747.556	94.21
747.895	94.23
748.234	94.63
748.573	94.33
748.911	94.11
749.25	94.29
749.589	94.64
749.928	94.41
750.267	94.48
750.605	94.16
750.944	94.38
751.283	94.65
751.621	94.08
751.96	93.92
752.298	94.23
752.636	94.25
752.975	94.22
753.313	94.15
753.651	94.1
753.989	94.27
754.327	94.39
754.666	94.38
755.004	94.17
755.342	94.24
755.679	93.93
756.017	94.31
756.355	93.83
756.693	94.54
757.031	94.03
757.368	94.28
757.706	94.3
758.044	94.13
758.381	94.17
758.719	94.22
759.056	94
759.394	94.12
759.731	94.03
760.068	94.18
760.405	94.15
760.743	93.97
761.08	94.07
761.417	94.14
761.754	94.35
762.091	93.83
762.428	93.98
762.765	93.93
763.102	94
763.438	93.9
763.775	94.62
764.112	94.01
764.449	94
764.785	94.04
765.122	93.63
765.458	93.9
765.795	93.71
766.131	94.06
766.467	93.78
766.804	94.39
767.14	93.75
767.476	93.93
767.812	94.04
768.148	94.35
768.485	93.96
768.821	93.85
769.157	93.32
769.492	93.72
769.828	93.62
770.164	94.14
770.5	93.96
770.836	94.06
771.171	93.83
771.507	93.72
771.842	93.91
772.178	94.04
772.513	93.79
772.849	93.96
773.184	93.73
773.519	94.2
773.855	93.98
774.19	94.34
774.525	93.86
774.86	93.78
775.195	93.83
775.53	93.78
775.865	93.52
776.2	93.44
776.535	93.98
776.87	93.92
777.205	93.75
777.539	93.77
777.874	93.74
778.209	94.02
778.543	93.6
778.878	93.98
779.212	93.71
779.547	93.96
779.881	93.81
780.215	93.79
780.55	93.87
780.884	93.47
781.218	93.48
781.552	93.57
781.886	93.71
782.22	93.86
782.554	93.19
782.888	93.8
783.222	93.8
783.556	93.7
783.889	94.01
784.223	93.51
784.557	93.65
784.89	93.92
785.224	94.01
785.557	93.8
785.891	94.03
786.224	94.38
786.558	94.08
786.891	93.88
787.224	94.08
787.557	93.88
787.891	94.2
788.224	93.94
788.557	93.84
788.89	93.55
789.223	93.87
789.556	93.65
789.888	94.12
790.221	93.57
790.554	93.76
790.887	94.03
791.219	93.94
791.552	93.69
791.884	93.85
792.217	93.95
792.549	93.43
792.882	93.33
793.214	93.88
793.546	93.68
793.879	93.84
794.211	93.61
794.543	93.58
794.875	93.72
795.207	93.7
795.539	93.84
795.871	93.9
796.203	93.58
796.535	93.86
796.867	93.9
797.198	93.89
797.53	93.78
797.862	93.68
798.193	93.65
798.525	93.98
798.856	93.99
799.188	93.92
799.519	93.77
799.85	94.14
800.182	93.44
800.513	93.82
800.844	93.81
801.175	93.62
801.506	93.97
801.837	93.63
802.168	93.85
802.499	93.99
802.83	94.05
803.161	93.81
803.491	93.57
803.822	93.68
804.153	93.82
804.483	93.53
804.814	93.81
805.145	93.72
805.475	93.78
805.805	93.29
806.136	93.93
806.466	93.54
806.796	94.18
807.126	93.48
807.457	93.69
807.787	94.32
808.117	94.13
808.447	93.69
808.777	93.88
809.107	93.74
809.436	93.65
809.766	93.58
810.096	94.07
810.426	93.88
810.755	94.47
811.085	93.87
811.414	93.7
811.744	93.8
812.073	93.59
812.403	93.3
812.732	93.56
813.061	93.58
813.39	93.73
813.719	93.81
814.049	93.57
814.378	93.6
814.707	94
815.036	94.12
815.365	93.84
815.693	93.69
816.022	93.46
816.351	94.3
