Data from White_reflection_standard_Reflection_00001.txt Node
Date: Mon Feb 06 14:42:23 GMT 2017
User: dcchb
Spectrometer: FLMS00149
Trigger mode: 0
Integration Time (sec): 2.000000E-2
Scans to average: 10
Electric dark correction enabled: true
Nonlinearity correction enabled: false
Boxcar width: 0
XAxis mode: Wavelengths
Number of Pixels in Spectrum: 2048
>>>>>Begin Spectral Data<<<<<
341.393	-82.92
341.776	-82.92
342.16	-82.92
342.543	-32.71
342.927	-2324.24
343.31	-197.79
343.693	93.26
344.077	160.95
344.46	-101.64
344.843	-406.79
345.226	1506.37
345.61	-85.25
345.993	103.04
346.376	-803.82
346.759	-67.06
347.142	67.46
347.525	98.28
347.908	402.55
348.291	219.82
348.674	51.04
349.057	-103.47
349.44	-63.58
349.823	-77.98
350.206	86.95
350.588	83.93
350.971	77.93
351.354	107.2
351.737	97.55
352.119	79.18
352.502	85.03
352.884	108.26
353.267	104.21
353.65	54.53
354.032	91.69
354.414	124.42
354.797	86.01
355.179	113.06
355.562	88.28
355.944	107.36
356.326	94.98
356.709	89.12
357.091	87.5
357.473	78.88
357.855	111.69
358.238	90.81
358.62	75.83
359.002	106.5
359.384	92.95
359.766	89.23
360.148	97.09
360.53	84.29
360.912	99.84
361.294	105.46
361.676	82.02
362.057	95.99
362.439	104.32
362.821	67.17
363.203	86.54
363.584	94.3
363.966	77.5
364.348	83.71
364.729	70.71
365.111	107.19
365.493	95.91
365.874	90.16
366.256	83.88
366.637	79.68
367.019	86.42
367.4	98.99
367.781	98.39
368.163	78.4
368.544	93.63
368.925	81.39
369.306	108.79
369.688	96.55
370.069	95.28
370.45	94.9
370.831	92.43
371.212	100.2
371.593	92.74
371.974	72.45
372.355	71.31
372.736	100.11
373.117	101.33
373.498	95.21
373.879	79.66
374.26	85.6
374.641	72.38
375.021	95.27
375.402	84.06
375.783	82.11
376.163	93.36
376.544	93.88
376.925	102.25
377.305	87.6
377.686	91.64
378.066	96.39
378.447	95.76
378.827	89.5
379.208	93.85
379.588	86.48
379.968	92.87
380.349	90.68
380.729	91.34
381.109	94.5
381.489	86.61
381.87	90.57
382.25	93.75
382.63	91.47
383.01	94.64
383.39	95.85
383.77	90.18
384.15	87.44
384.53	92.01
384.91	94.6
385.29	90.69
385.67	88.09
386.049	88.54
386.429	85.58
386.809	93.19
387.189	95.39
387.568	89.71
387.948	94.33
388.328	94.5
388.707	95.02
389.087	86.85
389.466	99.36
389.846	89.72
390.225	86.59
390.605	87.61
390.984	95.03
391.363	93.18
391.743	95.39
392.122	90.91
392.501	96.03
392.881	94.62
393.26	92.16
393.639	94.1
394.018	89.55
394.397	94.95
394.776	91.14
395.155	92.2
395.534	94.51
395.913	90.27
396.292	94.2
396.671	98.43
397.05	92.61
397.429	92.36
397.808	95.37
398.186	90.22
398.565	94.08
398.944	92.54
399.323	87.63
399.701	90.79
400.08	89.63
400.458	97.91
400.837	96.14
401.215	93.92
401.594	92.97
401.972	91.58
402.351	91.52
402.729	94.74
403.107	89.64
403.486	92.42
403.864	89.68
404.242	92.83
404.62	94.28
404.999	90.92
405.377	92.4
405.755	94.51
406.133	92.8
406.511	91.51
406.889	92.4
407.267	93.74
407.645	93.29
408.023	92.52
408.401	92.94
408.779	94.18
409.156	92.89
409.534	91.93
409.912	92.69
410.29	91.34
410.667	93.02
411.045	93.58
411.422	93.49
411.8	93.87
412.178	92.13
412.555	95.78
412.933	94.58
413.31	94.74
413.687	91.69
414.065	94.2
414.442	91.17
414.819	91.98
415.197	93.99
415.574	93.14
415.951	91.9
416.328	94
416.705	92.93
417.082	90.1
417.46	92.73
417.837	93.92
418.214	95.32
418.591	91.39
418.967	92.37
419.344	91.91
419.721	93.74
420.098	93.87
420.475	95.46
420.852	94.12
421.228	92.55
421.605	92.42
421.982	93.16
422.358	94.36
422.735	92.85
423.111	93.17
423.488	92.48
423.864	93.84
424.241	92.85
424.617	93.84
424.994	93.05
425.37	91.28
425.746	93.15
426.123	94.25
426.499	94.17
426.875	93.39
427.251	92.04
427.627	93.6
428.003	91.65
428.379	92.74
428.756	95.14
429.132	92.39
429.507	92.99
429.883	93.13
430.259	92.57
430.635	93.9
431.011	92.95
431.387	92.68
431.763	93.24
432.138	94.43
432.514	94.76
432.89	92.56
433.265	93.09
433.641	93.66
434.016	94.39
434.392	94.11
434.767	93.71
435.143	93.91
435.518	93.64
435.894	92.91
436.269	94.31
436.644	94.53
437.02	94.24
437.395	94.57
437.77	94.66
438.145	93.11
438.52	93.79
438.895	93.43
439.271	94.18
439.646	93.55
440.021	94.96
440.395	93.1
440.77	95.16
441.145	93.12
441.52	92.7
441.895	93.09
442.27	93.72
442.645	91.6
443.019	92.83
443.394	93.3
443.769	93.68
444.143	93.08
444.518	92.21
444.892	93.94
445.267	94.06
445.641	93.63
446.016	92.33
446.39	93.06
446.764	94.2
447.139	93.17
447.513	92.84
447.887	92.17
448.262	94.31
448.636	93.41
449.01	93.48
449.384	94.62
449.758	92.91
450.132	93.15
450.506	93.54
450.88	92.85
451.254	92.45
451.628	93.35
452.002	93.68
452.376	93.97
452.75	93.65
453.123	94.24
453.497	93.33
453.871	94.19
454.244	93.3
454.618	93.87
454.992	94.39
455.365	93.25
455.739	92.45
456.112	92.87
456.486	94.37
456.859	94.61
457.232	92.87
457.606	92.37
457.979	93.33
458.352	93.6
458.725	92.15
459.099	93.32
459.472	93.3
459.845	93.5
460.218	93.91
460.591	94.19
460.964	93.6
461.337	92.28
461.71	93.31
462.083	92.97
462.456	92.77
462.829	93.64
463.201	92.92
463.574	93.38
463.947	93.31
464.32	92.77
464.692	92.25
465.065	92.53
465.438	92.83
465.81	93.37
466.183	93.58
466.555	93.48
466.928	93.97
467.3	92.97
467.672	92.77
468.045	93.04
468.417	93.69
468.789	93.09
469.161	92.9
469.534	93.09
469.906	94.46
470.278	92.79
470.65	93.22
471.022	92.01
471.394	93.09
471.766	92.77
472.138	93.85
472.51	93.45
472.882	92.77
473.253	92.91
473.625	92.76
473.997	92.84
474.369	92.83
474.74	93.61
475.112	93.81
475.484	93.27
475.855	92.21
476.227	92.86
476.598	94.1
476.97	92.93
477.341	93.52
477.713	92.99
478.084	93.5
478.455	92.96
478.827	92.3
479.198	93.57
479.569	92.99
479.94	93.66
480.311	93.78
480.682	92.77
481.053	94.03
481.424	92.97
481.795	93.07
482.166	93.41
482.537	92.86
482.908	92.92
483.279	92.77
483.65	93.5
484.021	93.03
484.391	94.29
484.762	93.94
485.133	92.86
485.503	92.87
485.874	93.33
486.244	93.65
486.615	93.27
486.985	93.03
487.356	93.54
487.726	93.13
488.097	93.67
488.467	93.38
488.837	93.79
489.207	93.64
489.578	93.51
489.948	93.62
490.318	92.82
490.688	93.33
491.058	92.97
491.428	93.49
491.798	93.55
492.168	93.25
492.538	93.31
492.908	93.62
493.278	94.23
493.648	93.27
494.017	93.59
494.387	93.46
494.757	93.57
495.126	93.43
495.496	93.37
495.866	92.95
496.235	93.79
496.605	92.9
496.974	93.7
497.344	93.75
497.713	93.45
498.082	94.17
498.452	93.56
498.821	93.16
499.19	93.05
499.559	93.1
499.928	93.27
500.298	93.81
500.667	93.48
501.036	93.36
501.405	93.15
501.774	93.26
502.143	92.86
502.512	93.19
502.88	93.62
503.249	93.64
503.618	93.41
503.987	93.69
504.356	93.13
504.724	93.91
505.093	93.08
505.462	93.15
505.83	93.4
506.199	93.58
506.567	93.17
506.936	93.45
507.304	94.04
507.672	93.45
508.041	94.06
508.409	93.53
508.777	93.56
509.145	93.39
509.514	93.28
509.882	93.29
510.25	93.62
510.618	93.35
510.986	93.4
511.354	93.41
511.722	93.7
512.09	93.17
512.458	93.42
512.826	93.22
513.193	93.42
513.561	93.42
513.929	93.43
514.297	93.45
514.664	93.31
515.032	93.16
515.4	93.38
515.767	93.95
516.135	93.57
516.502	93.11
516.869	93.45
517.237	93.4
517.604	92.88
517.972	93.32
518.339	93.26
518.706	93.25
519.073	93.36
519.44	93.72
519.808	93.74
520.175	93.68
520.542	93.45
520.909	93.77
521.276	93.86
521.643	93.6
522.009	93.5
522.376	94
522.743	93.98
523.11	93.84
523.477	93.87
523.843	93.54
524.21	93.97
524.577	94
524.943	93.67
525.31	93.72
525.676	93.97
526.043	93.76
526.409	93.7
526.776	93.82
527.142	93.78
527.508	93.69
527.874	93.73
528.241	93.88
528.607	93.71
528.973	94.11
529.339	93.92
529.705	93.88
530.071	93.83
530.437	93.8
530.803	94
531.169	93.92
531.535	93.84
531.901	94.27
532.267	94.48
532.632	94.05
532.998	93.9
533.364	94.34
533.73	93.93
534.095	94.25
534.461	94.04
534.826	94.44
535.192	94
535.557	94.15
535.923	94.39
536.288	94.39
536.653	94.43
537.019	94.25
537.384	94.95
537.749	94.7
538.114	94.51
538.479	94.37
538.845	94.98
539.21	94.84
539.575	94.87
539.94	94.85
540.305	94.97
540.67	94.98
541.034	94.74
541.399	94.79
541.764	94.88
542.129	94.93
542.494	95.05
542.858	94.83
543.223	95
543.587	95.09
543.952	94.95
544.316	95.47
544.681	94.83
545.045	95.2
545.41	95.5
545.774	95.27
546.138	95.54
546.503	95.37
546.867	95.39
547.231	95.44
547.595	95.31
547.959	95.71
548.324	95.26
548.688	95.44
549.052	95.59
549.416	95.68
549.779	95.72
550.143	95.36
550.507	95.76
550.871	95.62
551.235	95.77
551.599	96.08
551.962	95.7
552.326	95.58
552.689	96.09
553.053	95.79
553.417	96.11
553.78	96.09
554.143	95.86
554.507	95.85
554.87	95.8
555.234	96.09
555.597	96.13
555.96	96.18
556.323	96.46
556.686	96.32
557.05	96.13
557.413	96.21
557.776	96.4
558.139	96.45
558.502	96.41
558.865	96.46
559.228	96.49
559.59	96.37
559.953	96.5
560.316	96.63
560.679	96.6
561.041	96.51
561.404	96.49
561.767	96.69
562.129	96.6
562.492	96.78
562.854	96.62
563.217	96.61
563.579	96.77
563.941	96.77
564.304	96.87
564.666	96.83
565.028	96.69
565.39	97
565.753	96.85
566.115	96.91
566.477	96.77
566.839	96.86
567.201	96.96
567.563	96.91
567.925	97.01
568.287	97.08
568.648	96.97
569.01	97.04
569.372	97.11
569.734	97.14
570.095	96.97
570.457	97.07
570.819	97.16
571.18	97.11
571.542	97.02
571.903	97.09
572.265	97.24
572.626	97.14
572.987	97.19
573.349	97.17
573.71	97.06
574.071	97.15
574.432	97
574.794	97.17
575.155	97.13
575.516	97.16
575.877	97.31
576.238	97.23
576.599	97.3
576.96	97.09
577.32	97.32
577.681	97.43
578.042	97.14
578.403	97.24
578.763	97.2
579.124	97.36
579.485	97.29
579.845	97.41
580.206	97.34
580.566	97.38
580.927	97.4
581.287	97.41
581.648	97.27
582.008	97.17
582.368	97.28
582.728	97.27
583.089	97.26
583.449	97.34
583.809	97.24
584.169	97.36
584.529	97.33
584.889	97.3
585.249	97.25
585.609	97.18
585.969	97.33
586.329	97.22
586.688	97.25
587.048	97.32
587.408	97.17
587.768	97.17
588.127	97.28
588.487	97.23
588.846	97.28
589.206	97.36
589.565	97.22
589.925	97.22
590.284	97.27
590.643	97.25
591.003	97.28
591.362	97.28
591.721	97.37
592.08	97.33
592.44	97.37
592.799	97.36
593.158	97.35
593.517	97.28
593.876	97.25
594.235	97.44
594.593	97.35
594.952	97.35
595.311	97.36
595.67	97.23
596.029	97.27
596.387	97.35
596.746	97.42
597.104	97.36
597.463	97.27
597.822	97.24
598.18	97.3
598.538	97.35
598.897	97.37
599.255	97.27
599.613	97.34
599.972	97.28
600.33	97.3
600.688	97.34
601.046	97.41
601.404	97.26
601.762	97.24
602.12	97.34
602.478	97.29
602.836	97.47
603.194	97.36
603.552	97.41
603.91	97.43
604.268	97.39
604.625	97.3
604.983	97.45
605.341	97.45
605.698	97.31
606.056	97.32
606.413	97.51
606.771	97.32
607.128	97.28
607.485	97.33
607.843	97.47
608.2	97.36
608.557	97.32
608.914	97.36
609.272	97.45
609.629	97.45
609.986	97.36
610.343	97.32
610.7	97.38
611.057	97.42
611.414	97.36
611.771	97.39
612.127	97.32
612.484	97.41
612.841	97.48
613.198	97.49
613.554	97.46
613.911	97.45
614.267	97.52
614.624	97.53
614.98	97.48
615.337	97.33
615.693	97.31
616.05	97.49
616.406	97.38
616.762	97.44
617.118	97.41
617.475	97.57
617.831	97.58
618.187	97.52
618.543	97.47
618.899	97.4
619.255	97.51
619.611	97.44
619.967	97.54
620.323	97.36
620.678	97.35
621.034	97.4
621.39	97.43
621.746	97.48
622.101	97.34
622.457	97.52
622.812	97.4
623.168	97.4
623.523	97.39
623.879	97.33
624.234	97.55
624.589	97.51
624.945	97.46
625.3	97.54
625.655	97.42
626.01	97.45
626.365	97.43
626.72	97.45
627.075	97.59
627.43	97.45
627.785	97.56
628.14	97.44
628.495	97.48
628.85	97.45
629.205	97.5
629.559	97.4
629.914	97.47
630.269	97.43
630.623	97.59
630.978	97.53
631.332	97.45
631.687	97.51
632.041	97.49
632.396	97.47
632.75	97.47
633.104	97.31
633.459	97.36
633.813	97.44
634.167	97.59
634.521	97.55
634.875	97.38
635.229	97.53
635.583	97.49
635.937	97.45
636.291	97.38
636.645	97.45
636.999	97.31
637.352	97.4
637.706	97.24
638.06	97.4
638.413	97.49
638.767	97.36
639.121	97.5
639.474	97.35
639.828	97.42
640.181	97.39
640.534	97.4
640.888	97.41
641.241	97.41
641.594	97.51
641.947	97.37
642.301	97.35
642.654	97.49
643.007	97.28
643.36	97.51
643.713	97.42
644.066	97.48
644.419	97.32
644.771	97.38
645.124	97.24
645.477	97.34
645.83	97.33
646.182	97.21
646.535	97.33
646.888	97.27
647.24	97.38
647.593	97.42
647.945	97.23
648.298	97.29
648.65	97.26
649.002	97.25
649.355	97.09
649.707	97.12
650.059	97.31
650.411	97.2
650.763	97.32
651.115	97.29
651.467	97.4
651.819	97.34
652.171	97.36
652.523	97.27
652.875	97.3
653.227	97.23
653.578	97.33
653.93	97.35
654.282	97.33
654.633	97.31
654.985	97.2
655.337	97.33
655.688	97.3
656.039	97.22
656.391	97.32
656.742	97.41
657.094	97.34
657.445	97.25
657.796	97.15
658.147	97.26
658.498	97.11
658.849	97.26
659.2	97.26
659.551	97.26
659.902	97.29
660.253	97.35
660.604	97.31
660.955	97.25
661.306	97.11
661.656	97.34
662.007	97.19
662.358	97.34
662.708	97.34
663.059	97.34
663.409	97.29
663.76	97.18
664.11	97.31
664.461	97.2
664.811	97.16
665.161	97.12
665.511	97.24
665.862	97.17
666.212	97.15
666.562	97.16
666.912	97.18
667.262	97.23
667.612	97.18
667.962	97.26
668.312	97.19
668.662	97.26
669.011	97.27
669.361	97.28
669.711	97.19
670.06	97.33
670.41	97.31
670.76	97.23
671.109	97.36
671.459	97.18
671.808	97.29
672.157	97.26
672.507	97.11
672.856	97.29
673.205	97.3
673.554	97.14
673.904	97.1
674.253	97.21
674.602	97.33
674.951	97.37
675.3	97.05
675.649	97.22
675.998	97.14
676.346	97.21
676.695	97.31
677.044	97.19
677.393	97.29
677.741	97.13
678.09	97.24
678.438	97.3
678.787	97.23
679.135	97.18
679.484	97.07
679.832	97.24
680.181	97.3
680.529	97.09
680.877	97.19
681.225	97.35
681.573	97.34
681.922	97.21
682.27	97.06
682.618	97.04
682.966	97.2
683.314	97.13
683.661	97.07
684.009	97.16
684.357	97.26
684.705	96.95
685.053	97.14
685.4	97.1
685.748	97.15
686.095	97.11
686.443	97.1
686.79	96.98
687.138	96.98
687.485	97.23
687.832	97.07
688.18	97.19
688.527	96.92
688.874	97.01
689.221	96.87
689.568	96.97
689.915	97.09
690.262	96.83
690.609	96.95
690.956	97.03
691.303	96.92
691.65	96.96
691.997	96.97
692.344	96.78
692.69	96.91
693.037	96.82
693.383	97.03
693.73	96.77
694.077	96.92
694.423	96.76
694.769	96.85
695.116	96.9
695.462	96.82
695.808	96.79
696.155	96.88
696.501	96.8
696.847	96.88
697.193	97.02
697.539	96.85
697.885	96.74
698.231	96.62
698.577	96.83
698.923	96.74
699.269	96.6
699.614	96.8
699.96	96.71
700.306	96.64
700.651	96.64
700.997	96.46
701.342	96.58
701.688	96.55
702.033	96.41
702.379	96.59
702.724	96.54
703.069	96.52
703.415	96.29
703.76	96.45
704.105	96.48
704.45	96.39
704.795	96.12
705.14	96.37
705.485	96.3
705.83	96.37
706.175	96.51
706.52	96.33
706.865	96.25
707.209	96.27
707.554	96.37
707.899	96.08
708.243	96.22
708.588	96.26
708.932	96.07
709.277	96.18
709.621	96.21
709.966	96.04
710.31	96.32
710.654	96.1
710.998	96.08
711.342	96.09
711.687	96
712.031	96.05
712.375	96.08
712.719	96.09
713.063	96.22
713.407	96.1
713.75	95.91
714.094	95.94
714.438	95.75
714.782	96.01
715.125	95.99
715.469	95.8
715.812	96.05
716.156	95.64
716.499	95.75
716.843	95.82
717.186	95.94
717.53	95.76
717.873	95.63
718.216	95.72
718.559	95.59
718.902	95.79
719.246	95.76
719.589	95.59
719.932	95.3
720.275	95.73
720.617	95.78
720.96	95.43
721.303	95.68
721.646	95.15
721.989	95.26
722.331	95.46
722.674	95.52
723.016	95.28
723.359	95.32
723.701	95.62
724.044	95.57
724.386	95.31
724.729	95.54
725.071	95.2
725.413	95.32
725.755	95.16
726.097	95.22
726.439	95.26
726.782	95.1
727.124	95.36
727.465	94.91
727.807	95.17
728.149	95.26
728.491	95.34
728.833	95.08
729.175	95.08
729.516	94.98
729.858	95.05
730.199	94.87
730.541	94.91
730.882	94.88
731.224	95.14
731.565	95.25
731.906	94.84
732.248	95.05
732.589	94.87
732.93	94.85
733.271	94.9
733.612	94.98
733.953	94.91
734.294	94.88
734.635	94.82
734.976	95.01
735.317	94.74
735.658	94.78
735.999	94.59
736.339	94.84
736.68	94.58
737.021	94.88
737.361	94.78
737.702	95.03
738.042	94.75
738.383	94.91
738.723	95.11
739.063	94.4
739.404	94.88
739.744	94.9
740.084	94.64
740.424	94.77
740.764	94.64
741.104	94.4
741.444	94.78
741.784	94.7
742.124	94.66
742.464	94.48
742.804	94.49
743.143	94.58
743.483	94.83
743.823	94.43
744.162	94.29
744.502	94.67
744.841	94.63
745.181	94.31
745.52	94.1
745.86	94.65
746.199	94.6
746.538	94.62
746.877	94.47
747.216	94.71
747.556	94.29
747.895	94.22
748.234	94.39
748.573	94.44
748.911	94.33
749.25	94.42
749.589	94.3
749.928	94.51
750.267	94.44
750.605	94.35
750.944	94.59
751.283	94.55
751.621	94.27
751.96	94.19
752.298	94.44
752.636	94.57
752.975	94.06
753.313	94.27
753.651	94.18
753.989	94.53
754.327	94.3
754.666	94.45
755.004	94.11
755.342	93.99
755.679	94.1
756.017	94.31
756.355	93.82
756.693	94.59
757.031	94.25
757.368	94.2
757.706	94.34
758.044	93.81
758.381	94.22
758.719	94.14
759.056	93.83
759.394	93.93
759.731	94.3
760.068	94.41
760.405	94.46
760.743	94.04
761.08	94.06
761.417	94.11
761.754	94.32
762.091	94.24
762.428	94.28
762.765	94.1
763.102	94.04
763.438	94.38
763.775	94.72
764.112	93.67
764.449	93.9
764.785	93.74
765.122	94.2
765.458	93.91
765.795	93.85
766.131	93.8
766.467	94.06
766.804	94.27
767.14	93.74
767.476	94.05
767.812	93.89
768.148	93.91
768.485	93.98
768.821	93.6
769.157	93.8
769.492	93.65
769.828	93.79
770.164	94.1
770.5	93.9
770.836	93.86
771.171	93.75
771.507	93.89
771.842	93.95
772.178	93.98
772.513	93.86
772.849	94
773.184	93.77
773.519	94.26
773.855	94.04
774.19	93.78
774.525	93.8
774.86	93.93
775.195	93.84
775.53	93.74
775.865	93.34
776.2	93.58
776.535	93.84
776.87	93.8
777.205	93.79
777.539	93.79
777.874	94.21
778.209	94.08
778.543	94.04
778.878	94.31
779.212	93.85
779.547	93.9
779.881	93.91
780.215	93.72
780.55	93.7
780.884	94.21
781.218	93.83
781.552	93.77
781.886	93.96
782.22	94.12
782.554	93.68
782.888	93.9
783.222	94.21
783.556	94.16
783.889	94.35
784.223	93.77
784.557	94.13
784.89	93.69
785.224	93.86
785.557	93.98
785.891	93.94
786.224	94.3
786.558	94.07
786.891	93.66
787.224	94.02
787.557	93.76
787.891	93.98
788.224	94.03
788.557	94.02
788.89	93.84
789.223	93.43
789.556	93.86
789.888	94.03
790.221	93.61
790.554	93.86
790.887	93.91
791.219	94.04
791.552	93.71
791.884	93.98
792.217	93.56
792.549	93.67
792.882	93.97
793.214	93.44
793.546	94.01
793.879	93.71
794.211	93.64
794.543	93.79
794.875	94.26
795.207	94.27
795.539	93.9
795.871	93.71
796.203	94.34
796.535	94.11
796.867	93.92
797.198	93.41
797.53	93.36
797.862	93.41
798.193	93.55
798.525	93.88
798.856	93.48
799.188	93.99
799.519	93.25
799.85	94.1
800.182	93.62
800.513	93.95
800.844	93.59
801.175	93.63
801.506	93.87
801.837	93.79
802.168	93.95
802.499	93.81
802.83	93.93
803.161	93.42
803.491	93.74
803.822	94.01
804.153	93.73
804.483	93.68
804.814	93.49
805.145	93.6
805.475	93.61
805.805	93.28
806.136	93.98
806.466	93.56
806.796	94.1
807.126	93.35
807.457	93.87
807.787	93.87
808.117	93.77
808.447	93.71
808.777	93.93
809.107	94.11
809.436	93.79
809.766	93.96
810.096	94.18
810.426	94.1
810.755	94.06
811.085	94.15
811.414	93.29
811.744	93.61
812.073	94.01
812.403	93.43
812.732	93.6
813.061	94.08
813.39	93.39
813.719	93.94
814.049	94.04
814.378	94.19
814.707	93.73
815.036	93.8
815.365	94.11
815.693	93.42
816.022	93.27
816.351	93.65
