Data from White_reflection_standard_Reflection_00005.txt Node
Date: Mon Feb 06 14:42:24 GMT 2017
User: dcchb
Spectrometer: FLMS00149
Trigger mode: 0
Integration Time (sec): 2.000000E-2
Scans to average: 10
Electric dark correction enabled: true
Nonlinearity correction enabled: false
Boxcar width: 0
XAxis mode: Wavelengths
Number of Pixels in Spectrum: 2048
>>>>>Begin Spectral Data<<<<<
341.393	68.6
341.776	68.6
342.16	68.6
342.543	-10.62
342.927	882.83
343.31	-386.75
343.693	-11.29
344.077	120
344.46	14.79
344.843	-467.87
345.226	401.27
345.61	29.66
345.993	41.6
346.376	215.27
346.759	15.28
347.142	132.89
347.525	40.6
347.908	242.18
348.291	-277.53
348.674	78.09
349.057	-329.48
349.44	150.54
349.823	-93.21
350.206	111.03
350.588	98.9
350.971	99.21
351.354	103.59
351.737	85.82
352.119	109.74
352.502	83.5
352.884	90.73
353.267	99.69
353.65	92.72
354.032	112.16
354.414	109.52
354.797	89.58
355.179	96.78
355.562	78.97
355.944	85.15
356.326	77.87
356.709	83.16
357.091	98.69
357.473	94.07
357.855	106.14
358.238	108.77
358.62	77.85
359.002	89.19
359.384	85.16
359.766	103.85
360.148	103.18
360.53	68.96
360.912	105.09
361.294	93.49
361.676	85.33
362.057	98.24
362.439	79.38
362.821	73.25
363.203	99.92
363.584	83.84
363.966	74.78
364.348	81.55
364.729	97.67
365.111	104.03
365.493	92.14
365.874	107.91
366.256	84.3
366.637	80.42
367.019	91.16
367.4	93.37
367.781	82.05
368.163	75.05
368.544	91.96
368.925	87.45
369.306	101.84
369.688	88.37
370.069	89.4
370.45	79.03
370.831	89.33
371.212	94.64
371.593	94.4
371.974	95.35
372.355	84.1
372.736	90.98
373.117	93.82
373.498	97.49
373.879	80.81
374.26	88.06
374.641	81.45
375.021	103.59
375.402	88.43
375.783	91.62
376.163	97.02
376.544	94.31
376.925	96.48
377.305	82.29
377.686	88.02
378.066	91.08
378.447	94
378.827	86.98
379.208	87.42
379.588	82.71
379.968	92.26
380.349	89.27
380.729	89.96
381.109	90.64
381.489	88.73
381.87	89.97
382.25	95.01
382.63	98.99
383.01	96.15
383.39	90.88
383.77	86.95
384.15	83.48
384.53	83.36
384.91	94.62
385.29	97.25
385.67	86.5
386.049	90.53
386.429	85.75
386.809	93.07
387.189	96.86
387.568	94.69
387.948	94.6
388.328	92.99
388.707	97.78
389.087	88.96
389.466	92.92
389.846	86.61
390.225	89.44
390.605	89.37
390.984	95.52
391.363	97.29
391.743	96.37
392.122	90.97
392.501	88.91
392.881	89.89
393.26	93.38
393.639	90.46
394.018	93.24
394.397	92.78
394.776	94.2
395.155	89.11
395.534	92.87
395.913	90.79
396.292	91.76
396.671	98.48
397.05	89.45
397.429	92.34
397.808	90.56
398.186	92.82
398.565	93.47
398.944	92.03
399.323	89.14
399.701	90.2
400.08	92.83
400.458	93.43
400.837	94.27
401.215	93.82
401.594	95.52
401.972	93.55
402.351	91.19
402.729	92.97
403.107	92.35
403.486	93.45
403.864	90.53
404.242	94.35
404.62	93.32
404.999	92.56
405.377	91.88
405.755	95.62
406.133	95.46
406.511	92.35
406.889	93.02
407.267	91.19
407.645	95.34
408.023	95.09
408.401	91.87
408.779	92.43
409.156	93.63
409.534	93.59
409.912	92.86
410.29	91.34
410.667	94.61
411.045	94.3
411.422	95.74
411.8	93.74
412.178	92.43
412.555	93.85
412.933	94.51
413.31	94.91
413.687	92.35
414.065	95.65
414.442	93.19
414.819	93.58
415.197	95.01
415.574	94.12
415.951	92.29
416.328	91.15
416.705	93.52
417.082	91.3
417.46	94.91
417.837	94.34
418.214	93.98
418.591	92.89
418.967	90.62
419.344	93.5
419.721	92.33
420.098	95.75
420.475	95.47
420.852	94.41
421.228	91.37
421.605	92.99
421.982	95.76
422.358	90.9
422.735	94.01
423.111	94.49
423.488	92.95
423.864	94.41
424.241	93.95
424.617	92.05
424.994	92.71
425.37	92.34
425.746	92.56
426.123	93.14
426.499	93.14
426.875	93.81
427.251	92.44
427.627	94.47
428.003	93.47
428.379	93.5
428.756	93.29
429.132	91.17
429.507	92.96
429.883	92.52
430.259	93.17
430.635	94.27
431.011	92.49
431.387	94.04
431.763	94.84
432.138	94.22
432.514	93.94
432.89	92.15
433.265	93.01
433.641	93.24
434.016	95.35
434.392	93.84
434.767	91.73
435.143	94.66
435.518	93.68
435.894	91.75
436.269	92.49
436.644	94.42
437.02	92.94
437.395	95.29
437.77	94.52
438.145	94.09
438.52	92.93
438.895	92.82
439.271	95.25
439.646	93.12
440.021	93.3
440.395	93.4
440.77	93.1
441.145	93.68
441.52	91.44
441.895	93.41
442.27	94.4
442.645	91.4
443.019	92.92
443.394	94.05
443.769	93.52
444.143	92.44
444.518	92.79
444.892	94.02
445.267	93.45
445.641	94.5
446.016	93.36
446.39	93.58
446.764	93.47
447.139	92.84
447.513	94
447.887	92.93
448.262	95.32
448.636	92.95
449.01	93.72
449.384	93.49
449.758	93.28
450.132	93.83
450.506	92.51
450.88	92.95
451.254	93.67
451.628	91.89
452.002	93.62
452.376	92.68
452.75	94.32
453.123	94.96
453.497	93.98
453.871	93.53
454.244	93.33
454.618	94.24
454.992	94.69
455.365	93.33
455.739	92.08
456.112	93.63
456.486	92.68
456.859	94.66
457.232	93.07
457.606	93.12
457.979	93.03
458.352	94.26
458.725	93.79
459.099	93.53
459.472	94.58
459.845	93.88
460.218	93.14
460.591	93.14
460.964	93.87
461.337	92.93
461.71	92.58
462.083	93.82
462.456	92.82
462.829	92.38
463.201	93.75
463.574	92.96
463.947	93.55
464.32	94.05
464.692	92.05
465.065	93.03
465.438	93.13
465.81	93.04
466.183	93.93
466.555	92.51
466.928	92.87
467.3	93.89
467.672	93.43
468.045	93.7
468.417	93.75
468.789	93.45
469.161	93.53
469.534	92.74
469.906	93.62
470.278	93.2
470.65	92.83
471.022	92.49
471.394	93.58
471.766	92.98
472.138	93.85
472.51	93.56
472.882	93.08
473.253	93.77
473.625	92.72
473.997	93.07
474.369	93.17
474.74	93.68
475.112	93.81
475.484	93.3
475.855	92.55
476.227	92.64
476.598	93.61
476.97	92.43
477.341	92.94
477.713	93.2
478.084	93.09
478.455	93.38
478.827	92.95
479.198	93.23
479.569	93.78
479.94	92.47
480.311	93.1
480.682	92.43
481.053	93
481.424	93.16
481.795	93.33
482.166	93.63
482.537	92.81
482.908	93.1
483.279	92.98
483.65	93.54
484.021	93.5
484.391	93.58
484.762	94.17
485.133	92.92
485.503	93.29
485.874	93.58
486.244	93.48
486.615	93.52
486.985	93.43
487.356	93.3
487.726	93.41
488.097	93.43
488.467	94.02
488.837	93.68
489.207	94.17
489.578	93.66
489.948	93.24
490.318	93.18
490.688	93.47
491.058	92.96
491.428	93.69
491.798	93.32
492.168	93.23
492.538	93.34
492.908	93.22
493.278	93.79
493.648	93.07
494.017	93.66
494.387	93.17
494.757	93.84
495.126	93.27
495.496	93.41
495.866	93.23
496.235	93.77
496.605	93.47
496.974	93.53
497.344	94.08
497.713	93.19
498.082	94.04
498.452	93.6
498.821	93.33
499.19	93.27
499.559	93.15
499.928	93.79
500.298	93.15
500.667	93.9
501.036	93.77
501.405	93.1
501.774	92.99
502.143	93.46
502.512	93.48
502.88	93.71
503.249	93.26
503.618	93.37
503.987	93.88
504.356	93.28
504.724	93.6
505.093	93.16
505.462	93.19
505.83	93.26
506.199	93.41
506.567	93.42
506.936	93.29
507.304	93.88
507.672	93.37
508.041	93.52
508.409	93.71
508.777	93.56
509.145	93.55
509.514	93.31
509.882	93.01
510.25	93.45
510.618	93.49
510.986	93.42
511.354	93.52
511.722	93.59
512.09	93.17
512.458	93.26
512.826	92.94
513.193	93.42
513.561	93.45
513.929	93.45
514.297	93.36
514.664	93.57
515.032	93.21
515.4	93.53
515.767	93.75
516.135	94.14
516.502	93.58
516.869	93.44
517.237	93.34
517.604	93.22
517.972	93.12
518.339	93.58
518.706	92.97
519.073	93.44
519.44	93.92
519.808	93.72
520.175	93.54
520.542	93.67
520.909	93.81
521.276	93.97
521.643	93.45
522.009	93.43
522.376	93.72
522.743	93.98
523.11	93.8
523.477	93.37
523.843	93.8
524.21	93.85
524.577	94.09
524.943	93.87
525.31	94.04
525.676	93.66
526.043	93.63
526.409	94.06
526.776	93.95
527.142	93.73
527.508	93.74
527.874	93.75
528.241	93.85
528.607	93.87
528.973	93.95
529.339	93.8
529.705	93.8
530.071	93.78
530.437	94.03
530.803	93.81
531.169	93.73
531.535	93.9
531.901	94.32
532.267	94.09
532.632	93.95
532.998	93.96
533.364	94.38
533.73	94.46
534.095	94.22
534.461	93.93
534.826	94.57
535.192	94.23
535.557	94.17
535.923	94.19
536.288	94.4
536.653	94.36
537.019	94.53
537.384	95.19
537.749	94.62
538.114	94.38
538.479	94.39
538.845	94.7
539.21	94.86
539.575	94.8
539.94	94.91
540.305	94.88
540.67	94.9
541.034	94.78
541.399	95.02
541.764	94.79
542.129	94.76
542.494	95.09
542.858	95.32
543.223	94.82
543.587	94.98
543.952	95.12
544.316	95.22
544.681	94.89
545.045	95.13
545.41	95.48
545.774	95.24
546.138	95.41
546.503	95.37
546.867	95.26
547.231	95.17
547.595	95.47
547.959	95.49
548.324	95.58
548.688	95.55
549.052	95.3
549.416	95.61
549.779	95.81
550.143	95.5
550.507	95.95
550.871	95.71
551.235	95.68
551.599	95.94
551.962	95.64
552.326	95.83
552.689	95.99
553.053	95.78
553.417	95.97
553.78	96.05
554.143	95.85
554.507	95.98
554.87	96.05
555.234	96.13
555.597	96.11
555.96	96.31
556.323	96.37
556.686	96.29
557.05	96.16
557.413	96.2
557.776	96.39
558.139	96.39
558.502	96.37
558.865	96.48
559.228	96.36
559.59	96.49
559.953	96.56
560.316	96.69
560.679	96.58
561.041	96.56
561.404	96.59
561.767	96.57
562.129	96.6
562.492	96.77
562.854	96.54
563.217	96.63
563.579	96.75
563.941	96.61
564.304	96.78
564.666	96.84
565.028	96.69
565.39	96.85
565.753	96.78
566.115	96.76
566.477	96.69
566.839	97.06
567.201	96.91
567.563	96.79
567.925	97.01
568.287	97.09
568.648	97.03
569.01	96.93
569.372	97.22
569.734	97.06
570.095	97.02
570.457	97.06
570.819	97.1
571.18	97.17
571.542	97.12
571.903	97.19
572.265	97.08
572.626	97.09
572.987	97.2
573.349	97.07
573.71	97.18
574.071	97.19
574.432	97.04
574.794	97.13
575.155	97.22
575.516	97.14
575.877	97.23
576.238	97.23
576.599	97.3
576.96	97.09
577.32	97.24
577.681	97.33
578.042	97.16
578.403	97.19
578.763	97.35
579.124	97.47
579.485	97.3
579.845	97.29
580.206	97.4
580.566	97.21
580.927	97.31
581.287	97.35
581.648	97.21
582.008	97.17
582.368	97.25
582.728	97.44
583.089	97.26
583.449	97.29
583.809	97.23
584.169	97.41
584.529	97.26
584.889	97.38
585.249	97.39
585.609	97.28
585.969	97.38
586.329	97.32
586.688	97.21
587.048	97.42
587.408	97.23
587.768	97.25
588.127	97.25
588.487	97.23
588.846	97.31
589.206	97.42
589.565	97.2
589.925	97.24
590.284	97.21
590.643	97.33
591.003	97.17
591.362	97.3
591.721	97.47
592.08	97.25
592.44	97.23
592.799	97.21
593.158	97.26
593.517	97.3
593.876	97.17
594.235	97.41
594.593	97.3
594.952	97.37
595.311	97.24
595.67	97.29
596.029	97.27
596.387	97.27
596.746	97.4
597.104	97.38
597.463	97.42
597.822	97.25
598.18	97.35
598.538	97.31
598.897	97.42
599.255	97.24
599.613	97.31
599.972	97.29
600.33	97.39
600.688	97.34
601.046	97.29
601.404	97.46
601.762	97.28
602.12	97.44
602.478	97.42
602.836	97.53
603.194	97.34
603.552	97.41
603.91	97.39
604.268	97.38
604.625	97.37
604.983	97.55
605.341	97.42
605.698	97.32
606.056	97.31
606.413	97.34
606.771	97.27
607.128	97.33
607.485	97.32
607.843	97.37
608.2	97.43
608.557	97.45
608.914	97.46
609.272	97.36
609.629	97.39
609.986	97.41
610.343	97.36
610.7	97.39
611.057	97.49
611.414	97.41
611.771	97.35
612.127	97.36
612.484	97.38
612.841	97.37
613.198	97.43
613.554	97.32
613.911	97.4
614.267	97.44
614.624	97.48
614.98	97.49
615.337	97.39
615.693	97.4
616.05	97.49
616.406	97.43
616.762	97.59
617.118	97.57
617.475	97.49
617.831	97.56
618.187	97.51
618.543	97.45
618.899	97.41
619.255	97.47
619.611	97.48
619.967	97.53
620.323	97.5
620.678	97.39
621.034	97.45
621.39	97.3
621.746	97.42
622.101	97.41
622.457	97.5
622.812	97.38
623.168	97.51
623.523	97.38
623.879	97.43
624.234	97.46
624.589	97.44
624.945	97.52
625.3	97.53
625.655	97.5
626.01	97.35
626.365	97.52
626.72	97.41
627.075	97.6
627.43	97.47
627.785	97.58
628.14	97.53
628.495	97.58
628.85	97.5
629.205	97.46
629.559	97.56
629.914	97.49
630.269	97.35
630.623	97.51
630.978	97.54
631.332	97.48
631.687	97.44
632.041	97.51
632.396	97.52
632.75	97.55
633.104	97.35
633.459	97.43
633.813	97.5
634.167	97.4
634.521	97.48
634.875	97.49
635.229	97.47
635.583	97.42
635.937	97.44
636.291	97.45
636.645	97.38
636.999	97.34
637.352	97.34
637.706	97.24
638.06	97.4
638.413	97.42
638.767	97.42
639.121	97.43
639.474	97.36
639.828	97.41
640.181	97.45
640.534	97.37
640.888	97.34
641.241	97.39
641.594	97.4
641.947	97.34
642.301	97.37
642.654	97.36
643.007	97.35
643.36	97.41
643.713	97.5
644.066	97.47
644.419	97.33
644.771	97.28
645.124	97.35
645.477	97.23
645.83	97.34
646.182	97.2
646.535	97.26
646.888	97.25
647.24	97.38
647.593	97.32
647.945	97.22
648.298	97.23
648.65	97.28
649.002	97.25
649.355	97.19
649.707	97.23
650.059	97.26
650.411	97.22
650.763	97.37
651.115	97.34
651.467	97.32
651.819	97.3
652.171	97.21
652.523	97.32
652.875	97.26
653.227	97.29
653.578	97.36
653.93	97.32
654.282	97.17
654.633	97.3
654.985	97.16
655.337	97.44
655.688	97.29
656.039	97.2
656.391	97.39
656.742	97.46
657.094	97.33
657.445	97.32
657.796	97.25
658.147	97.25
658.498	97.26
658.849	97.26
659.2	97.27
659.551	97.17
659.902	97.2
660.253	97.25
660.604	97.38
660.955	97.18
661.306	97.32
661.656	97.33
662.007	97.21
662.358	97.27
662.708	97.34
663.059	97.13
663.409	97.3
663.76	97.15
664.11	97.31
664.461	97.38
664.811	97.1
665.161	97.21
665.511	97.26
665.862	97.32
666.212	97.23
666.562	97.22
666.912	97.32
667.262	97.27
667.612	97.23
667.962	97.28
668.312	97.21
668.662	97.23
669.011	97.29
669.361	97.37
669.711	97.21
670.06	97.39
670.41	97.24
670.76	97.27
671.109	97.14
671.459	97.18
671.808	97.19
672.157	97.28
672.507	97.09
672.856	97.27
673.205	97.23
673.554	97.4
673.904	97.14
674.253	97.16
674.602	97.16
674.951	97.3
675.3	97.08
675.649	97.3
675.998	97.19
676.346	97.14
676.695	97.26
677.044	97.28
677.393	97.22
677.741	97.24
678.09	97.14
678.438	97.25
678.787	97.28
679.135	97.2
679.484	97.22
679.832	97.15
680.181	97.17
680.529	97.21
680.877	97.27
681.225	97.43
681.573	97.16
681.922	97.12
682.27	97.05
682.618	97.11
682.966	97.16
683.314	97.12
683.661	97.17
684.009	97.25
684.357	97.24
684.705	96.95
685.053	97.17
685.4	97.18
685.748	97.2
686.095	97.12
686.443	97.14
686.79	97.11
687.138	97.06
687.485	97.24
687.832	97.03
688.18	97.25
688.527	97.06
688.874	96.98
689.221	96.91
689.568	96.99
689.915	97.01
690.262	97.07
690.609	96.99
690.956	96.94
691.303	96.9
691.65	96.94
691.997	97.03
692.344	96.75
692.69	96.9
693.037	96.81
693.383	97.11
693.73	96.78
694.077	96.68
694.423	96.85
694.769	96.83
695.116	96.97
695.462	96.75
695.808	96.82
696.155	96.82
696.501	96.8
696.847	96.83
697.193	96.82
697.539	96.84
697.885	96.79
698.231	96.55
698.577	96.72
698.923	96.86
699.269	96.57
699.614	96.74
699.96	96.67
700.306	96.73
700.651	96.5
700.997	96.49
701.342	96.75
701.688	96.82
702.033	96.44
702.379	96.59
702.724	96.41
703.069	96.42
703.415	96.36
703.76	96.29
704.105	96.53
704.45	96.3
704.795	96.15
705.14	96.33
705.485	96.37
705.83	96.27
706.175	96.35
706.52	96.49
706.865	96.39
707.209	96.27
707.554	96.42
707.899	96.39
708.243	96.3
708.588	96.38
708.932	96.29
709.277	96.23
709.621	96.21
709.966	95.96
710.31	96.33
710.654	95.95
710.998	96.05
711.342	96.03
711.687	95.97
712.031	95.93
712.375	96
712.719	96.05
713.063	96.22
713.407	96.06
713.75	96.09
714.094	95.95
714.438	95.81
714.782	95.99
715.125	95.95
715.469	95.96
715.812	95.97
716.156	95.63
716.499	96.02
716.843	95.91
717.186	95.81
717.53	95.69
717.873	95.57
718.216	95.71
718.559	95.77
718.902	95.75
719.246	95.67
719.589	95.48
719.932	95.33
720.275	95.96
720.617	95.59
720.96	95.48
721.303	95.53
721.646	95.02
721.989	95.3
722.331	95.42
722.674	95.56
723.016	95.22
723.359	95.46
723.701	95.42
724.044	95.38
724.386	95.2
724.729	95.55
725.071	95.5
725.413	95.21
725.755	95.38
726.097	95.27
726.439	95.06
726.782	94.86
727.124	95.4
727.465	94.97
727.807	95.12
728.149	95.22
728.491	95.13
728.833	95.26
729.175	95.25
729.516	95.12
729.858	94.86
730.199	95.09
730.541	95.01
730.882	95.19
731.224	94.91
731.565	95.07
731.906	94.97
732.248	94.96
732.589	94.74
732.93	95.22
733.271	95.16
733.612	94.93
733.953	94.86
734.294	95.12
734.635	94.89
734.976	95.09
735.317	94.72
735.658	95.03
735.999	94.68
736.339	94.83
736.68	94.52
737.021	94.62
737.361	94.88
737.702	95.04
738.042	94.79
738.383	94.75
738.723	95.01
739.063	94.39
739.404	94.57
739.744	94.87
740.084	94.67
740.424	94.89
740.764	94.55
741.104	94.51
741.444	94.78
741.784	94.9
742.124	94.53
742.464	94.34
742.804	94.37
743.143	94.77
743.483	94.84
743.823	94.63
744.162	94.34
744.502	94.5
744.841	94.29
745.181	94.32
745.52	94.33
745.86	94.77
746.199	94.51
746.538	94.33
746.877	94.54
747.216	94.63
747.556	94.36
747.895	94.56
748.234	94.45
748.573	94.53
748.911	94.53
749.25	94.37
749.589	94.57
749.928	94.47
750.267	94.16
750.605	94.43
750.944	94.37
751.283	94.57
751.621	94.09
751.96	93.99
752.298	94.51
752.636	94.23
752.975	94.13
753.313	94.27
753.651	94.18
753.989	94.37
754.327	94.1
754.666	94.33
755.004	94.07
755.342	94.23
755.679	94.17
756.017	94.28
756.355	93.96
756.693	94.37
757.031	94.37
757.368	94.28
757.706	94.37
758.044	94.33
758.381	94.01
758.719	94.18
759.056	94.03
759.394	94.25
759.731	94.27
760.068	94.28
760.405	93.87
760.743	94.31
761.08	94.19
761.417	94.02
761.754	94.37
762.091	93.98
762.428	94.21
762.765	93.87
763.102	94.1
763.438	94.13
763.775	94.49
764.112	93.85
764.449	93.86
764.785	94.26
765.122	93.8
765.458	93.8
765.795	93.57
766.131	94.08
766.467	93.81
766.804	94.58
767.14	93.61
767.476	93.73
767.812	93.75
768.148	93.96
768.485	93.87
768.821	93.75
769.157	93.71
769.492	93.66
769.828	93.78
770.164	94.04
770.5	93.83
770.836	94.06
771.171	93.87
771.507	93.93
771.842	93.89
772.178	94.14
772.513	93.43
772.849	94.04
773.184	93.92
773.519	93.99
773.855	93.85
774.19	93.92
774.525	93.67
774.86	93.79
775.195	93.7
775.53	93.66
775.865	93.82
776.2	93.66
776.535	94.03
776.87	94.16
777.205	93.77
777.539	94.01
777.874	93.89
778.209	93.66
778.543	93.5
778.878	94.05
779.212	94.26
779.547	93.96
779.881	93.93
780.215	94.03
780.55	93.79
780.884	93.47
781.218	93.48
781.552	93.78
781.886	94.02
782.22	94.05
782.554	93.58
782.888	94.1
783.222	94.19
783.556	93.95
783.889	94.03
784.223	93.67
784.557	93.98
784.89	93.88
785.224	94.13
785.557	93.78
785.891	93.82
786.224	93.97
786.558	94.12
786.891	93.69
787.224	93.82
787.557	94.16
787.891	94.13
788.224	94.15
788.557	93.77
788.89	93.48
789.223	93.76
789.556	93.75
789.888	94.03
790.221	93.56
790.554	93.63
790.887	94.09
791.219	94.09
791.552	93.49
791.884	94.06
792.217	93.87
792.549	93.87
792.882	93.9
793.214	93.5
793.546	93.75
793.879	93.73
794.211	93.37
794.543	93.94
794.875	93.69
795.207	93.7
795.539	93.63
795.871	93.76
796.203	93.69
796.535	93.77
796.867	94.23
797.198	93.63
797.53	93.58
797.862	93.09
798.193	93.61
798.525	93.75
798.856	93.9
799.188	94.15
799.519	93.5
799.85	94.04
800.182	93.56
800.513	93.85
800.844	93.84
801.175	93.66
801.506	93.93
801.837	93.84
802.168	93.82
802.499	93.88
802.83	93.85
803.161	93.43
803.491	93.84
803.822	94.01
804.153	93.88
804.483	93.32
804.814	94.06
805.145	93.61
805.475	93.98
805.805	93.35
806.136	93.55
806.466	93.56
806.796	93.86
807.126	93.45
807.457	93.62
807.787	93.54
808.117	93.78
808.447	93.2
808.777	93.79
809.107	94.01
809.436	93.49
809.766	93.55
810.096	94.23
810.426	93.7
810.755	94.18
811.085	93.86
811.414	93.54
811.744	94.31
812.073	93.81
812.403	93.2
812.732	93.85
813.061	94.09
813.39	93.78
813.719	93.58
814.049	94.09
814.378	94.14
814.707	93.5
815.036	93.65
815.365	94.15
815.693	93.2
