Data from White_reflection_standard_Reflection_00009.txt Node
Date: Mon Feb 06 14:42:25 GMT 2017
User: dcchb
Spectrometer: FLMS00149
Trigger mode: 0
Integration Time (sec): 2.000000E-2
Scans to average: 10
Electric dark correction enabled: true
Nonlinearity correction enabled: false
Boxcar width: 0
XAxis mode: Wavelengths
Number of Pixels in Spectrum: 2048
>>>>>Begin Spectral Data<<<<<
341.393	22.14
341.776	22.14
342.16	22.14
342.543	-0.22
342.927	1463.64
343.31	-436.91
343.693	37.15
344.077	40.95
344.46	492.88
344.843	-532.58
345.226	891.08
345.61	-102.22
345.993	155.65
346.376	361.07
346.759	-114.86
347.142	97.26
347.525	119.55
347.908	579.27
348.291	419.82
348.674	49.98
349.057	272.25
349.44	33.59
349.823	-4.34
350.206	77.51
350.588	98.88
350.971	94.35
351.354	86.91
351.737	91.16
352.119	86.82
352.502	107.16
352.884	82.68
353.267	89.26
353.65	85.94
354.032	120.07
354.414	106.71
354.797	82.42
355.179	95.58
355.562	83.82
355.944	101.04
356.326	78.35
356.709	74.68
357.091	85.49
357.473	93.33
357.855	118.86
358.238	97.72
358.62	84.9
359.002	101.41
359.384	88.26
359.766	101.14
360.148	97.15
360.53	76.95
360.912	80.44
361.294	98.78
361.676	82.92
362.057	92.05
362.439	79.24
362.821	77.42
363.203	88.52
363.584	83.07
363.966	80.96
364.348	93.4
364.729	73.01
365.111	109.45
365.493	86.86
365.874	94.49
366.256	77.38
366.637	84.43
367.019	96.68
367.4	92.1
367.781	96.2
368.163	83.71
368.544	99.39
368.925	79.84
369.306	97.88
369.688	85.02
370.069	96.53
370.45	97.94
370.831	89.21
371.212	94.02
371.593	93.34
371.974	86.99
372.355	84.68
372.736	91.51
373.117	102.8
373.498	96.53
373.879	86.1
374.26	94.36
374.641	70.93
375.021	97.08
375.402	78.11
375.783	88.05
376.163	99.49
376.544	93.36
376.925	98.12
377.305	87.78
377.686	82.72
378.066	95.68
378.447	83.8
378.827	91.71
379.208	86.69
379.588	89.36
379.968	91.62
380.349	86.92
380.729	92.84
381.109	91.93
381.489	93.11
381.87	90.72
382.25	97.96
382.63	93.11
383.01	102.24
383.39	99.11
383.77	91.71
384.15	83.59
384.53	89.58
384.91	91.8
385.29	103.61
385.67	94.09
386.049	91.65
386.429	89.93
386.809	88.11
387.189	97.01
387.568	101.38
387.948	94.5
388.328	95.61
388.707	102.36
389.087	86.47
389.466	97.82
389.846	85.46
390.225	88.51
390.605	89.36
390.984	92.76
391.363	98.87
391.743	95
392.122	96.09
392.501	94.1
392.881	89.78
393.26	92.98
393.639	91.99
394.018	91.09
394.397	92.59
394.776	96.03
395.155	92.55
395.534	95.64
395.913	88.73
396.292	94.21
396.671	94.9
397.05	93.63
397.429	92.12
397.808	94.57
398.186	84.18
398.565	95.28
398.944	94.84
399.323	91.24
399.701	88.86
400.08	92.57
400.458	96.79
400.837	95.34
401.215	90.29
401.594	91.1
401.972	91.32
402.351	90.07
402.729	92.88
403.107	91.32
403.486	92.28
403.864	87.82
404.242	93.51
404.62	94.29
404.999	93.04
405.377	88.53
405.755	93.63
406.133	93.72
406.511	93.51
406.889	93.04
407.267	93.18
407.645	93.11
408.023	94.78
408.401	93.95
408.779	93.88
409.156	93.53
409.534	94.55
409.912	93.11
410.29	94.26
410.667	91.71
411.045	93.34
411.422	93.05
411.8	92.94
412.178	92.81
412.555	94.27
412.933	93.44
413.31	93.02
413.687	90.97
414.065	95.65
414.442	95.07
414.819	91.97
415.197	94.15
415.574	93.61
415.951	92.58
416.328	92.22
416.705	92.69
417.082	93.46
417.46	93.84
417.837	94.4
418.214	92.98
418.591	94.14
418.967	92.57
419.344	91.09
419.721	93.81
420.098	94.92
420.475	95.32
420.852	94.93
421.228	92.66
421.605	94.05
421.982	94.31
422.358	93.43
422.735	93.94
423.111	93.33
423.488	94.11
423.864	93.8
424.241	91.84
424.617	94.56
424.994	91.7
425.37	91.91
425.746	93.15
426.123	94.49
426.499	93.22
426.875	94.54
427.251	91.72
427.627	94.87
428.003	92.3
428.379	92.79
428.756	92.79
429.132	92.72
429.507	93.27
429.883	94.33
430.259	92.57
430.635	93.53
431.011	94.78
431.387	93.62
431.763	93.9
432.138	93.29
432.514	94.07
432.89	93.01
433.265	93.46
433.641	94.25
434.016	94.67
434.392	92.86
434.767	94.78
435.143	92.25
435.518	93.27
435.894	91.56
436.269	95
436.644	94.68
437.02	93.59
437.395	94.11
437.77	94.06
438.145	92.83
438.52	93.33
438.895	94.19
439.271	94.46
439.646	93.71
440.021	94.01
440.395	94.48
440.77	93.5
441.145	92.86
441.52	92.71
441.895	93.8
442.27	93.87
442.645	92.49
443.019	92.81
443.394	94.04
443.769	93.75
444.143	93.42
444.518	92.04
444.892	93.27
445.267	93.68
445.641	92.53
446.016	93.3
446.39	92.32
446.764	93.36
447.139	93.08
447.513	92.48
447.887	92.17
448.262	93.74
448.636	92.96
449.01	93.58
449.384	93.96
449.758	92.86
450.132	94.15
450.506	92.75
450.88	92.22
451.254	94.11
451.628	93.56
452.002	94.35
452.376	92.27
452.75	94.94
453.123	94.04
453.497	93.87
453.871	93.59
454.244	92.61
454.618	93.05
454.992	94.37
455.365	93.81
455.739	91.82
456.112	92.79
456.486	93.66
456.859	94.58
457.232	93.17
457.606	92.93
457.979	92.94
458.352	92.81
458.725	92.42
459.099	93.76
459.472	93.76
459.845	93.48
460.218	94.42
460.591	94.25
460.964	93.55
461.337	92.67
461.71	92.6
462.083	93.06
462.456	92.91
462.829	93.14
463.201	94.16
463.574	93.89
463.947	93.85
464.32	93.6
464.692	92.17
465.065	92.91
465.438	93.09
465.81	93.19
466.183	93.51
466.555	92.96
466.928	92.58
467.3	93.22
467.672	92.7
468.045	93.75
468.417	93.23
468.789	93.4
469.161	93.24
469.534	92.83
469.906	93.64
470.278	92.78
470.65	93.35
471.022	93.01
471.394	93.3
471.766	92.8
472.138	93.62
472.51	93.31
472.882	93.5
473.253	94.17
473.625	93.57
473.997	93.28
474.369	93.37
474.74	92.89
475.112	93.88
475.484	93.64
475.855	93.14
476.227	93.22
476.598	93.3
476.97	92.95
477.341	92.46
477.713	93.18
478.084	92.89
478.455	93.12
478.827	93.26
479.198	93.5
479.569	93.95
479.94	93.37
480.311	92.92
480.682	92.73
481.053	93.37
481.424	92.61
481.795	93.25
482.166	94
482.537	93.32
482.908	93.35
483.279	93.27
483.65	93.71
484.021	93.71
484.391	93.61
484.762	93.97
485.133	93.26
485.503	93.61
485.874	93.45
486.244	93.42
486.615	93.68
486.985	93.07
487.356	93.6
487.726	93.89
488.097	93.03
488.467	93.51
488.837	93.2
489.207	93.68
489.578	93.36
489.948	93.19
490.318	93.11
490.688	93.61
491.058	93.37
491.428	93.53
491.798	93.43
492.168	93.75
492.538	93.51
492.908	93.39
493.278	93.83
493.648	93.03
494.017	93.64
494.387	93.6
494.757	93.54
495.126	93.04
495.496	93.5
495.866	93.29
496.235	93.83
496.605	93.05
496.974	94.03
497.344	94.24
497.713	93.26
498.082	94.14
498.452	93.45
498.821	93.01
499.19	93.99
499.559	92.72
499.928	93.35
500.298	93.64
500.667	93.6
501.036	93.75
501.405	93.2
501.774	93.05
502.143	93.45
502.512	93.63
502.88	93.58
503.249	93.67
503.618	93.2
503.987	93.77
504.356	93.35
504.724	93.65
505.093	93.39
505.462	93.5
505.83	93.64
506.199	93.09
506.567	93.31
506.936	93.8
507.304	93.81
507.672	93.55
508.041	93.53
508.409	93.94
508.777	93.39
509.145	93.6
509.514	93.22
509.882	93.16
510.25	93.61
510.618	93.55
510.986	93.64
511.354	93.35
511.722	93.77
512.09	93.21
512.458	93.85
512.826	93.06
513.193	93.18
513.561	93.82
513.929	93.4
514.297	93.55
514.664	93.67
515.032	93.69
515.4	93.73
515.767	93.3
516.135	93.66
516.502	93.21
516.869	93.38
517.237	93.52
517.604	92.86
517.972	93.21
518.339	93.39
518.706	93.76
519.073	93.8
519.44	94.07
519.808	93.79
520.175	93.69
520.542	93.65
520.909	93.95
521.276	93.64
521.643	93.41
522.009	93.5
522.376	93.71
522.743	93.5
523.11	93.4
523.477	93.84
523.843	93.76
524.21	93.88
524.577	93.82
524.943	94.29
525.31	93.7
525.676	93.87
526.043	93.74
526.409	93.8
526.776	93.87
527.142	93.82
527.508	93.89
527.874	93.95
528.241	93.99
528.607	93.92
528.973	93.94
529.339	93.76
529.705	93.67
530.071	93.86
530.437	93.59
530.803	94.06
531.169	93.87
531.535	94.25
531.901	94.13
532.267	94.07
532.632	93.71
532.998	94.48
533.364	94.35
533.73	94.09
534.095	94.13
534.461	93.99
534.826	94.54
535.192	94.19
535.557	94.32
535.923	94.37
536.288	94.35
536.653	94.74
537.019	94.44
537.384	94.8
537.749	94.58
538.114	94.46
538.479	94.17
538.845	94.88
539.21	94.67
539.575	94.75
539.94	94.68
540.305	94.62
540.67	94.72
541.034	94.62
541.399	94.64
541.764	94.97
542.129	94.98
542.494	95.26
542.858	94.93
543.223	94.95
543.587	95.23
543.952	94.87
544.316	95.26
544.681	94.99
545.045	95.15
545.41	95.63
545.774	95.32
546.138	95.47
546.503	95.39
546.867	95.37
547.231	95.35
547.595	95.64
547.959	95.52
548.324	95.69
548.688	95.62
549.052	95.49
549.416	95.79
549.779	95.65
550.143	95.45
550.507	95.94
550.871	95.72
551.235	95.75
551.599	95.91
551.962	95.69
552.326	95.91
552.689	96.13
553.053	95.66
553.417	96.02
553.78	96.03
554.143	95.8
554.507	95.86
554.87	96.18
555.234	96.13
555.597	96.2
555.96	96.24
556.323	96.19
556.686	96.23
557.05	96.2
557.413	96.11
557.776	96.46
558.139	96.38
558.502	96.41
558.865	96.44
559.228	96.31
559.59	96.4
559.953	96.5
560.316	96.62
560.679	96.46
561.041	96.42
561.404	96.56
561.767	96.8
562.129	96.64
562.492	96.68
562.854	96.66
563.217	96.69
563.579	96.82
563.941	96.7
564.304	96.84
564.666	96.79
565.028	96.77
565.39	96.93
565.753	96.91
566.115	96.86
566.477	96.63
566.839	97.06
567.201	97.06
567.563	96.91
567.925	96.91
568.287	96.92
568.648	97.17
569.01	97.02
569.372	97.02
569.734	97.04
570.095	96.98
570.457	97.13
570.819	97.08
571.18	97.05
571.542	97.07
571.903	97.17
572.265	97.17
572.626	97.05
572.987	97.2
573.349	97.08
573.71	97.29
574.071	97.12
574.432	97.01
574.794	97.16
575.155	97.26
575.516	97.17
575.877	97.34
576.238	97.17
576.599	97.14
576.96	97.11
577.32	97.25
577.681	97.34
578.042	97.14
578.403	97.15
578.763	97.27
579.124	97.42
579.485	97.18
579.845	97.38
580.206	97.37
580.566	97.27
580.927	97.34
581.287	97.27
581.648	97.28
582.008	97.25
582.368	97.26
582.728	97.44
583.089	97.24
583.449	97.3
583.809	97.12
584.169	97.36
584.529	97.2
584.889	97.36
585.249	97.3
585.609	97.22
585.969	97.32
586.329	97.23
586.688	97.33
587.048	97.3
587.408	97.25
587.768	97.27
588.127	97.27
588.487	97.22
588.846	97.19
589.206	97.34
589.565	97.22
589.925	97.22
590.284	97.28
590.643	97.36
591.003	97.26
591.362	97.28
591.721	97.37
592.08	97.21
592.44	97.37
592.799	97.26
593.158	97.3
593.517	97.37
593.876	97.31
594.235	97.42
594.593	97.39
594.952	97.38
595.311	97.21
595.67	97.22
596.029	97.29
596.387	97.33
596.746	97.49
597.104	97.43
597.463	97.4
597.822	97.4
598.18	97.28
598.538	97.4
598.897	97.42
599.255	97.26
599.613	97.3
599.972	97.29
600.33	97.31
600.688	97.41
601.046	97.36
601.404	97.38
601.762	97.28
602.12	97.47
602.478	97.41
602.836	97.5
603.194	97.47
603.552	97.42
603.91	97.55
604.268	97.39
604.625	97.29
604.983	97.37
605.341	97.35
605.698	97.32
606.056	97.35
606.413	97.39
606.771	97.39
607.128	97.35
607.485	97.37
607.843	97.44
608.2	97.34
608.557	97.44
608.914	97.3
609.272	97.49
609.629	97.46
609.986	97.34
610.343	97.29
610.7	97.41
611.057	97.45
611.414	97.4
611.771	97.29
612.127	97.38
612.484	97.4
612.841	97.37
613.198	97.46
613.554	97.44
613.911	97.48
614.267	97.52
614.624	97.48
614.98	97.41
615.337	97.36
615.693	97.42
616.05	97.52
616.406	97.52
616.762	97.54
617.118	97.43
617.475	97.56
617.831	97.51
618.187	97.54
618.543	97.46
618.899	97.39
619.255	97.49
619.611	97.53
619.967	97.48
620.323	97.46
620.678	97.52
621.034	97.4
621.39	97.38
621.746	97.42
622.101	97.41
622.457	97.42
622.812	97.47
623.168	97.49
623.523	97.45
623.879	97.4
624.234	97.47
624.589	97.42
624.945	97.54
625.3	97.55
625.655	97.56
626.01	97.4
626.365	97.49
626.72	97.41
627.075	97.55
627.43	97.56
627.785	97.52
628.14	97.51
628.495	97.54
628.85	97.5
629.205	97.52
629.559	97.51
629.914	97.5
630.269	97.39
630.623	97.56
630.978	97.51
631.332	97.37
631.687	97.44
632.041	97.55
632.396	97.55
632.75	97.45
633.104	97.21
633.459	97.37
633.813	97.5
634.167	97.44
634.521	97.4
634.875	97.39
635.229	97.48
635.583	97.39
635.937	97.5
636.291	97.26
636.645	97.48
636.999	97.34
637.352	97.37
637.706	97.31
638.06	97.46
638.413	97.46
638.767	97.44
639.121	97.54
639.474	97.39
639.828	97.34
640.181	97.38
640.534	97.4
640.888	97.38
641.241	97.39
641.594	97.46
641.947	97.31
642.301	97.45
642.654	97.38
643.007	97.33
643.36	97.53
643.713	97.58
644.066	97.41
644.419	97.19
644.771	97.22
645.124	97.26
645.477	97.32
645.83	97.28
646.182	97.21
646.535	97.33
646.888	97.28
647.24	97.43
647.593	97.31
647.945	97.28
648.298	97.31
648.65	97.2
649.002	97.17
649.355	97.28
649.707	97.22
650.059	97.34
650.411	97.3
650.763	97.25
651.115	97.36
651.467	97.27
651.819	97.33
652.171	97.29
652.523	97.27
652.875	97.23
653.227	97.27
653.578	97.29
653.93	97.39
654.282	97.36
654.633	97.24
654.985	97.33
655.337	97.38
655.688	97.34
656.039	97.26
656.391	97.39
656.742	97.37
657.094	97.36
657.445	97.36
657.796	97.28
658.147	97.25
658.498	97.23
658.849	97.18
659.2	97.21
659.551	97.14
659.902	97.24
660.253	97.22
660.604	97.39
660.955	97.27
661.306	97.18
661.656	97.24
662.007	97.2
662.358	97.29
662.708	97.29
663.059	97.35
663.409	97.24
663.76	97.23
664.11	97.36
664.461	97.23
664.811	97.25
665.161	97.06
665.511	97.25
665.862	97.32
666.212	97.12
666.562	97.16
666.912	97.2
667.262	97.26
667.612	97.14
667.962	97.23
668.312	97.23
668.662	97.33
669.011	97.25
669.361	97.29
669.711	97.2
670.06	97.13
670.41	97.21
670.76	97.21
671.109	97.28
671.459	97.1
671.808	97.21
672.157	97.25
672.507	97.16
672.856	97.22
673.205	97.33
673.554	97.29
673.904	97.18
674.253	97.26
674.602	97.28
674.951	97.16
675.3	97.23
675.649	97.33
675.998	97.07
676.346	97.23
676.695	97.21
677.044	97.21
677.393	97.22
677.741	97.25
678.09	97.28
678.438	97.3
678.787	97.31
679.135	97.24
679.484	97.16
679.832	97.26
680.181	97.31
680.529	97.16
680.877	97.29
681.225	97.26
681.573	97.19
681.922	97.11
682.27	97.08
682.618	97.04
682.966	97.21
683.314	97.13
683.661	97.22
684.009	97.2
684.357	97.19
684.705	97.18
685.053	97.14
685.4	97.06
685.748	97.02
686.095	97.06
686.443	97.15
686.79	96.89
687.138	97.13
687.485	97.18
687.832	97.09
688.18	97.21
688.527	97.05
688.874	96.96
689.221	96.89
689.568	96.89
689.915	97.07
690.262	96.98
690.609	97.02
690.956	96.91
691.303	96.92
691.65	97.07
691.997	96.94
692.344	96.85
692.69	96.84
693.037	96.67
693.383	97.02
693.73	96.82
694.077	96.8
694.423	96.84
694.769	96.66
695.116	96.95
695.462	96.76
695.808	96.92
696.155	96.8
696.501	96.76
696.847	96.82
697.193	96.79
697.539	96.78
697.885	96.62
698.231	96.61
698.577	96.74
698.923	96.63
699.269	96.64
699.614	96.66
699.96	96.54
700.306	96.53
700.651	96.6
700.997	96.42
701.342	96.53
701.688	96.49
702.033	96.55
702.379	96.56
702.724	96.56
703.069	96.54
703.415	96.35
703.76	96.31
704.105	96.39
704.45	96.31
704.795	96.11
705.14	96.2
705.485	96.45
705.83	96.38
706.175	96.39
706.52	96.43
706.865	96.32
707.209	96.27
707.554	96.13
707.899	96.21
708.243	96.29
708.588	96.21
708.932	96.09
709.277	96.13
709.621	96.24
709.966	95.91
710.31	96.31
710.654	96.24
710.998	96.08
711.342	95.95
711.687	96.07
712.031	95.97
712.375	96.15
712.719	96.03
713.063	96.14
713.407	95.87
713.75	96.03
714.094	96.04
714.438	95.9
714.782	96.16
715.125	95.81
715.469	96
715.812	95.89
716.156	95.71
716.499	95.83
716.843	95.85
717.186	95.68
717.53	95.57
717.873	95.55
718.216	95.67
718.559	95.7
718.902	95.81
719.246	95.61
719.589	95.35
719.932	95.58
720.275	95.71
720.617	95.67
720.96	95.42
721.303	95.56
721.646	95.11
721.989	95.35
722.331	95.57
722.674	95.48
723.016	95.59
723.359	95.49
723.701	95.4
724.044	95.33
724.386	95.38
724.729	95.51
725.071	95.29
725.413	95.13
725.755	95.12
726.097	95.26
726.439	94.97
726.782	95.18
727.124	95.29
727.465	95.05
727.807	95.18
728.149	95.4
728.491	95.14
728.833	95.18
729.175	95.18
729.516	95.04
729.858	95.03
730.199	95.01
730.541	94.98
730.882	94.87
731.224	94.76
731.565	95.09
731.906	95.02
732.248	94.91
732.589	95.04
732.93	94.88
733.271	94.84
733.612	94.76
733.953	94.89
734.294	95.09
734.635	94.8
734.976	95.03
735.317	94.81
735.658	94.71
735.999	94.62
736.339	94.81
736.68	94.6
737.021	94.57
737.361	94.7
737.702	94.97
738.042	94.89
738.383	95.03
738.723	94.86
739.063	94.61
739.404	94.72
739.744	94.99
740.084	94.57
740.424	94.9
740.764	94.54
741.104	94.41
741.444	94.36
741.784	94.63
742.124	94.8
742.464	94.49
742.804	94.57
743.143	94.62
743.483	94.85
743.823	94.52
744.162	94.35
744.502	94.66
744.841	94.51
745.181	94.54
745.52	94.38
745.86	94.48
746.199	94.24
746.538	94.47
746.877	94.55
747.216	94.69
747.556	94.5
747.895	94.39
748.234	94.39
748.573	94.43
748.911	94.49
749.25	94.28
749.589	94.41
749.928	94.29
750.267	94.29
750.605	94.61
750.944	94.08
751.283	94.64
751.621	94.02
751.96	94.23
752.298	94.46
752.636	94.24
752.975	93.96
753.313	94.11
753.651	94.33
753.989	94.22
754.327	94.29
754.666	94.3
755.004	94.26
755.342	94.21
755.679	93.98
756.017	94.15
756.355	93.94
756.693	94.41
757.031	94.25
757.368	94.32
757.706	94.21
758.044	94.04
758.381	93.89
758.719	94.45
759.056	94.07
759.394	93.99
759.731	94.05
760.068	94.47
760.405	94.01
760.743	94.28
761.08	94.35
761.417	94.14
761.754	94.4
762.091	93.73
762.428	94.38
762.765	93.97
763.102	94.33
763.438	94.22
763.775	94.17
764.112	93.94
764.449	94.01
764.785	94.14
765.122	93.76
765.458	93.86
765.795	93.96
766.131	93.92
766.467	93.74
766.804	94.16
767.14	93.87
767.476	94
767.812	93.93
768.148	93.9
768.485	94.12
768.821	93.86
769.157	93.84
769.492	93.66
769.828	93.67
770.164	93.78
770.5	93.7
770.836	94.03
771.171	93.68
771.507	93.66
771.842	93.95
772.178	93.98
772.513	93.93
772.849	93.88
773.184	93.79
773.519	93.9
773.855	94.2
774.19	94.04
774.525	93.77
774.86	93.96
775.195	94.06
775.53	93.61
775.865	93.74
776.2	93.66
776.535	94.23
776.87	93.81
777.205	94.04
777.539	93.77
777.874	93.78
778.209	94.06
778.543	93.54
778.878	93.81
779.212	93.86
779.547	93.93
779.881	94.04
780.215	93.94
780.55	93.71
780.884	93.73
781.218	93.78
781.552	94.05
781.886	94.02
782.22	94.18
782.554	93.59
782.888	93.98
783.222	93.64
783.556	93.72
783.889	94.29
784.223	93.83
784.557	93.75
784.89	93.98
785.224	94
785.557	93.68
785.891	93.68
786.224	94.39
786.558	93.92
786.891	94.08
787.224	94.16
787.557	94.14
787.891	94.19
788.224	93.93
788.557	93.99
788.89	93.71
789.223	93.82
789.556	93.79
789.888	94.23
790.221	93.47
790.554	93.9
790.887	94.09
791.219	93.79
791.552	93.78
791.884	94.17
792.217	93.4
792.549	93.66
792.882	93.77
793.214	93.82
793.546	93.61
793.879	94.06
794.211	93.35
794.543	93.79
794.875	94.09
795.207	93.88
795.539	93.7
795.871	93.98
796.203	94.05
796.535	94.24
796.867	93.69
797.198	93.56
797.53	93.58
797.862	93.78
798.193	93.68
798.525	93.95
798.856	93.97
799.188	93.85
799.519	93.95
799.85	93.64
800.182	93.87
800.513	94.05
800.844	94.21
801.175	93.75
801.506	94.01
801.837	94.23
802.168	94.04
802.499	94.06
802.83	94.15
803.161	93.82
803.491	93.9
803.822	94
804.153	93.84
804.483	93.52
804.814	94.12
805.145	93.91
805.475	93.59
805.805	93.34
806.136	93.67
806.466	93.85
806.796	93.91
807.126	93.41
807.457	94.16
807.787	93.99
808.117	93.61
808.447	93.84
808.777	93.71
809.107	93.73
809.436	93.79
809.766	93.87
810.096	93.91
810.426	93.37
810.755	94.23
811.085	93.67
811.414	93.22
811.744	93.87
812.073	93.74
812.403	93.37
812.732	93.47
813.061	93.74
813.39	93.31
813.719	94
814.049	93.8
814.378	94.21
814.707	93.83
815.036	93.77
815.365	93.88
815.693	93.78
816.022	93.51
