Data from White_reflection_standard_Reflection_00011.txt Node
Date: Mon Feb 06 14:43:19 GMT 2017
User: dcchb
Spectrometer: FLMS00149
Trigger mode: 0
Integration Time (sec): 2.000000E-2
Scans to average: 10
Electric dark correction enabled: true
Nonlinearity correction enabled: false
Boxcar width: 0
XAxis mode: Wavelengths
Number of Pixels in Spectrum: 2048
>>>>>Begin Spectral Data<<<<<
341.393	37.63
341.776	37.63
342.16	37.63
342.543	24.98
342.927	-173.74
343.31	-465.62
343.693	56.95
344.077	-104.38
344.46	156.71
344.843	693.21
345.226	894.27
345.61	63.12
345.993	45.2
346.376	906.87
346.759	44.01
347.142	25.5
347.525	-47.69
347.908	216.73
348.291	-146.26
348.674	46.51
349.057	25.43
349.44	368.06
349.823	174.86
350.206	135.23
350.588	95.25
350.971	117.67
351.354	74.71
351.737	81.49
352.119	99.76
352.502	99.61
352.884	116.75
353.267	97.61
353.65	74.82
354.032	93.28
354.414	131.04
354.797	79.98
355.179	108.32
355.562	73.72
355.944	91.47
356.326	79.59
356.709	90.69
357.091	101.05
357.473	87.99
357.855	115.25
358.238	87.97
358.62	81.7
359.002	109.19
359.384	98.77
359.766	95.88
360.148	108.93
360.53	80.53
360.912	96.09
361.294	111.56
361.676	83.16
362.057	87.83
362.439	81.03
362.821	82.05
363.203	89.16
363.584	96.84
363.966	75.61
364.348	97.4
364.729	98.66
365.111	103.97
365.493	81.02
365.874	89.17
366.256	88.01
366.637	73.84
367.019	80.54
367.4	94.84
367.781	86.35
368.163	78.63
368.544	87.4
368.925	93.08
369.306	105.1
369.688	96.05
370.069	94.74
370.45	89.2
370.831	88.01
371.212	86.03
371.593	89.49
371.974	90.82
372.355	91.99
372.736	95.36
373.117	86.53
373.498	86.8
373.879	89.41
374.26	86.87
374.641	77.94
375.021	95.27
375.402	89.26
375.783	76.85
376.163	95.99
376.544	101.34
376.925	94.63
377.305	84.94
377.686	83.81
378.066	96.72
378.447	94.27
378.827	93.59
379.208	90.42
379.588	84.45
379.968	95.63
380.349	83.79
380.729	88.32
381.109	93.77
381.489	83.96
381.87	89.51
382.25	92.6
382.63	94.9
383.01	92.98
383.39	103.18
383.77	94.95
384.15	86.36
384.53	84.71
384.91	90.31
385.29	101.62
385.67	91
386.049	91.47
386.429	88.87
386.809	91.84
387.189	98.95
387.568	96.66
387.948	95.33
388.328	92.37
388.707	98.36
389.087	90.19
389.466	90.06
389.846	87.38
390.225	88.96
390.605	89.63
390.984	91.73
391.363	96.97
391.743	91.7
392.122	92.16
392.501	87.95
392.881	88
393.26	87.9
393.639	92.54
394.018	94.36
394.397	95.59
394.776	92.54
395.155	87.14
395.534	95.36
395.913	89.43
396.292	91.72
396.671	91.69
397.05	89.09
397.429	92.64
397.808	91.39
398.186	89.67
398.565	95.37
398.944	94.16
399.323	91.92
399.701	92.61
400.08	93.83
400.458	94.23
400.837	94
401.215	93.42
401.594	93.57
401.972	89.46
402.351	95.43
402.729	93.88
403.107	91.81
403.486	94.15
403.864	89.83
404.242	96.47
404.62	94.38
404.999	93.17
405.377	92.06
405.755	96.88
406.133	96.7
406.511	94.26
406.889	91.87
407.267	90.46
407.645	94.28
408.023	94.96
408.401	97.75
408.779	93.41
409.156	92.3
409.534	93.65
409.912	90.64
410.29	91.37
410.667	93.35
411.045	92.7
411.422	92.22
411.8	92.65
412.178	92.41
412.555	92.46
412.933	95.7
413.31	95.19
413.687	90.5
414.065	92.97
414.442	92.23
414.819	89.7
415.197	95.72
415.574	94.29
415.951	94.55
416.328	91.79
416.705	91.22
417.082	93.61
417.46	92.05
417.837	95.48
418.214	93.69
418.591	94.16
418.967	91.24
419.344	91.95
419.721	94.38
420.098	94
420.475	95.28
420.852	93.04
421.228	90.83
421.605	91.99
421.982	93.43
422.358	92.11
422.735	92.66
423.111	94.15
423.488	93.06
423.864	95.29
424.241	91.64
424.617	93.8
424.994	95
425.37	93.59
425.746	92.28
426.123	94.01
426.499	94.21
426.875	93.99
427.251	92.43
427.627	94.5
428.003	93.02
428.379	92.58
428.756	94.54
429.132	92.01
429.507	93.6
429.883	93.39
430.259	91.76
430.635	94.05
431.011	93.13
431.387	93.62
431.763	93
432.138	94.47
432.514	93.82
432.89	92.69
433.265	94.2
433.641	93.76
434.016	93.99
434.392	93.63
434.767	94.11
435.143	94.46
435.518	93.32
435.894	91.26
436.269	92.83
436.644	93.91
437.02	93.94
437.395	94.61
437.77	94.2
438.145	92.53
438.52	92.95
438.895	92.23
439.271	92.92
439.646	93.22
440.021	93.11
440.395	93.5
440.77	94.11
441.145	93.82
441.52	92.34
441.895	93.52
442.27	93.94
442.645	91.82
443.019	93.63
443.394	92.85
443.769	93.98
444.143	93.67
444.518	92.64
444.892	94.01
445.267	94.5
445.641	94.73
446.016	92.5
446.39	92.57
446.764	93.72
447.139	93.25
447.513	92.76
447.887	92.38
448.262	94.78
448.636	93.42
449.01	93.47
449.384	93.53
449.758	92.61
450.132	93.37
450.506	94.12
450.88	92.89
451.254	93.15
451.628	92.41
452.002	93.73
452.376	93.74
452.75	94.36
453.123	93.96
453.497	93.31
453.871	93.74
454.244	92.9
454.618	94.16
454.992	94.14
455.365	93.56
455.739	92.24
456.112	93.05
456.486	93.63
456.859	94.96
457.232	93.52
457.606	93.72
457.979	94.32
458.352	93.58
458.725	93.96
459.099	93.22
459.472	92.9
459.845	93.99
460.218	93.18
460.591	93.45
460.964	93.57
461.337	92.85
461.71	93.12
462.083	94.01
462.456	93.58
462.829	93.42
463.201	93.53
463.574	93.19
463.947	92.72
464.32	93.1
464.692	93.4
465.065	93.26
465.438	93.89
465.81	92.36
466.183	93.9
466.555	93.3
466.928	93.06
467.3	93
467.672	93.29
468.045	93.81
468.417	93.96
468.789	93.96
469.161	92.87
469.534	92.49
469.906	93.67
470.278	93.33
470.65	93.38
471.022	92.52
471.394	93.66
471.766	93.01
472.138	94.24
472.51	93.18
472.882	93.53
473.253	93.25
473.625	93.05
473.997	93.1
474.369	92.99
474.74	93.56
475.112	93.68
475.484	93.11
475.855	92.43
476.227	92.6
476.598	93.52
476.97	92.28
477.341	92.7
477.713	93.26
478.084	93.48
478.455	92.9
478.827	92.41
479.198	93.47
479.569	93.26
479.94	93.03
480.311	93.32
480.682	92.79
481.053	92.96
481.424	93.07
481.795	93.95
482.166	93.32
482.537	93.04
482.908	93.05
483.279	92.61
483.65	93.24
484.021	93.7
484.391	93.19
484.762	93.98
485.133	92.98
485.503	92.88
485.874	93.42
486.244	93.61
486.615	93.4
486.985	93.45
487.356	93.67
487.726	93.12
488.097	93.49
488.467	93.22
488.837	93.47
489.207	93.5
489.578	93.31
489.948	93.41
490.318	93.18
490.688	93.13
491.058	92.61
491.428	93.73
491.798	92.95
492.168	93.49
492.538	93.19
492.908	93.85
493.278	93.84
493.648	93.02
494.017	93.79
494.387	93.52
494.757	93.88
495.126	93.06
495.496	93.39
495.866	93.14
496.235	93.22
496.605	92.97
496.974	93.5
497.344	93.92
497.713	93.21
498.082	94.3
498.452	93.45
498.821	92.8
499.19	93.77
499.559	93.21
499.928	93.34
500.298	93.71
500.667	94.03
501.036	93.83
501.405	93.52
501.774	93.38
502.143	93.12
502.512	93.1
502.88	93.17
503.249	93.24
503.618	93.39
503.987	93.85
504.356	93.49
504.724	93.86
505.093	93.35
505.462	93.46
505.83	93.44
506.199	93.37
506.567	93.38
506.936	93.42
507.304	93.67
507.672	93.82
508.041	93.63
508.409	93.48
508.777	93.24
509.145	93.32
509.514	93.4
509.882	93.12
510.25	93.46
510.618	93.32
510.986	93.73
511.354	93.48
511.722	93.37
512.09	93.57
512.458	93.32
512.826	93.22
513.193	93.21
513.561	93.37
513.929	93.29
514.297	93.58
514.664	93.39
515.032	93.55
515.4	93.21
515.767	93.48
516.135	93.66
516.502	93.17
516.869	93.28
517.237	93.59
517.604	93.16
517.972	93.22
518.339	93.51
518.706	93.26
519.073	93.22
519.44	93.9
519.808	93.5
520.175	93.7
520.542	93.78
520.909	93.37
521.276	93.57
521.643	93.46
522.009	93.52
522.376	93.72
522.743	93.77
523.11	93.75
523.477	93.27
523.843	93.9
524.21	93.68
524.577	93.68
524.943	93.68
525.31	93.74
525.676	93.64
526.043	93.51
526.409	93.87
526.776	93.77
527.142	93.81
527.508	93.28
527.874	93.81
528.241	93.86
528.607	94.1
528.973	94.12
529.339	93.85
529.705	94.02
530.071	93.78
530.437	93.97
530.803	93.8
531.169	94.08
531.535	94.01
531.901	94.16
532.267	93.97
532.632	93.84
532.998	94.21
533.364	94.08
533.73	94.27
534.095	94.29
534.461	93.78
534.826	94.48
535.192	94.06
535.557	94.08
535.923	94.03
536.288	94.4
536.653	94.6
537.019	94.31
537.384	94.98
537.749	94.21
538.114	94.39
538.479	94.5
538.845	94.87
539.21	94.65
539.575	94.72
539.94	94.67
540.305	94.89
540.67	94.7
541.034	94.5
541.399	95.02
541.764	95.04
542.129	95.09
542.494	95.01
542.858	95.05
543.223	94.84
543.587	95.06
543.952	95.05
544.316	95.53
544.681	95.09
545.045	95.1
545.41	95.37
545.774	95.26
546.138	95.32
546.503	95.41
546.867	95.47
547.231	95.23
547.595	95.27
547.959	95.59
548.324	95.33
548.688	95.52
549.052	95.32
549.416	95.62
549.779	95.65
550.143	95.53
550.507	95.8
550.871	95.59
551.235	95.61
551.599	95.74
551.962	95.69
552.326	95.65
552.689	96.04
553.053	95.61
553.417	95.87
553.78	96.14
554.143	95.89
554.507	95.87
554.87	95.84
555.234	95.95
555.597	95.89
555.96	96.16
556.323	96.24
556.686	96.24
557.05	95.9
557.413	96.17
557.776	96.44
558.139	96.39
558.502	96.29
558.865	96.43
559.228	96.34
559.59	96.34
559.953	96.5
560.316	96.44
560.679	96.45
561.041	96.55
561.404	96.5
561.767	96.67
562.129	96.6
562.492	96.7
562.854	96.52
563.217	96.62
563.579	96.79
563.941	96.66
564.304	96.83
564.666	96.79
565.028	96.67
565.39	96.83
565.753	96.87
566.115	96.74
566.477	96.69
566.839	96.88
567.201	96.93
567.563	96.81
567.925	96.97
568.287	96.93
568.648	97.05
569.01	97.02
569.372	96.96
569.734	97.02
570.095	96.92
570.457	97.04
570.819	97.04
571.18	97
571.542	97.1
571.903	97.08
572.265	97.09
572.626	97.25
572.987	97.18
573.349	97.07
573.71	97.1
574.071	97.11
574.432	97.02
574.794	97.09
575.155	97.21
575.516	97.05
575.877	97.23
576.238	97.27
576.599	97.14
576.96	97.08
577.32	97.22
577.681	97.3
578.042	97.01
578.403	97.25
578.763	97.27
579.124	97.31
579.485	97.21
579.845	97.41
580.206	97.47
580.566	97.26
580.927	97.3
581.287	97.26
581.648	97.15
582.008	97.24
582.368	97.17
582.728	97.44
583.089	97.3
583.449	97.34
583.809	97.19
584.169	97.22
584.529	97.32
584.889	97.26
585.249	97.36
585.609	97.29
585.969	97.31
586.329	97.23
586.688	97.26
587.048	97.31
587.408	97.27
587.768	97.23
588.127	97.25
588.487	97.14
588.846	97.27
589.206	97.26
589.565	97.19
589.925	97.17
590.284	97.31
590.643	97.22
591.003	97.3
591.362	97.26
591.721	97.39
592.08	97.2
592.44	97.3
592.799	97.26
593.158	97.33
593.517	97.43
593.876	97.3
594.235	97.41
594.593	97.32
594.952	97.31
595.311	97.4
595.67	97.17
596.029	97.32
596.387	97.29
596.746	97.44
597.104	97.28
597.463	97.42
597.822	97.27
598.18	97.28
598.538	97.28
598.897	97.38
599.255	97.29
599.613	97.31
599.972	97.31
600.33	97.39
600.688	97.38
601.046	97.38
601.404	97.36
601.762	97.27
602.12	97.25
602.478	97.29
602.836	97.49
603.194	97.39
603.552	97.32
603.91	97.39
604.268	97.44
604.625	97.28
604.983	97.44
605.341	97.39
605.698	97.33
606.056	97.3
606.413	97.42
606.771	97.38
607.128	97.39
607.485	97.45
607.843	97.31
608.2	97.39
608.557	97.45
608.914	97.38
609.272	97.48
609.629	97.41
609.986	97.38
610.343	97.27
610.7	97.39
611.057	97.43
611.414	97.36
611.771	97.27
612.127	97.34
612.484	97.36
612.841	97.39
613.198	97.41
613.554	97.43
613.911	97.45
614.267	97.43
614.624	97.35
614.98	97.48
615.337	97.34
615.693	97.44
616.05	97.5
616.406	97.34
616.762	97.54
617.118	97.46
617.475	97.58
617.831	97.59
618.187	97.51
618.543	97.42
618.899	97.37
619.255	97.5
619.611	97.39
619.967	97.45
620.323	97.34
620.678	97.4
621.034	97.4
621.39	97.36
621.746	97.42
622.101	97.36
622.457	97.39
622.812	97.43
623.168	97.45
623.523	97.49
623.879	97.42
624.234	97.53
624.589	97.5
624.945	97.49
625.3	97.47
625.655	97.43
626.01	97.39
626.365	97.51
626.72	97.4
627.075	97.42
627.43	97.43
627.785	97.54
628.14	97.49
628.495	97.47
628.85	97.41
629.205	97.41
629.559	97.34
629.914	97.46
630.269	97.31
630.623	97.54
630.978	97.54
631.332	97.39
631.687	97.41
632.041	97.36
632.396	97.45
632.75	97.52
633.104	97.31
633.459	97.4
633.813	97.4
634.167	97.46
634.521	97.43
634.875	97.43
635.229	97.4
635.583	97.35
635.937	97.39
636.291	97.41
636.645	97.44
636.999	97.3
637.352	97.35
637.706	97.3
638.06	97.33
638.413	97.4
638.767	97.46
639.121	97.39
639.474	97.34
639.828	97.4
640.181	97.42
640.534	97.39
640.888	97.38
641.241	97.37
641.594	97.34
641.947	97.3
642.301	97.27
642.654	97.42
643.007	97.33
643.36	97.52
643.713	97.4
644.066	97.43
644.419	97.19
644.771	97.39
645.124	97.32
645.477	97.26
645.83	97.32
646.182	97.16
646.535	97.18
646.888	97.28
647.24	97.26
647.593	97.28
647.945	97.17
648.298	97.19
648.65	97.14
649.002	97.24
649.355	97.28
649.707	97.2
650.059	97.24
650.411	97.26
650.763	97.29
651.115	97.21
651.467	97.29
651.819	97.25
652.171	97.22
652.523	97.25
652.875	97.35
653.227	97.29
653.578	97.22
653.93	97.34
654.282	97.28
654.633	97.4
654.985	97.2
655.337	97.24
655.688	97.35
656.039	97.21
656.391	97.34
656.742	97.35
657.094	97.36
657.445	97.41
657.796	97.17
658.147	97.28
658.498	97.19
658.849	97.26
659.2	97.16
659.551	97.07
659.902	97.25
660.253	97.22
660.604	97.32
660.955	97.05
661.306	97.2
661.656	97.11
662.007	97.12
662.358	97.16
662.708	97.27
663.059	97.29
663.409	97.3
663.76	97.16
664.11	97.19
664.461	97.19
664.811	97.15
665.161	97.16
665.511	97.2
665.862	97.3
666.212	97.29
666.562	97.22
666.912	97.19
667.262	97.29
667.612	97.1
667.962	97.17
668.312	97.06
668.662	97.23
669.011	97.32
669.361	97.25
669.711	97.25
670.06	97.19
670.41	97.16
670.76	97.17
671.109	97.27
671.459	97.09
671.808	97.19
672.157	97.24
672.507	97.09
672.856	97.21
673.205	97.25
673.554	97.26
673.904	97.13
674.253	97.16
674.602	97.24
674.951	97.2
675.3	97.07
675.649	97.2
675.998	97.21
676.346	97.2
676.695	97.24
677.044	97.23
677.393	97.24
677.741	97.19
678.09	97.05
678.438	97.27
678.787	97.34
679.135	97.24
679.484	97.08
679.832	97.28
680.181	97.18
680.529	97.14
680.877	97.22
681.225	97.2
681.573	97.24
681.922	97.15
682.27	97.09
682.618	97.11
682.966	97.18
683.314	97.21
683.661	97.12
684.009	97.18
684.357	97.2
684.705	97.08
685.053	96.99
685.4	97.12
685.748	97.15
686.095	97.07
686.443	97.08
686.79	96.89
687.138	97.15
687.485	97.19
687.832	96.96
688.18	97.21
688.527	96.96
688.874	96.77
689.221	96.75
689.568	96.94
689.915	97.03
690.262	96.86
690.609	96.99
690.956	96.86
691.303	96.95
691.65	96.78
691.997	96.86
692.344	96.85
692.69	96.89
693.037	96.87
693.383	96.95
693.73	96.7
694.077	96.88
694.423	96.78
694.769	96.76
695.116	96.88
695.462	96.69
695.808	96.83
696.155	96.81
696.501	96.67
696.847	96.82
697.193	96.7
697.539	96.7
697.885	96.57
698.231	96.52
698.577	96.7
698.923	96.74
699.269	96.52
699.614	96.52
699.96	96.66
700.306	96.58
700.651	96.59
700.997	96.34
701.342	96.47
701.688	96.57
702.033	96.52
702.379	96.52
702.724	96.53
703.069	96.49
703.415	96.41
703.76	96.22
704.105	96.35
704.45	96.45
704.795	96.39
705.14	96.22
705.485	96.49
705.83	96.24
706.175	96.41
706.52	96.45
706.865	96.22
707.209	96.24
707.554	96.28
707.899	96.22
708.243	96.36
708.588	96.24
708.932	96.23
709.277	95.94
709.621	96.15
709.966	95.99
710.31	96.17
710.654	95.93
710.998	96.36
711.342	96.02
711.687	95.89
712.031	95.86
712.375	95.95
712.719	95.75
713.063	96.13
713.407	96.02
713.75	95.86
714.094	95.89
714.438	95.81
714.782	96.03
715.125	95.68
715.469	95.76
715.812	95.81
716.156	95.58
716.499	95.73
716.843	95.75
717.186	95.81
717.53	95.59
717.873	95.51
718.216	95.7
718.559	95.51
718.902	95.71
719.246	95.65
719.589	95.49
719.932	95.36
720.275	95.55
720.617	95.49
720.96	95.21
721.303	95.61
721.646	95.51
721.989	95.45
722.331	95.44
722.674	95.63
723.016	95.32
723.359	95.5
723.701	95.4
724.044	95.25
724.386	95.41
724.729	95.19
725.071	95.41
725.413	95.32
725.755	95.17
726.097	95.2
726.439	95
726.782	95.07
727.124	95.4
727.465	94.92
727.807	95.02
728.149	95.23
728.491	95.17
728.833	95.05
729.175	94.96
729.516	94.96
729.858	94.89
730.199	94.79
730.541	95.05
730.882	94.97
731.224	94.89
731.565	95.07
731.906	94.96
732.248	94.93
732.589	94.85
732.93	94.99
733.271	95.01
733.612	94.7
733.953	94.83
734.294	94.71
734.635	94.71
734.976	94.91
735.317	94.87
735.658	94.69
735.999	94.64
736.339	94.84
736.68	94.58
737.021	94.64
737.361	94.71
737.702	94.64
738.042	94.79
738.383	94.76
738.723	95.18
739.063	94.8
739.404	94.82
739.744	94.81
740.084	94.58
740.424	94.6
740.764	94.58
741.104	94.43
741.444	94.62
741.784	94.58
742.124	94.64
742.464	94.54
742.804	94.25
743.143	94.9
743.483	94.9
743.823	94.53
744.162	94.4
744.502	94.69
744.841	94.68
745.181	94.3
745.52	94.23
745.86	94.49
746.199	94.59
746.538	94.38
746.877	94.45
747.216	94.52
747.556	94.26
747.895	94.76
748.234	94.6
748.573	94.59
748.911	94.44
749.25	94.33
749.589	94.46
749.928	94.17
750.267	94.37
750.605	94.35
750.944	94.34
751.283	94.34
751.621	94.22
751.96	94.14
752.298	94.42
752.636	94.25
752.975	94.02
753.313	94.37
753.651	94.28
753.989	94.1
754.327	94.04
754.666	94.24
755.004	93.84
755.342	94.16
755.679	94.11
756.017	94.07
756.355	93.97
756.693	94.37
757.031	94.42
757.368	94.31
757.706	94.21
758.044	93.86
758.381	93.83
758.719	94.11
759.056	94.06
759.394	93.96
759.731	93.96
760.068	94.2
760.405	93.87
760.743	94.19
761.08	94.05
761.417	93.96
761.754	93.96
762.091	93.96
762.428	93.84
762.765	94.2
763.102	93.96
763.438	94.23
763.775	94.37
764.112	93.76
764.449	93.82
764.785	93.88
765.122	93.81
765.458	93.58
765.795	93.99
766.131	94.04
766.467	93.6
766.804	94.21
767.14	93.89
767.476	94.02
767.812	93.89
768.148	93.93
768.485	94.07
768.821	93.51
769.157	93.7
769.492	93.53
769.828	93.61
770.164	94.13
770.5	93.92
770.836	93.92
771.171	93.89
771.507	93.89
771.842	93.72
772.178	93.75
772.513	93.51
772.849	93.97
773.184	93.86
773.519	94.38
773.855	94.19
774.19	93.85
774.525	93.64
774.86	93.83
775.195	93.73
775.53	93.59
775.865	93.68
776.2	93.49
776.535	93.79
776.87	93.6
777.205	94.06
777.539	93.78
777.874	94.16
778.209	94.09
778.543	93.7
778.878	93.88
779.212	94.05
779.547	94
779.881	93.59
780.215	93.72
780.55	93.31
780.884	93.83
781.218	93.83
781.552	93.78
781.886	93.57
782.22	94.14
782.554	93.52
782.888	93.88
783.222	94.01
783.556	93.96
783.889	93.87
784.223	93.48
784.557	93.86
784.89	94.1
785.224	93.91
785.557	93.9
785.891	93.99
786.224	94.12
786.558	94.09
786.891	93.67
787.224	93.71
787.557	94.15
787.891	94.06
788.224	93.87
788.557	93.88
788.89	93.41
789.223	93.58
789.556	93.63
789.888	94
790.221	94
790.554	94.04
790.887	93.68
791.219	93.75
791.552	93.71
791.884	93.99
792.217	93.56
792.549	93.56
792.882	93.8
793.214	93.67
793.546	93.63
793.879	93.49
794.211	93.79
794.543	93.81
794.875	93.95
795.207	93.77
795.539	93.68
795.871	93.96
796.203	93.92
796.535	94.09
796.867	93.77
797.198	93.49
797.53	93.59
797.862	93.31
798.193	93.28
798.525	93.95
798.856	93.57
799.188	93.71
799.519	93.37
799.85	94.29
800.182	93.65
800.513	93.95
800.844	93.76
801.175	93.82
801.506	93.98
801.837	93.93
802.168	93.96
802.499	93.77
802.83	93.73
803.161	93.8
803.491	93.82
803.822	93.62
804.153	93.82
804.483	93.47
804.814	93.88
805.145	93.39
805.475	93.64
805.805	93.3
806.136	93.62
806.466	93.61
806.796	94.31
807.126	93.24
807.457	93.88
807.787	93.9
808.117	93.66
808.447	93.52
808.777	93.93
809.107	93.64
809.436	93.75
809.766	93.35
810.096	93.75
810.426	93.09
810.755	94.13
811.085	93.97
811.414	93.31
811.744	93.59
812.073	94.23
812.403	93.98
812.732	93.31
813.061	94.15
813.39	93.35
813.719	93.87
814.049	93.77
814.378	94.3
814.707	93.46
815.036	93.94
815.365	93.84
815.693	93.39
816.022	93.47
816.351	93.91
816.68	93.78
