Data from White_reflection_standard_Reflection_00018.txt Node
Date: Mon Feb 06 14:43:20 GMT 2017
User: dcchb
Spectrometer: FLMS00149
Trigger mode: 0
Integration Time (sec): 2.000000E-2
Scans to average: 10
Electric dark correction enabled: true
Nonlinearity correction enabled: false
Boxcar width: 0
XAxis mode: Wavelengths
Number of Pixels in Spectrum: 2048
>>>>>Begin Spectral Data<<<<<
341.393	-35.75
341.776	-35.75
342.16	-35.75
342.543	28.11
342.927	-330.3
343.31	209.15
343.693	166.55
344.077	287.81
344.46	155.34
344.843	133.48
345.226	65.61
345.61	13.24
345.993	52.33
346.376	190.08
346.759	61.18
347.142	13.41
347.525	59.4
347.908	9.09
348.291	-158.15
348.674	82.62
349.057	660.69
349.44	243.91
349.823	-80.87
350.206	70.7
350.588	81.83
350.971	104.28
351.354	92.06
351.737	104.55
352.119	90.99
352.502	105.34
352.884	94.73
353.267	97.47
353.65	61.98
354.032	100.87
354.414	110.52
354.797	90.05
355.179	116.23
355.562	86.67
355.944	105.79
356.326	93.9
356.709	91.43
357.091	92.78
357.473	92.06
357.855	89.23
358.238	96.72
358.62	91.35
359.002	101.79
359.384	94.27
359.766	87.86
360.148	92.24
360.53	73.33
360.912	87.82
361.294	94.44
361.676	98.21
362.057	98.89
362.439	83.17
362.821	66.47
363.203	93.19
363.584	87
363.966	89.43
364.348	85.71
364.729	93.93
365.111	86.4
365.493	99.13
365.874	97.63
366.256	84.66
366.637	79.96
367.019	87.19
367.4	75.34
367.781	92.72
368.163	85.68
368.544	87.7
368.925	93.91
369.306	103.23
369.688	86.34
370.069	103.44
370.45	89.03
370.831	88.51
371.212	83.61
371.593	91.05
371.974	91.17
372.355	77.82
372.736	96.05
373.117	91.56
373.498	102.6
373.879	92.34
374.26	91.52
374.641	82.57
375.021	87.51
375.402	82.79
375.783	91.77
376.163	100.11
376.544	94.93
376.925	98.82
377.305	88.75
377.686	84.43
378.066	93.38
378.447	90.95
378.827	92.15
379.208	93.4
379.588	83.79
379.968	94.87
380.349	82.29
380.729	98.48
381.109	88.91
381.489	87.62
381.87	94.93
382.25	97.19
382.63	93.75
383.01	93.25
383.39	92.95
383.77	94.5
384.15	88.99
384.53	93.34
384.91	92.33
385.29	100.43
385.67	93.08
386.049	95.7
386.429	87.09
386.809	90.93
387.189	92.6
387.568	92.76
387.948	94.15
388.328	94.07
388.707	93.69
389.087	85.71
389.466	94.15
389.846	89.37
390.225	88
390.605	88.88
390.984	90.72
391.363	96.59
391.743	91.79
392.122	95.73
392.501	92.65
392.881	91.33
393.26	91.01
393.639	94.19
394.018	89.31
394.397	95.76
394.776	92.91
395.155	87.99
395.534	91.88
395.913	92.67
396.292	88.89
396.671	94.04
397.05	91.81
397.429	95.51
397.808	92.27
398.186	90.88
398.565	93.9
398.944	92.43
399.323	89.92
399.701	89.91
400.08	95.31
400.458	90.12
400.837	98.04
401.215	94.35
401.594	92.84
401.972	91.64
402.351	93.51
402.729	94.37
403.107	91.2
403.486	95.36
403.864	91.62
404.242	94.81
404.62	93.51
404.999	92.8
405.377	93.77
405.755	96.82
406.133	94.65
406.511	92.07
406.889	92.01
407.267	93.94
407.645	93.01
408.023	94.53
408.401	94.47
408.779	91.7
409.156	94.5
409.534	94.01
409.912	92.19
410.29	91.64
410.667	93.36
411.045	92.28
411.422	92.98
411.8	93.91
412.178	93.2
412.555	93.5
412.933	94.08
413.31	93.84
413.687	91.66
414.065	95.83
414.442	93.04
414.819	92.93
415.197	95.7
415.574	94.35
415.951	93.36
416.328	92.15
416.705	90.08
417.082	91.99
417.46	92.59
417.837	93.45
418.214	94.09
418.591	94.03
418.967	91.47
419.344	92.12
419.721	92.25
420.098	94.49
420.475	95.46
420.852	92.68
421.228	91.09
421.605	92.94
421.982	93.35
422.358	94.22
422.735	92.02
423.111	94.64
423.488	92.31
423.864	93.56
424.241	91.73
424.617	93.59
424.994	92.21
425.37	93.11
425.746	92.2
426.123	93.68
426.499	93.02
426.875	94.92
427.251	92.37
427.627	94.23
428.003	91.31
428.379	93.04
428.756	93.35
429.132	93.2
429.507	92.99
429.883	92.05
430.259	92.31
430.635	93.26
431.011	93.82
431.387	93.28
431.763	93.25
432.138	94.5
432.514	94.55
432.89	93.65
433.265	93.72
433.641	94.5
434.016	94.25
434.392	91.86
434.767	93.35
435.143	94.66
435.518	93.78
435.894	91.66
436.269	94.02
436.644	93.91
437.02	93.64
437.395	93.81
437.77	93.26
438.145	92.3
438.52	93.32
438.895	93.29
439.271	94.69
439.646	93.22
440.021	94.04
440.395	94.25
440.77	94.25
441.145	94.4
441.52	92.23
441.895	94
442.27	93.84
442.645	91.49
443.019	92.78
443.394	92.98
443.769	92.48
444.143	92.9
444.518	92.71
444.892	92.84
445.267	94.95
445.641	94
446.016	93.23
446.39	92.63
446.764	93.98
447.139	92.39
447.513	92.32
447.887	92.18
448.262	94.68
448.636	92.98
449.01	93.79
449.384	93.85
449.758	92.35
450.132	93.06
450.506	94.3
450.88	92.48
451.254	93.24
451.628	93.06
452.002	93.09
452.376	93.72
452.75	94.26
453.123	94.2
453.497	93.92
453.871	93.47
454.244	93.74
454.618	94.89
454.992	94.01
455.365	93.57
455.739	91.76
456.112	93.32
456.486	94.12
456.859	93.96
457.232	92.67
457.606	92.63
457.979	93.35
458.352	94.07
458.725	92.81
459.099	93.59
459.472	93.24
459.845	93.22
460.218	94.3
460.591	93.51
460.964	93.66
461.337	92.9
461.71	93.18
462.083	93.05
462.456	92.96
462.829	92.91
463.201	94.21
463.574	93.55
463.947	94.2
464.32	93.45
464.692	93
465.065	92.62
465.438	93.69
465.81	93.48
466.183	93.27
466.555	93.24
466.928	93.93
467.3	93.07
467.672	93.23
468.045	93.27
468.417	93.75
468.789	94.36
469.161	92.65
469.534	93.22
469.906	94.08
470.278	92.35
470.65	93.28
471.022	92.65
471.394	93.44
471.766	92.35
472.138	93.96
472.51	93.46
472.882	93.15
473.253	93.8
473.625	92.54
473.997	92.93
474.369	93.04
474.74	93.61
475.112	94.07
475.484	93.2
475.855	91.99
476.227	92.8
476.598	93.73
476.97	92.9
477.341	92.86
477.713	92.92
478.084	92.99
478.455	93.18
478.827	92.64
479.198	93.36
479.569	93.19
479.94	92.97
480.311	93.69
480.682	92.97
481.053	93.07
481.424	92.85
481.795	93.12
482.166	93.74
482.537	92.92
482.908	93.38
483.279	93.55
483.65	93.61
484.021	93.42
484.391	93.9
484.762	93.99
485.133	92.71
485.503	93.22
485.874	93.1
486.244	93.86
486.615	93.75
486.985	93.65
487.356	93.23
487.726	93.27
488.097	93.28
488.467	93.48
488.837	93.45
489.207	93.56
489.578	93.19
489.948	93.47
490.318	93.27
490.688	93.21
491.058	93.12
491.428	93.43
491.798	93.46
492.168	93.33
492.538	93.01
492.908	93.15
493.278	94.16
493.648	92.59
494.017	93.16
494.387	93.14
494.757	93.88
495.126	93.57
495.496	93.56
495.866	93.08
496.235	93.41
496.605	93.19
496.974	93.21
497.344	93.63
497.713	93.12
498.082	93.97
498.452	93.35
498.821	93.27
499.19	94
499.559	93.37
499.928	93.53
500.298	93.5
500.667	93.78
501.036	93.81
501.405	93.55
501.774	93.46
502.143	93.42
502.512	93.63
502.88	93.44
503.249	93.15
503.618	93.29
503.987	93.63
504.356	93.3
504.724	93.7
505.093	93.26
505.462	93.33
505.83	93.18
506.199	93.39
506.567	93.39
506.936	93.32
507.304	93.66
507.672	93.58
508.041	93.49
508.409	93.33
508.777	93.57
509.145	93.26
509.514	93.46
509.882	93.48
510.25	93.36
510.618	93.22
510.986	93.8
511.354	93.64
511.722	93.59
512.09	93.24
512.458	93.21
512.826	93.29
513.193	93.39
513.561	93.51
513.929	93.41
514.297	93.59
514.664	93.49
515.032	93.6
515.4	93.64
515.767	93.29
516.135	93.71
516.502	93.26
516.869	93.44
517.237	93.14
517.604	93.2
517.972	93.1
518.339	93.44
518.706	93.41
519.073	93.51
519.44	93.81
519.808	93.69
520.175	93.53
520.542	93.28
520.909	93.53
521.276	93.87
521.643	93.54
522.009	93.67
522.376	93.76
522.743	93.69
523.11	93.81
523.477	93.89
523.843	93.82
524.21	93.81
524.577	93.88
524.943	93.94
525.31	94.08
525.676	93.44
526.043	93.8
526.409	93.85
526.776	93.77
527.142	93.79
527.508	93.34
527.874	93.58
528.241	94.08
528.607	94.05
528.973	93.8
529.339	93.96
529.705	94.07
530.071	94.07
530.437	93.84
530.803	93.78
531.169	93.99
531.535	93.64
531.901	94.08
532.267	94.1
532.632	93.99
532.998	93.88
533.364	94.25
533.73	94.31
534.095	94.15
534.461	94.2
534.826	94.49
535.192	94.15
535.557	94.04
535.923	94.47
536.288	94.43
536.653	94.69
537.019	94.31
537.384	94.71
537.749	94.68
538.114	94.69
538.479	94.2
538.845	94.84
539.21	94.46
539.575	94.82
539.94	94.76
540.305	94.79
540.67	94.58
541.034	94.77
541.399	95.07
541.764	94.94
542.129	94.98
542.494	95.07
542.858	95.08
543.223	94.76
543.587	95.04
543.952	95.09
544.316	95.25
544.681	94.96
545.045	95.07
545.41	95.31
545.774	95.23
546.138	95.38
546.503	95.26
546.867	95.41
547.231	95.39
547.595	95.24
547.959	95.5
548.324	95.44
548.688	95.55
549.052	95.45
549.416	95.67
549.779	95.38
550.143	95.47
550.507	95.72
550.871	95.52
551.235	95.51
551.599	95.8
551.962	95.58
552.326	95.6
552.689	96.07
553.053	95.6
553.417	95.91
553.78	95.85
554.143	95.94
554.507	96.03
554.87	95.94
555.234	95.97
555.597	95.94
555.96	96.25
556.323	96.25
556.686	96.18
557.05	96.32
557.413	96.11
557.776	96.3
558.139	96.37
558.502	96.28
558.865	96.38
559.228	96.36
559.59	96.37
559.953	96.53
560.316	96.53
560.679	96.43
561.041	96.5
561.404	96.55
561.767	96.56
562.129	96.65
562.492	96.78
562.854	96.59
563.217	96.64
563.579	96.7
563.941	96.73
564.304	96.75
564.666	96.9
565.028	96.71
565.39	96.79
565.753	96.92
566.115	96.78
566.477	96.74
566.839	96.85
567.201	97
567.563	96.79
567.925	96.95
568.287	97.07
568.648	97.09
569.01	97.05
569.372	97.02
569.734	97.07
570.095	97.03
570.457	97.07
570.819	97.11
571.18	96.92
571.542	97.05
571.903	97.07
572.265	97.12
572.626	97.1
572.987	97.09
573.349	97.1
573.71	97.26
574.071	97.16
574.432	97.05
574.794	97.08
575.155	97.27
575.516	97.03
575.877	97.21
576.238	97.19
576.599	97.22
576.96	97.08
577.32	97.23
577.681	97.4
578.042	97.13
578.403	97.3
578.763	97.21
579.124	97.4
579.485	97.26
579.845	97.29
580.206	97.39
580.566	97.19
580.927	97.27
581.287	97.26
581.648	97.2
582.008	97.16
582.368	97.12
582.728	97.43
583.089	97.22
583.449	97.22
583.809	97.2
584.169	97.37
584.529	97.25
584.889	97.29
585.249	97.27
585.609	97.2
585.969	97.39
586.329	97.22
586.688	97.35
587.048	97.31
587.408	97.2
587.768	97.18
588.127	97.26
588.487	97.23
588.846	97.21
589.206	97.32
589.565	97.25
589.925	97.28
590.284	97.27
590.643	97.27
591.003	97.28
591.362	97.26
591.721	97.4
592.08	97.38
592.44	97.21
592.799	97.23
593.158	97.33
593.517	97.31
593.876	97.3
594.235	97.31
594.593	97.34
594.952	97.33
595.311	97.27
595.67	97.24
596.029	97.2
596.387	97.37
596.746	97.41
597.104	97.3
597.463	97.22
597.822	97.26
598.18	97.3
598.538	97.3
598.897	97.28
599.255	97.32
599.613	97.21
599.972	97.35
600.33	97.37
600.688	97.4
601.046	97.29
601.404	97.31
601.762	97.28
602.12	97.5
602.478	97.37
602.836	97.52
603.194	97.27
603.552	97.31
603.91	97.37
604.268	97.39
604.625	97.3
604.983	97.43
605.341	97.31
605.698	97.34
606.056	97.32
606.413	97.36
606.771	97.31
607.128	97.3
607.485	97.36
607.843	97.42
608.2	97.38
608.557	97.46
608.914	97.39
609.272	97.47
609.629	97.36
609.986	97.28
610.343	97.34
610.7	97.37
611.057	97.38
611.414	97.39
611.771	97.29
612.127	97.25
612.484	97.43
612.841	97.34
613.198	97.42
613.554	97.46
613.911	97.37
614.267	97.44
614.624	97.43
614.98	97.49
615.337	97.46
615.693	97.44
616.05	97.52
616.406	97.43
616.762	97.51
617.118	97.48
617.475	97.58
617.831	97.56
618.187	97.55
618.543	97.43
618.899	97.44
619.255	97.5
619.611	97.53
619.967	97.46
620.323	97.4
620.678	97.49
621.034	97.39
621.39	97.38
621.746	97.36
622.101	97.38
622.457	97.44
622.812	97.41
623.168	97.42
623.523	97.39
623.879	97.38
624.234	97.41
624.589	97.4
624.945	97.58
625.3	97.45
625.655	97.53
626.01	97.48
626.365	97.47
626.72	97.46
627.075	97.45
627.43	97.52
627.785	97.51
628.14	97.49
628.495	97.54
628.85	97.49
629.205	97.53
629.559	97.41
629.914	97.54
630.269	97.39
630.623	97.54
630.978	97.39
631.332	97.51
631.687	97.41
632.041	97.57
632.396	97.55
632.75	97.47
633.104	97.39
633.459	97.32
633.813	97.44
634.167	97.48
634.521	97.41
634.875	97.44
635.229	97.4
635.583	97.36
635.937	97.44
636.291	97.36
636.645	97.42
636.999	97.38
637.352	97.43
637.706	97.29
638.06	97.33
638.413	97.35
638.767	97.28
639.121	97.4
639.474	97.35
639.828	97.38
640.181	97.45
640.534	97.37
640.888	97.43
641.241	97.36
641.594	97.46
641.947	97.35
642.301	97.43
642.654	97.36
643.007	97.3
643.36	97.31
643.713	97.28
644.066	97.53
644.419	97.17
644.771	97.24
645.124	97.25
645.477	97.34
645.83	97.3
646.182	97.15
646.535	97.31
646.888	97.26
647.24	97.35
647.593	97.21
647.945	97.26
648.298	97.27
648.65	97.25
649.002	97.18
649.355	97.15
649.707	97.3
650.059	97.34
650.411	97.29
650.763	97.19
651.115	97.25
651.467	97.3
651.819	97.31
652.171	97.35
652.523	97.34
652.875	97.26
653.227	97.25
653.578	97.31
653.93	97.31
654.282	97.3
654.633	97.24
654.985	97.16
655.337	97.31
655.688	97.35
656.039	97.29
656.391	97.21
656.742	97.47
657.094	97.36
657.445	97.29
657.796	97.19
658.147	97.25
658.498	97.17
658.849	97.22
659.2	97.24
659.551	97.13
659.902	97.2
660.253	97.19
660.604	97.28
660.955	97.23
661.306	97.26
661.656	97.22
662.007	97.18
662.358	97.16
662.708	97.21
663.059	97.31
663.409	97.26
663.76	97.26
664.11	97.28
664.461	97.1
664.811	97.25
665.161	97.15
665.511	97.08
665.862	97.25
666.212	97.18
666.562	97.15
666.912	97.14
667.262	97.22
667.612	97.19
667.962	97.18
668.312	97.29
668.662	97.2
669.011	97.32
669.361	97.3
669.711	97.06
670.06	97.17
670.41	97.07
670.76	97.23
671.109	97.18
671.459	97.12
671.808	97.18
672.157	97.28
672.507	97.05
672.856	97.19
673.205	97.17
673.554	97.28
673.904	97.18
674.253	97.25
674.602	97.31
674.951	97.25
675.3	97.12
675.649	97.25
675.998	97.26
676.346	97.14
676.695	97.19
677.044	97.24
677.393	97.28
677.741	97.21
678.09	97.14
678.438	97.23
678.787	97.26
679.135	97.4
679.484	97.08
679.832	97.14
680.181	97.23
680.529	97.07
680.877	97.22
681.225	97.21
681.573	97.16
681.922	97.11
682.27	97.07
682.618	97.1
682.966	97.1
683.314	97.15
683.661	97.17
684.009	97.1
684.357	97.2
684.705	97.07
685.053	97.07
685.4	97.12
685.748	97.06
686.095	97.04
686.443	97.01
686.79	96.96
687.138	97.02
687.485	97.07
687.832	96.94
688.18	97.21
688.527	97.01
688.874	97.07
689.221	96.75
689.568	97.02
689.915	96.91
690.262	96.96
690.609	97.03
690.956	96.92
691.303	96.94
691.65	96.74
691.997	96.82
692.344	96.77
692.69	96.85
693.037	96.89
693.383	97.08
693.73	96.71
694.077	96.83
694.423	96.82
694.769	96.81
695.116	96.85
695.462	96.69
695.808	96.89
696.155	96.71
696.501	96.73
696.847	96.86
697.193	96.66
697.539	96.82
697.885	96.65
698.231	96.59
698.577	96.76
698.923	96.73
699.269	96.53
699.614	96.68
699.96	96.61
700.306	96.51
700.651	96.53
700.997	96.45
701.342	96.59
701.688	96.54
702.033	96.41
702.379	96.6
702.724	96.23
703.069	96.69
703.415	96.45
703.76	96.37
704.105	96.27
704.45	96.33
704.795	96.28
705.14	96.24
705.485	96.39
705.83	96.27
706.175	96.54
706.52	96.3
706.865	96.18
707.209	96.23
707.554	96.18
707.899	96.08
708.243	96.14
708.588	96.3
708.932	96.25
709.277	96.14
709.621	96.22
709.966	96.09
710.31	96.28
710.654	96.12
710.998	95.96
711.342	95.96
711.687	96.01
712.031	96.04
712.375	95.99
712.719	96.09
713.063	96.2
713.407	96.05
713.75	95.96
714.094	95.75
714.438	95.8
714.782	95.81
715.125	95.74
715.469	95.76
715.812	95.82
716.156	95.61
716.499	95.94
716.843	95.63
717.186	95.56
717.53	95.63
717.873	95.5
718.216	95.66
718.559	95.76
718.902	95.72
719.246	95.56
719.589	95.62
719.932	95.42
720.275	95.4
720.617	95.33
720.96	95.39
721.303	95.67
721.646	95.38
721.989	95.21
722.331	95.39
722.674	95.45
723.016	95.38
723.359	95.54
723.701	95.39
724.044	95.39
724.386	95.26
724.729	95.12
725.071	95.39
725.413	95.1
725.755	94.95
726.097	95.44
726.439	95.21
726.782	94.95
727.124	95.6
727.465	94.96
727.807	95.14
728.149	95.19
728.491	95.03
728.833	95.04
729.175	94.99
729.516	95.1
729.858	94.79
730.199	95.05
730.541	94.95
730.882	95.11
731.224	94.8
731.565	94.95
731.906	94.77
732.248	94.78
732.589	94.84
732.93	95.05
733.271	94.75
733.612	95.04
733.953	94.8
734.294	94.85
734.635	94.72
734.976	95.2
735.317	94.83
735.658	94.69
735.999	94.73
736.339	94.78
736.68	94.63
737.021	94.76
737.361	94.66
737.702	94.89
738.042	94.68
738.383	94.75
738.723	94.89
739.063	94.42
739.404	94.74
739.744	94.75
740.084	94.65
740.424	94.99
740.764	94.62
741.104	94.6
741.444	94.52
741.784	94.85
742.124	94.67
742.464	94.22
742.804	94.49
743.143	94.83
743.483	94.83
743.823	94.48
744.162	94.29
744.502	94.69
744.841	94.39
745.181	94.31
745.52	94.12
745.86	94.33
746.199	94.45
746.538	94.47
746.877	94.28
747.216	94.48
747.556	94.55
747.895	94.37
748.234	94.42
748.573	94.63
748.911	94.45
749.25	94.16
749.589	94.47
749.928	94.29
750.267	94.68
750.605	94.19
750.944	94.44
751.283	94.43
751.621	94.03
751.96	94.16
752.298	93.99
752.636	94.08
752.975	94.26
753.313	94.12
753.651	94.05
753.989	94.11
754.327	94.23
754.666	94.37
755.004	94.17
755.342	94.26
755.679	93.81
756.017	94.25
756.355	93.99
756.693	94.21
757.031	94.38
757.368	94.44
757.706	94.29
758.044	93.94
758.381	94.13
758.719	94.22
759.056	93.97
759.394	94.21
759.731	94.21
760.068	94.2
760.405	94.1
760.743	94.17
761.08	94.33
761.417	94.21
761.754	94.25
762.091	94.06
762.428	94.19
762.765	93.87
763.102	93.91
763.438	94.33
763.775	94.26
764.112	93.95
764.449	94.1
764.785	94.25
765.122	93.86
765.458	93.83
765.795	93.93
766.131	93.87
766.467	93.79
766.804	94.35
767.14	93.64
767.476	93.91
767.812	93.99
768.148	93.96
768.485	93.89
768.821	93.74
769.157	93.7
769.492	93.84
769.828	93.72
770.164	94.14
770.5	93.95
770.836	93.85
771.171	93.78
771.507	94.07
771.842	93.91
772.178	94.12
772.513	93.59
772.849	94.1
773.184	93.97
773.519	94.05
773.855	94.07
774.19	94.27
774.525	93.89
774.86	93.63
775.195	93.59
775.53	93.83
775.865	93.65
776.2	93.79
776.535	94.25
776.87	94.03
777.205	93.75
777.539	93.85
777.874	93.72
778.209	93.68
778.543	93.3
778.878	93.98
779.212	93.99
779.547	93.65
779.881	93.57
780.215	93.79
780.55	93.66
780.884	93.76
781.218	93.31
781.552	93.75
781.886	93.73
782.22	94.25
782.554	93.34
782.888	93.67
783.222	93.95
783.556	94.31
783.889	94.11
784.223	93.78
784.557	93.79
784.89	94.12
785.224	94.23
785.557	93.72
785.891	93.91
786.224	94.21
786.558	93.95
786.891	93.67
787.224	93.85
787.557	94.25
787.891	93.98
788.224	94.27
788.557	93.77
788.89	93.7
789.223	93.61
789.556	93.7
789.888	94.1
790.221	93.54
790.554	93.83
790.887	93.99
791.219	93.92
791.552	93.69
791.884	93.68
792.217	93.48
792.549	93.35
792.882	93.46
793.214	93.83
793.546	93.76
793.879	93.7
794.211	93.53
794.543	93.96
794.875	93.79
795.207	93.85
795.539	93.61
795.871	93.7
796.203	93.87
796.535	93.89
796.867	93.95
797.198	93.8
797.53	93.85
797.862	93.93
798.193	93.43
798.525	93.85
798.856	93.92
799.188	93.9
799.519	93.36
799.85	93.95
800.182	93.83
800.513	94.02
800.844	93.87
801.175	93.52
801.506	93.9
801.837	94.09
802.168	94.24
802.499	94.14
802.83	93.66
803.161	93.7
803.491	94.03
803.822	93.6
804.153	93.7
804.483	93.22
804.814	93.54
805.145	93.96
805.475	93.88
805.805	92.79
806.136	94.16
806.466	93.85
806.796	93.89
807.126	93.71
807.457	93.9
807.787	94.21
808.117	93.63
808.447	93.38
808.777	93.92
809.107	93.63
809.436	93.87
809.766	93.57
810.096	93.85
810.426	93.79
810.755	93.82
811.085	94.13
811.414	93.48
811.744	93.59
812.073	93.94
812.403	93.42
812.732	93.37
813.061	94.1
813.39	93.26
813.719	93.79
814.049	93.73
814.378	94.25
814.707	94.01
815.036	93.93
815.365	93.9
815.693	93.35
816.022	93.51
816.351	93.71
