Data from White_reflection_standard_Reflection_00020.txt Node
Date: Mon Feb 06 14:43:21 GMT 2017
User: dcchb
Spectrometer: FLMS00149
Trigger mode: 0
Integration Time (sec): 2.000000E-2
Scans to average: 10
Electric dark correction enabled: true
Nonlinearity correction enabled: false
Boxcar width: 0
XAxis mode: Wavelengths
Number of Pixels in Spectrum: 2048
>>>>>Begin Spectral Data<<<<<
341.393	2.46
341.776	2.46
342.16	2.46
342.543	21.4
342.927	-904.04
343.31	-166.88
343.693	40.52
344.077	289.33
344.46	-101.1
344.843	-51.13
345.226	-550.96
345.61	-17.84
345.993	119.94
346.376	330.53
346.759	7.92
347.142	48.77
347.525	13.86
347.908	163.27
348.291	-225.11
348.674	44.43
349.057	147.4
349.44	252.48
349.823	96.22
350.206	83.47
350.588	98.39
350.971	92.91
351.354	79.2
351.737	87.25
352.119	118.71
352.502	102.81
352.884	126.52
353.267	96.57
353.65	98.34
354.032	124.72
354.414	109.63
354.797	77.57
355.179	88.81
355.562	78.71
355.944	114.93
356.326	81.35
356.709	91
357.091	104.32
357.473	102.53
357.855	97.47
358.238	106.5
358.62	88.27
359.002	85.45
359.384	83.8
359.766	99.26
360.148	103.44
360.53	103
360.912	100.45
361.294	113.14
361.676	94.18
362.057	82.62
362.439	84.28
362.821	83.14
363.203	92.98
363.584	89.34
363.966	82.92
364.348	95.03
364.729	88.03
365.111	97.49
365.493	96.55
365.874	87
366.256	91.26
366.637	76.8
367.019	80.28
367.4	96.71
367.781	87.69
368.163	80.25
368.544	105.43
368.925	93.18
369.306	108.01
369.688	96.43
370.069	88.9
370.45	86.08
370.831	96.96
371.212	87.13
371.593	90.33
371.974	106.46
372.355	91.87
372.736	103.33
373.117	101.42
373.498	99.77
373.879	91.61
374.26	87.69
374.641	77.84
375.021	102.95
375.402	76.68
375.783	90.44
376.163	96.67
376.544	100.15
376.925	93.83
377.305	77.94
377.686	85.59
378.066	92.6
378.447	89.2
378.827	90.51
379.208	92.72
379.588	94.9
379.968	98.44
380.349	89.78
380.729	95.48
381.109	93.69
381.489	90.73
381.87	91.57
382.25	99.03
382.63	94.5
383.01	96.23
383.39	96.7
383.77	91.39
384.15	88.68
384.53	92.06
384.91	92.88
385.29	92.3
385.67	90.04
386.049	87.8
386.429	93.38
386.809	92.22
387.189	96.73
387.568	95.03
387.948	90.34
388.328	95.53
388.707	98.05
389.087	85.82
389.466	93.76
389.846	89.14
390.225	91.45
390.605	86.1
390.984	92.14
391.363	94.76
391.743	93.14
392.122	96.75
392.501	89.08
392.881	90.53
393.26	89.02
393.639	92.9
394.018	93.33
394.397	96.83
394.776	95.12
395.155	89.8
395.534	90.51
395.913	90.64
396.292	96.4
396.671	96.09
397.05	92.07
397.429	91.7
397.808	95.64
398.186	90.01
398.565	91.17
398.944	94.22
399.323	91.46
399.701	91.66
400.08	90.25
400.458	92.28
400.837	97.71
401.215	91.15
401.594	96.56
401.972	90.3
402.351	93.16
402.729	89.88
403.107	90.91
403.486	91.38
403.864	92.69
404.242	96.67
404.62	92.94
404.999	90.16
405.377	90.84
405.755	98.75
406.133	93.55
406.511	94.8
406.889	93.05
407.267	89.37
407.645	94.24
408.023	94.2
408.401	91.98
408.779	94.59
409.156	93.3
409.534	93.76
409.912	91.3
410.29	91.33
410.667	93.31
411.045	92.63
411.422	93.33
411.8	91.81
412.178	93.69
412.555	95.35
412.933	94.45
413.31	92.13
413.687	91.66
414.065	96.19
414.442	91.46
414.819	92.37
415.197	95.61
415.574	95.24
415.951	93.23
416.328	93.91
416.705	91.94
417.082	94.45
417.46	92.48
417.837	95.16
418.214	93.37
418.591	92.92
418.967	91.66
419.344	93.07
419.721	93.52
420.098	94.5
420.475	96.29
420.852	95.16
421.228	92.75
421.605	93.45
421.982	92.37
422.358	92.92
422.735	95.46
423.111	94.2
423.488	93.24
423.864	91.59
424.241	93.16
424.617	92.56
424.994	92.34
425.37	92.77
425.746	92.65
426.123	93.76
426.499	92.07
426.875	93.84
427.251	92.5
427.627	95.85
428.003	92.09
428.379	93.88
428.756	93.67
429.132	94.07
429.507	92.72
429.883	91.89
430.259	93.57
430.635	93.79
431.011	94.75
431.387	92.57
431.763	94.52
432.138	94.73
432.514	94.13
432.89	91.98
433.265	93.64
433.641	93.64
434.016	92.81
434.392	92.94
434.767	93.94
435.143	93.98
435.518	93.83
435.894	91.41
436.269	94
436.644	95.49
437.02	93.27
437.395	94.98
437.77	93.1
438.145	93.58
438.52	93.63
438.895	92.83
439.271	93.71
439.646	93.9
440.021	93.34
440.395	94.35
440.77	94.18
441.145	92.92
441.52	92.56
441.895	94.18
442.27	94.02
442.645	91.13
443.019	92.49
443.394	93.72
443.769	93.88
444.143	93.18
444.518	92.69
444.892	94.05
445.267	93.93
445.641	93.39
446.016	93.37
446.39	93.19
446.764	93.08
447.139	93.06
447.513	92.76
447.887	91.94
448.262	94.58
448.636	92.96
449.01	93.51
449.384	93.38
449.758	93.8
450.132	93.24
450.506	93.22
450.88	92.56
451.254	92.19
451.628	93.71
452.002	93.59
452.376	94.05
452.75	93.85
453.123	94.31
453.497	93.98
453.871	94.23
454.244	93.51
454.618	93.25
454.992	94.66
455.365	93.33
455.739	92.02
456.112	92.47
456.486	93.67
456.859	93.91
457.232	94.27
457.606	92.31
457.979	93.27
458.352	94.68
458.725	93.26
459.099	93.65
459.472	92.7
459.845	93.41
460.218	93.1
460.591	93.81
460.964	93.93
461.337	92.96
461.71	92.86
462.083	93.48
462.456	93.16
462.829	93.4
463.201	93.85
463.574	93.43
463.947	93.76
464.32	94.11
464.692	93.18
465.065	92.62
465.438	92.79
465.81	93.14
466.183	93.96
466.555	93.13
466.928	92.87
467.3	93.22
467.672	93.7
468.045	93.49
468.417	93.46
468.789	92.96
469.161	92.67
469.534	92.64
469.906	93.75
470.278	92.96
470.65	93.13
471.022	93.08
471.394	93.75
471.766	92.78
472.138	93.98
472.51	92.8
472.882	93.43
473.253	92.66
473.625	93.16
473.997	92.5
474.369	92.6
474.74	94.11
475.112	93.37
475.484	93.14
475.855	92.47
476.227	92.98
476.598	93.24
476.97	93.09
477.341	92.78
477.713	93.11
478.084	93.05
478.455	92.91
478.827	92.77
479.198	93.35
479.569	93.79
479.94	93.26
480.311	93.36
480.682	92.95
481.053	92.9
481.424	92.62
481.795	93.11
482.166	93.37
482.537	92.91
482.908	93.15
483.279	93.27
483.65	93.58
484.021	93.61
484.391	93.4
484.762	93.71
485.133	92.84
485.503	93.16
485.874	93.02
486.244	93.72
486.615	93.43
486.985	93.31
487.356	93.24
487.726	93.37
488.097	93.35
488.467	93.52
488.837	92.96
489.207	93.58
489.578	93.68
489.948	93.66
490.318	93.33
490.688	93.53
491.058	93.39
491.428	93.57
491.798	93.41
492.168	93.09
492.538	93.28
492.908	93.39
493.278	93.84
493.648	93.62
494.017	93.31
494.387	93.06
494.757	93.82
495.126	93.44
495.496	93.61
495.866	92.64
496.235	93.56
496.605	93.19
496.974	93.38
497.344	93.97
497.713	93.43
498.082	94.6
498.452	93.52
498.821	93.37
499.19	93.75
499.559	93.36
499.928	93.38
500.298	93.71
500.667	93.69
501.036	93.52
501.405	93.31
501.774	93.07
502.143	93.32
502.512	93.51
502.88	93.82
503.249	93.3
503.618	93.43
503.987	93.39
504.356	93.42
504.724	93.73
505.093	93.31
505.462	93.34
505.83	93.18
506.199	93.21
506.567	93.36
506.936	93.86
507.304	93.85
507.672	93.2
508.041	93.21
508.409	93.46
508.777	93.21
509.145	93.31
509.514	93.12
509.882	92.83
510.25	93.66
510.618	93.4
510.986	93.2
511.354	93.35
511.722	93.51
512.09	93.29
512.458	93.36
512.826	93.45
513.193	93.62
513.561	93.47
513.929	93.31
514.297	93.56
514.664	93.24
515.032	93.62
515.4	93.51
515.767	93.82
516.135	94.09
516.502	93.45
516.869	93.44
517.237	93.5
517.604	93.13
517.972	93.25
518.339	93.45
518.706	93.11
519.073	93.33
519.44	93.69
519.808	93.67
520.175	93.55
520.542	93.75
520.909	94
521.276	93.43
521.643	93.69
522.009	93.57
522.376	93.7
522.743	93.68
523.11	93.78
523.477	93.94
523.843	93.76
524.21	93.51
524.577	93.87
524.943	93.68
525.31	93.9
525.676	93.67
526.043	93.94
526.409	93.84
526.776	93.9
527.142	93.83
527.508	93.59
527.874	94.06
528.241	93.87
528.607	93.75
528.973	93.86
529.339	93.98
529.705	93.96
530.071	93.97
530.437	93.88
530.803	93.96
531.169	94.12
531.535	93.96
531.901	94.23
532.267	94.1
532.632	93.94
532.998	94.1
533.364	94.24
533.73	94.27
534.095	94.26
534.461	94.27
534.826	94.33
535.192	94.22
535.557	93.97
535.923	94.34
536.288	94.39
536.653	94.44
537.019	94.55
537.384	94.9
537.749	94.47
538.114	94.22
538.479	94.55
538.845	94.79
539.21	94.69
539.575	94.8
539.94	94.79
540.305	94.73
540.67	94.78
541.034	94.7
541.399	94.77
541.764	94.86
542.129	94.93
542.494	95.28
542.858	94.89
543.223	94.72
543.587	94.87
543.952	95.08
544.316	95.34
544.681	95.01
545.045	95.07
545.41	95.26
545.774	95.12
546.138	95.47
546.503	95.29
546.867	95.46
547.231	95.44
547.595	95.39
547.959	95.69
548.324	95.51
548.688	95.39
549.052	95.55
549.416	95.59
549.779	95.64
550.143	95.59
550.507	95.92
550.871	95.63
551.235	95.6
551.599	96.09
551.962	95.86
552.326	95.56
552.689	96.05
553.053	95.59
553.417	95.78
553.78	95.9
554.143	95.78
554.507	96
554.87	95.95
555.234	96.03
555.597	96
555.96	96.15
556.323	96.26
556.686	96.17
557.05	96.12
557.413	96.13
557.776	96.44
558.139	96.32
558.502	96.32
558.865	96.32
559.228	96.37
559.59	96.43
559.953	96.56
560.316	96.47
560.679	96.39
561.041	96.46
561.404	96.53
561.767	96.66
562.129	96.68
562.492	96.7
562.854	96.66
563.217	96.64
563.579	96.83
563.941	96.72
564.304	96.74
564.666	96.86
565.028	96.73
565.39	96.87
565.753	96.91
566.115	96.83
566.477	96.63
566.839	96.93
567.201	97.02
567.563	96.85
567.925	96.96
568.287	97.06
568.648	97.12
569.01	96.97
569.372	97.12
569.734	96.92
570.095	97.05
570.457	97.02
570.819	97.05
571.18	97.08
571.542	97.18
571.903	97.08
572.265	97.1
572.626	97.13
572.987	97.11
573.349	96.95
573.71	97.13
574.071	97.2
574.432	97.1
574.794	97.14
575.155	97.17
575.516	97.12
575.877	97.33
576.238	97.18
576.599	97.26
576.96	97.09
577.32	97.12
577.681	97.38
578.042	97.13
578.403	97.23
578.763	97.25
579.124	97.35
579.485	97.31
579.845	97.37
580.206	97.45
580.566	97.08
580.927	97.35
581.287	97.27
581.648	97.16
582.008	97.22
582.368	97.15
582.728	97.29
583.089	97.31
583.449	97.27
583.809	97.19
584.169	97.4
584.529	97.26
584.889	97.23
585.249	97.28
585.609	97.26
585.969	97.28
586.329	97.32
586.688	97.41
587.048	97.41
587.408	97.16
587.768	97.2
588.127	97.43
588.487	97.25
588.846	97.25
589.206	97.24
589.565	97.23
589.925	97.08
590.284	97.26
590.643	97.39
591.003	97.13
591.362	97.24
591.721	97.4
592.08	97.33
592.44	97.34
592.799	97.27
593.158	97.24
593.517	97.31
593.876	97.23
594.235	97.33
594.593	97.23
594.952	97.39
595.311	97.32
595.67	97.2
596.029	97.24
596.387	97.33
596.746	97.37
597.104	97.32
597.463	97.33
597.822	97.32
598.18	97.31
598.538	97.24
598.897	97.4
599.255	97.26
599.613	97.28
599.972	97.29
600.33	97.43
600.688	97.34
601.046	97.36
601.404	97.36
601.762	97.36
602.12	97.46
602.478	97.41
602.836	97.52
603.194	97.36
603.552	97.3
603.91	97.46
604.268	97.36
604.625	97.28
604.983	97.4
605.341	97.42
605.698	97.33
606.056	97.46
606.413	97.41
606.771	97.36
607.128	97.35
607.485	97.4
607.843	97.44
608.2	97.38
608.557	97.5
608.914	97.3
609.272	97.37
609.629	97.46
609.986	97.4
610.343	97.28
610.7	97.4
611.057	97.46
611.414	97.5
611.771	97.29
612.127	97.31
612.484	97.48
612.841	97.32
613.198	97.44
613.554	97.45
613.911	97.39
614.267	97.52
614.624	97.41
614.98	97.54
615.337	97.3
615.693	97.42
616.05	97.51
616.406	97.38
616.762	97.53
617.118	97.53
617.475	97.42
617.831	97.56
618.187	97.55
618.543	97.47
618.899	97.44
619.255	97.47
619.611	97.51
619.967	97.5
620.323	97.45
620.678	97.52
621.034	97.47
621.39	97.36
621.746	97.48
622.101	97.34
622.457	97.47
622.812	97.48
623.168	97.37
623.523	97.47
623.879	97.34
624.234	97.47
624.589	97.36
624.945	97.53
625.3	97.46
625.655	97.51
626.01	97.39
626.365	97.47
626.72	97.44
627.075	97.47
627.43	97.46
627.785	97.58
628.14	97.52
628.495	97.51
628.85	97.48
629.205	97.42
629.559	97.43
629.914	97.54
630.269	97.42
630.623	97.57
630.978	97.45
631.332	97.31
631.687	97.37
632.041	97.46
632.396	97.5
632.75	97.45
633.104	97.4
633.459	97.37
633.813	97.5
634.167	97.34
634.521	97.41
634.875	97.45
635.229	97.46
635.583	97.37
635.937	97.51
636.291	97.44
636.645	97.37
636.999	97.35
637.352	97.39
637.706	97.24
638.06	97.43
638.413	97.55
638.767	97.37
639.121	97.43
639.474	97.29
639.828	97.39
640.181	97.44
640.534	97.29
640.888	97.35
641.241	97.42
641.594	97.3
641.947	97.47
642.301	97.38
642.654	97.36
643.007	97.33
643.36	97.47
643.713	97.45
644.066	97.42
644.419	97.32
644.771	97.24
645.124	97.29
645.477	97.28
645.83	97.32
646.182	97.17
646.535	97.28
646.888	97.17
647.24	97.3
647.593	97.21
647.945	97.29
648.298	97.29
648.65	97.22
649.002	97.22
649.355	97.09
649.707	97.16
650.059	97.24
650.411	97.26
650.763	97.18
651.115	97.35
651.467	97.28
651.819	97.22
652.171	97.32
652.523	97.31
652.875	97.27
653.227	97.13
653.578	97.31
653.93	97.33
654.282	97.35
654.633	97.32
654.985	97.26
655.337	97.43
655.688	97.29
656.039	97.19
656.391	97.31
656.742	97.41
657.094	97.27
657.445	97.33
657.796	97.11
658.147	97.23
658.498	97.15
658.849	97.21
659.2	97.28
659.551	97.2
659.902	97.21
660.253	97.2
660.604	97.35
660.955	97.21
661.306	97.19
661.656	97.35
662.007	97.18
662.358	97.23
662.708	97.27
663.059	97.21
663.409	97.17
663.76	97.27
664.11	97.25
664.461	97.25
664.811	97.26
665.161	97.07
665.511	97.29
665.862	97.26
666.212	97.18
666.562	97.11
666.912	97.26
667.262	97.33
667.612	97.07
667.962	97.21
668.312	97.31
668.662	97.16
669.011	97.27
669.361	97.32
669.711	97.22
670.06	97.13
670.41	97.09
670.76	97.19
671.109	97.25
671.459	97.1
671.808	97.19
672.157	97.17
672.507	97.06
672.856	97.25
673.205	97.18
673.554	97.35
673.904	97.16
674.253	97.19
674.602	97.22
674.951	97.24
675.3	97.17
675.649	97.19
675.998	97.17
676.346	97.23
676.695	97.22
677.044	97.26
677.393	97.28
677.741	97.11
678.09	97.2
678.438	97.3
678.787	97.1
679.135	97.16
679.484	97.15
679.832	97.17
680.181	97.33
680.529	97.21
680.877	97.24
681.225	97.31
681.573	97.37
681.922	97.06
682.27	96.99
682.618	97.19
682.966	97.1
683.314	97.19
683.661	97.22
684.009	97.11
684.357	97.14
684.705	97.07
685.053	97.31
685.4	96.99
685.748	97.12
686.095	97.07
686.443	97.12
686.79	97.01
687.138	97.03
687.485	97.25
687.832	97.06
688.18	97.16
688.527	96.95
688.874	97.07
689.221	96.95
689.568	97.06
689.915	96.91
690.262	96.9
690.609	97.02
690.956	96.99
691.303	96.86
691.65	96.98
691.997	96.92
692.344	96.81
692.69	96.89
693.037	96.79
693.383	97.07
693.73	96.84
694.077	96.92
694.423	96.76
694.769	96.9
695.116	96.83
695.462	96.85
695.808	96.79
696.155	96.73
696.501	96.67
696.847	96.88
697.193	96.7
697.539	96.96
697.885	96.7
698.231	96.53
698.577	96.7
698.923	96.77
699.269	96.54
699.614	96.66
699.96	96.68
700.306	96.68
700.651	96.57
700.997	96.54
701.342	96.54
701.688	96.54
702.033	96.52
702.379	96.58
702.724	96.57
703.069	96.41
703.415	96.34
703.76	96.35
704.105	96.35
704.45	96.22
704.795	96.22
705.14	96.21
705.485	96.22
705.83	96.31
706.175	96.54
706.52	96.34
706.865	96.18
707.209	96.07
707.554	96.22
707.899	96.04
708.243	96.23
708.588	96.23
708.932	96.09
709.277	96.06
709.621	95.98
709.966	96.13
710.31	96.35
710.654	96.06
710.998	96.06
711.342	96.02
711.687	96.06
712.031	95.99
712.375	96
712.719	95.87
713.063	96.19
713.407	96.01
713.75	96.06
714.094	95.91
714.438	95.72
714.782	95.96
715.125	95.69
715.469	95.9
715.812	95.95
716.156	95.48
716.499	96.04
716.843	95.84
717.186	95.91
717.53	95.64
717.873	95.39
718.216	95.62
718.559	95.65
718.902	95.85
719.246	95.62
719.589	95.61
719.932	95.31
720.275	95.46
720.617	95.51
720.96	95.36
721.303	95.39
721.646	95.35
721.989	95.22
722.331	95.47
722.674	95.45
723.016	95.3
723.359	95.25
723.701	95.61
724.044	95.33
724.386	95.51
724.729	95.39
725.071	95.06
725.413	95.27
725.755	95.12
726.097	95.32
726.439	95.15
726.782	95.19
727.124	95.46
727.465	95.14
727.807	95.05
728.149	95.34
728.491	95.13
728.833	95.11
729.175	95.13
729.516	95.1
729.858	94.99
730.199	94.94
730.541	94.99
730.882	95.09
731.224	94.91
731.565	94.87
731.906	94.96
732.248	95.07
732.589	94.82
732.93	95.02
733.271	94.77
733.612	94.75
733.953	94.72
734.294	94.77
734.635	94.88
734.976	94.83
735.317	94.83
735.658	94.97
735.999	94.48
736.339	94.86
736.68	94.56
737.021	94.59
737.361	94.64
737.702	94.44
738.042	94.73
738.383	94.82
738.723	94.89
739.063	94.53
739.404	94.85
739.744	94.92
740.084	94.51
740.424	94.72
740.764	94.69
741.104	94.64
741.444	94.72
741.784	95
742.124	94.87
742.464	94.38
742.804	94.39
743.143	94.53
743.483	94.73
743.823	94.28
744.162	94.47
744.502	94.67
744.841	94.51
745.181	94.16
745.52	94.2
745.86	94.57
746.199	94.79
746.538	94.28
746.877	94.51
747.216	94.22
747.556	94.16
747.895	94.4
748.234	94.56
748.573	94.38
748.911	94.44
749.25	94.13
749.589	94.46
749.928	94.08
750.267	94.59
750.605	94.34
750.944	94.15
751.283	94.19
751.621	94.27
751.96	93.84
752.298	94.34
752.636	94.16
752.975	94.16
753.313	94.02
753.651	94.26
753.989	94.14
754.327	94.28
754.666	94.41
755.004	94.33
755.342	94.09
755.679	93.81
756.017	94.53
756.355	93.85
756.693	94.35
757.031	94.33
757.368	94.05
757.706	94.04
758.044	93.91
758.381	94.09
758.719	94.67
759.056	94.04
759.394	94.27
759.731	93.78
760.068	94.49
760.405	94.27
760.743	94.49
761.08	93.89
761.417	93.96
761.754	94.3
762.091	93.75
762.428	93.77
762.765	93.96
763.102	93.91
763.438	94.03
763.775	93.98
764.112	93.91
764.449	94.06
764.785	94.11
765.122	94.02
765.458	93.95
765.795	93.54
766.131	94.12
766.467	93.73
766.804	94.07
767.14	93.9
767.476	93.98
767.812	94.01
768.148	93.98
768.485	93.88
768.821	93.82
769.157	93.73
769.492	93.8
769.828	93.86
770.164	94.29
770.5	93.98
770.836	93.8
771.171	93.77
771.507	93.6
771.842	94.05
772.178	93.84
772.513	93.86
772.849	93.74
773.184	93.87
773.519	94.21
773.855	94.02
774.19	93.9
774.525	93.56
774.86	93.73
775.195	93.82
775.53	94.08
775.865	93.66
776.2	93.57
776.535	94.26
776.87	93.84
777.205	94.05
777.539	94.06
777.874	94.11
778.209	93.98
778.543	93.39
778.878	94.18
779.212	93.84
779.547	93.93
779.881	93.8
780.215	93.52
780.55	93.72
780.884	93.86
781.218	93.96
781.552	93.62
781.886	94
782.22	94.2
782.554	93.58
782.888	94.13
783.222	94.13
783.556	93.91
783.889	93.98
784.223	93.58
784.557	93.77
784.89	94
785.224	93.67
785.557	93.83
785.891	93.77
786.224	94.16
786.558	94.26
786.891	93.77
787.224	94.04
787.557	93.96
787.891	94.03
788.224	93.95
788.557	93.88
788.89	93.77
789.223	93.61
789.556	93.77
789.888	94.12
790.221	93.63
790.554	93.64
790.887	93.8
791.219	94.07
791.552	93.54
791.884	93.72
792.217	94.3
792.549	93.32
792.882	93.67
793.214	93.55
793.546	93.61
793.879	94
794.211	93.5
794.543	93.98
794.875	93.97
795.207	93.87
795.539	93.96
795.871	93.73
796.203	93.81
796.535	93.81
796.867	93.82
797.198	93.73
797.53	93.77
797.862	93.55
798.193	93.64
798.525	93.88
798.856	93.74
799.188	93.69
799.519	93.9
799.85	94.38
800.182	93.48
800.513	93.57
800.844	93.98
801.175	94.42
801.506	93.75
801.837	94.31
802.168	94.12
802.499	93.92
802.83	93.9
803.161	93.54
803.491	94.09
803.822	93.71
804.153	93.54
804.483	93.51
804.814	94.02
805.145	93.77
805.475	93.83
805.805	93.51
806.136	94.05
806.466	93.54
806.796	93.99
807.126	93.33
807.457	93.24
807.787	93.63
808.117	93.93
808.447	93.59
808.777	93.38
809.107	93.99
809.436	93.83
809.766	93.41
810.096	94.05
810.426	93.98
810.755	94.28
811.085	93.78
811.414	93.37
811.744	93.57
812.073	94.16
812.403	93.17
812.732	93.18
813.061	93.82
813.39	93.06
813.719	93.73
814.049	93.87
814.378	93.93
814.707	93.82
815.036	93.93
815.365	93.45
815.693	93.47
816.022	93.42
