Data from White_reflection_standard_Reflection_00008.txt Node
Date: Mon Feb 06 14:42:25 GMT 2017
User: dcchb
Spectrometer: FLMS00149
Trigger mode: 0
Integration Time (sec): 2.000000E-2
Scans to average: 10
Electric dark correction enabled: true
Nonlinearity correction enabled: false
Boxcar width: 0
XAxis mode: Wavelengths
Number of Pixels in Spectrum: 2048
>>>>>Begin Spectral Data<<<<<
341.393	-2.6
341.776	-2.6
342.16	-2.6
342.543	-14.97
342.927	-745.45
343.31	-19.56
343.693	68.58
344.077	238.1
344.46	311.78
344.843	-165.61
345.226	388.54
345.61	-93.74
345.993	-113.77
346.376	-1.53
346.759	-93.2
347.142	47.01
347.525	120.09
347.908	-29.82
348.291	-275.77
348.674	71.07
349.057	139.88
349.44	23.17
349.823	14.02
350.206	68.61
350.588	89.23
350.971	120.01
351.354	72.79
351.737	93.24
352.119	99.4
352.502	98.12
352.884	103.5
353.267	107.95
353.65	101.78
354.032	96.18
354.414	139.09
354.797	83.42
355.179	96.36
355.562	81.53
355.944	86.63
356.326	98.33
356.709	94.08
357.091	104.11
357.473	72.63
357.855	104.53
358.238	94.93
358.62	93.8
359.002	101.28
359.384	85.21
359.766	105.15
360.148	115.24
360.53	83.49
360.912	93.83
361.294	95.78
361.676	93.16
362.057	86.93
362.439	84.65
362.821	72.17
363.203	93.23
363.584	86.78
363.966	83.53
364.348	80.67
364.729	82.77
365.111	102.6
365.493	92.57
365.874	84.84
366.256	76.45
366.637	79.3
367.019	96
367.4	92.52
367.781	84.19
368.163	80.67
368.544	93.45
368.925	87.03
369.306	106.07
369.688	85.76
370.069	87.56
370.45	96.67
370.831	88.89
371.212	95.28
371.593	90.12
371.974	89.01
372.355	86.45
372.736	102.02
373.117	92.72
373.498	96.56
373.879	85.27
374.26	88.3
374.641	75.48
375.021	99.57
375.402	88.28
375.783	86.78
376.163	93.88
376.544	100.37
376.925	90.26
377.305	79.42
377.686	88.49
378.066	100.39
378.447	91.42
378.827	83.28
379.208	92.39
379.588	88.64
379.968	90.52
380.349	79.97
380.729	92.94
381.109	87.63
381.489	89.98
381.87	87.03
382.25	95.02
382.63	90.03
383.01	93.57
383.39	100.22
383.77	93.35
384.15	88.22
384.53	92.28
384.91	93.99
385.29	99.69
385.67	92.64
386.049	92.29
386.429	88.8
386.809	94.44
387.189	91.41
387.568	97.27
387.948	87.95
388.328	97.56
388.707	96.55
389.087	89.1
389.466	96.78
389.846	88.56
390.225	88.74
390.605	90.47
390.984	87.17
391.363	96.2
391.743	91.68
392.122	92.78
392.501	90.34
392.881	86.4
393.26	89.42
393.639	93.94
394.018	94.78
394.397	97.01
394.776	96.62
395.155	89.05
395.534	89.49
395.913	92.14
396.292	91.15
396.671	99.12
397.05	93.8
397.429	91.2
397.808	89.39
398.186	88.09
398.565	90.7
398.944	97.45
399.323	94.78
399.701	90.72
400.08	89.24
400.458	93.61
400.837	92.6
401.215	94.73
401.594	90.13
401.972	93.34
402.351	90.65
402.729	89.01
403.107	94.6
403.486	94.83
403.864	93.7
404.242	96.64
404.62	93.91
404.999	90.6
405.377	92.93
405.755	94.11
406.133	91.64
406.511	92.72
406.889	97.3
407.267	91.05
407.645	94.38
408.023	94.97
408.401	94.85
408.779	93.79
409.156	93.12
409.534	93.48
409.912	92.91
410.29	91.83
410.667	94.52
411.045	91.84
411.422	92.7
411.8	93.55
412.178	96.59
412.555	94.21
412.933	93.5
413.31	92.99
413.687	90.65
414.065	94.07
414.442	91.5
414.819	92.8
415.197	97.33
415.574	94.51
415.951	91.36
416.328	92.37
416.705	93.06
417.082	92.55
417.46	89.89
417.837	95.13
418.214	93.19
418.591	92.21
418.967	90.76
419.344	91.72
419.721	94.01
420.098	94.47
420.475	94.48
420.852	92.33
421.228	93.07
421.605	92.84
421.982	93.87
422.358	93.28
422.735	93.46
423.111	94.12
423.488	96.16
423.864	93.81
424.241	92.9
424.617	93.38
424.994	92.93
425.37	92.71
425.746	93.72
426.123	93.58
426.499	93.95
426.875	93.86
427.251	91.44
427.627	94.77
428.003	93.24
428.379	94.65
428.756	94.02
429.132	93.94
429.507	92.74
429.883	93.04
430.259	92.19
430.635	94.34
431.011	92.71
431.387	93.7
431.763	95.5
432.138	92.66
432.514	94.02
432.89	92.6
433.265	93.05
433.641	92.73
434.016	94.98
434.392	92.57
434.767	94.1
435.143	93.8
435.518	94.03
435.894	91.71
436.269	94.04
436.644	93.39
437.02	94
437.395	94.59
437.77	93.91
438.145	92.56
438.52	92
438.895	92.26
439.271	93.45
439.646	93.85
440.021	93.43
440.395	94.45
440.77	93.78
441.145	92.61
441.52	91.39
441.895	93.12
442.27	93.17
442.645	91.13
443.019	92.69
443.394	94.02
443.769	92.27
444.143	93.57
444.518	92.81
444.892	94.16
445.267	95.44
445.641	92.7
446.016	93.01
446.39	92.71
446.764	93.26
447.139	92.65
447.513	92.33
447.887	92.41
448.262	95.22
448.636	94.03
449.01	93.26
449.384	94.54
449.758	91.77
450.132	93.72
450.506	93.19
450.88	92.57
451.254	93.17
451.628	92.41
452.002	93.73
452.376	93.87
452.75	93.82
453.123	93.73
453.497	93.75
453.871	94.39
454.244	93.38
454.618	94.32
454.992	94.1
455.365	92.43
455.739	92.8
456.112	92.61
456.486	93.9
456.859	94.31
457.232	92.83
457.606	92.7
457.979	93.55
458.352	93.24
458.725	93.38
459.099	93.49
459.472	94.01
459.845	93.65
460.218	92.71
460.591	93
460.964	93.25
461.337	93.12
461.71	93.32
462.083	93.29
462.456	93.34
462.829	92.86
463.201	93.78
463.574	93.01
463.947	93.6
464.32	93.06
464.692	92.67
465.065	93.02
465.438	92.69
465.81	93.31
466.183	94.13
466.555	93.29
466.928	92.18
467.3	93.63
467.672	93.21
468.045	93.96
468.417	94.22
468.789	93.69
469.161	93.75
469.534	92.4
469.906	93.75
470.278	92.95
470.65	93.38
471.022	92.43
471.394	94.12
471.766	92.76
472.138	94.26
472.51	93.36
472.882	93.26
473.253	93.15
473.625	93.04
473.997	93.21
474.369	93.22
474.74	93.36
475.112	93.82
475.484	93.47
475.855	92.67
476.227	93.03
476.598	94.41
476.97	93.4
477.341	93.04
477.713	93.47
478.084	92.98
478.455	92.94
478.827	92.82
479.198	93.08
479.569	93.96
479.94	93.02
480.311	94.08
480.682	92.48
481.053	92.87
481.424	92.88
481.795	93.7
482.166	93.59
482.537	92.73
482.908	93.46
483.279	92.78
483.65	93.37
484.021	93.69
484.391	93.6
484.762	94.17
485.133	93.2
485.503	93.12
485.874	93.12
486.244	93.63
486.615	93.77
486.985	93.59
487.356	93
487.726	93.22
488.097	93.58
488.467	93.72
488.837	93.71
489.207	93.75
489.578	93.27
489.948	93.5
490.318	93.26
490.688	92.94
491.058	93.35
491.428	93.49
491.798	93.36
492.168	93.43
492.538	93.07
492.908	93.84
493.278	93.9
493.648	93.18
494.017	93.21
494.387	93.59
494.757	93.92
495.126	93.36
495.496	93.36
495.866	93.13
496.235	93.61
496.605	93.01
496.974	93.48
497.344	94.02
497.713	93.22
498.082	93.91
498.452	93.4
498.821	92.83
499.19	93.65
499.559	93.26
499.928	93.73
500.298	93.64
500.667	93.78
501.036	93.38
501.405	93.09
501.774	93.24
502.143	93.5
502.512	93.27
502.88	93.5
503.249	93.6
503.618	93.09
503.987	93.51
504.356	93.31
504.724	93.69
505.093	93.31
505.462	93.55
505.83	93.25
506.199	93.44
506.567	93.51
506.936	93.54
507.304	93.82
507.672	93.82
508.041	93.52
508.409	93.13
508.777	93.5
509.145	93.31
509.514	93.58
509.882	92.92
510.25	93.55
510.618	93.56
510.986	93.59
511.354	93.22
511.722	93.64
512.09	93.46
512.458	93.85
512.826	93.49
513.193	93.77
513.561	93.8
513.929	93.42
514.297	93.44
514.664	93.21
515.032	93.56
515.4	93.69
515.767	93.66
516.135	93.62
516.502	93.26
516.869	93.13
517.237	93.34
517.604	93.13
517.972	93.38
518.339	93.6
518.706	93.14
519.073	93.31
519.44	93.87
519.808	93.55
520.175	93.68
520.542	93.87
520.909	93.56
521.276	93.84
521.643	93.5
522.009	93.46
522.376	94.06
522.743	93.62
523.11	93.45
523.477	93.6
523.843	93.99
524.21	93.89
524.577	93.92
524.943	93.69
525.31	93.74
525.676	93.77
526.043	93.69
526.409	94.12
526.776	93.94
527.142	93.62
527.508	93.4
527.874	93.85
528.241	93.73
528.607	94.18
528.973	94.16
529.339	93.87
529.705	93.99
530.071	93.87
530.437	93.87
530.803	94.01
531.169	93.69
531.535	94.08
531.901	94.18
532.267	93.94
532.632	93.94
532.998	94.16
533.364	94.46
533.73	94.35
534.095	94.31
534.461	94.23
534.826	94.46
535.192	94.04
535.557	94.28
535.923	94.58
536.288	94.34
536.653	94.8
537.019	94.21
537.384	94.92
537.749	94.45
538.114	94.51
538.479	94.5
538.845	94.99
539.21	94.52
539.575	94.78
539.94	94.76
540.305	94.65
540.67	94.81
541.034	94.74
541.399	94.78
541.764	94.93
542.129	95.11
542.494	95.07
542.858	95.04
543.223	94.68
543.587	95.15
543.952	95.29
544.316	95.4
544.681	95.06
545.045	95.29
545.41	95.53
545.774	95.26
546.138	95.39
546.503	95.32
546.867	95.43
547.231	95.33
547.595	95.29
547.959	95.67
548.324	95.38
548.688	95.41
549.052	95.61
549.416	95.72
549.779	95.45
550.143	95.39
550.507	95.74
550.871	95.72
551.235	95.71
551.599	96.02
551.962	95.75
552.326	95.8
552.689	96.05
553.053	95.78
553.417	95.9
553.78	95.95
554.143	95.91
554.507	95.97
554.87	96.05
555.234	96.22
555.597	96
555.96	96.23
556.323	96.4
556.686	96.22
557.05	96.1
557.413	96.09
557.776	96.44
558.139	96.25
558.502	96.18
558.865	96.55
559.228	96.54
559.59	96.48
559.953	96.52
560.316	96.55
560.679	96.42
561.041	96.47
561.404	96.46
561.767	96.77
562.129	96.68
562.492	96.7
562.854	96.7
563.217	96.7
563.579	96.91
563.941	96.69
564.304	96.78
564.666	96.83
565.028	96.67
565.39	96.8
565.753	96.89
566.115	96.79
566.477	96.85
566.839	96.96
567.201	96.94
567.563	96.8
567.925	96.97
568.287	97.01
568.648	96.97
569.01	97.04
569.372	97.04
569.734	97.1
570.095	96.98
570.457	97.13
570.819	97.13
571.18	97.02
571.542	97.02
571.903	97.09
572.265	97.08
572.626	97.04
572.987	97.1
573.349	97.16
573.71	97.16
574.071	97.11
574.432	96.99
574.794	97.15
575.155	97.2
575.516	97.12
575.877	97.2
576.238	97.26
576.599	97.27
576.96	97.17
577.32	97.33
577.681	97.4
578.042	97.18
578.403	97.26
578.763	97.3
579.124	97.35
579.485	97.37
579.845	97.35
580.206	97.37
580.566	97.37
580.927	97.34
581.287	97.25
581.648	97.29
582.008	97.3
582.368	97.3
582.728	97.36
583.089	97.32
583.449	97.3
583.809	97.19
584.169	97.36
584.529	97.29
584.889	97.25
585.249	97.25
585.609	97.17
585.969	97.32
586.329	97.32
586.688	97.23
587.048	97.31
587.408	97.32
587.768	97.25
588.127	97.35
588.487	97.24
588.846	97.39
589.206	97.3
589.565	97.27
589.925	97.18
590.284	97.18
590.643	97.3
591.003	97.18
591.362	97.26
591.721	97.41
592.08	97.27
592.44	97.35
592.799	97.21
593.158	97.27
593.517	97.42
593.876	97.33
594.235	97.4
594.593	97.37
594.952	97.39
595.311	97.33
595.67	97.25
596.029	97.29
596.387	97.35
596.746	97.35
597.104	97.4
597.463	97.35
597.822	97.24
598.18	97.37
598.538	97.3
598.897	97.33
599.255	97.33
599.613	97.35
599.972	97.42
600.33	97.34
600.688	97.42
601.046	97.46
601.404	97.34
601.762	97.29
602.12	97.41
602.478	97.44
602.836	97.52
603.194	97.25
603.552	97.35
603.91	97.37
604.268	97.46
604.625	97.28
604.983	97.39
605.341	97.44
605.698	97.31
606.056	97.34
606.413	97.42
606.771	97.35
607.128	97.33
607.485	97.29
607.843	97.44
608.2	97.36
608.557	97.48
608.914	97.33
609.272	97.5
609.629	97.45
609.986	97.39
610.343	97.29
610.7	97.28
611.057	97.44
611.414	97.48
611.771	97.35
612.127	97.38
612.484	97.48
612.841	97.29
613.198	97.42
613.554	97.45
613.911	97.43
614.267	97.6
614.624	97.47
614.98	97.5
615.337	97.35
615.693	97.36
616.05	97.45
616.406	97.47
616.762	97.6
617.118	97.4
617.475	97.48
617.831	97.56
618.187	97.58
618.543	97.46
618.899	97.52
619.255	97.49
619.611	97.49
619.967	97.46
620.323	97.41
620.678	97.49
621.034	97.38
621.39	97.4
621.746	97.53
622.101	97.42
622.457	97.53
622.812	97.47
623.168	97.4
623.523	97.47
623.879	97.46
624.234	97.47
624.589	97.49
624.945	97.49
625.3	97.54
625.655	97.45
626.01	97.41
626.365	97.52
626.72	97.54
627.075	97.55
627.43	97.51
627.785	97.58
628.14	97.52
628.495	97.52
628.85	97.45
629.205	97.47
629.559	97.4
629.914	97.55
630.269	97.44
630.623	97.49
630.978	97.44
631.332	97.42
631.687	97.45
632.041	97.56
632.396	97.56
632.75	97.61
633.104	97.41
633.459	97.37
633.813	97.5
634.167	97.48
634.521	97.5
634.875	97.46
635.229	97.61
635.583	97.39
635.937	97.47
636.291	97.44
636.645	97.49
636.999	97.44
637.352	97.51
637.706	97.3
638.06	97.43
638.413	97.56
638.767	97.37
639.121	97.39
639.474	97.31
639.828	97.42
640.181	97.35
640.534	97.37
640.888	97.36
641.241	97.4
641.594	97.41
641.947	97.33
642.301	97.38
642.654	97.36
643.007	97.42
643.36	97.39
643.713	97.45
644.066	97.41
644.419	97.31
644.771	97.34
645.124	97.27
645.477	97.26
645.83	97.35
646.182	97.25
646.535	97.31
646.888	97.32
647.24	97.38
647.593	97.3
647.945	97.21
648.298	97.21
648.65	97.23
649.002	97.31
649.355	97.11
649.707	97.15
650.059	97.35
650.411	97.25
650.763	97.29
651.115	97.27
651.467	97.21
651.819	97.45
652.171	97.26
652.523	97.33
652.875	97.3
653.227	97.28
653.578	97.25
653.93	97.27
654.282	97.26
654.633	97.38
654.985	97.24
655.337	97.34
655.688	97.34
656.039	97.16
656.391	97.37
656.742	97.32
657.094	97.37
657.445	97.36
657.796	97.26
658.147	97.34
658.498	97.26
658.849	97.33
659.2	97.22
659.551	97.09
659.902	97.25
660.253	97.26
660.604	97.42
660.955	97.28
661.306	97.26
661.656	97.31
662.007	97.23
662.358	97.32
662.708	97.27
663.059	97.29
663.409	97.3
663.76	97.34
664.11	97.32
664.461	97.21
664.811	97.15
665.161	97.18
665.511	97.15
665.862	97.29
666.212	97.27
666.562	97.13
666.912	97.17
667.262	97.28
667.612	97.1
667.962	97.18
668.312	97.29
668.662	97.31
669.011	97.23
669.361	97.33
669.711	97.15
670.06	97.2
670.41	97.11
670.76	97.19
671.109	97.34
671.459	97.19
671.808	97.22
672.157	97.29
672.507	97.15
672.856	97.23
673.205	97.19
673.554	97.27
673.904	97.17
674.253	97.19
674.602	97.25
674.951	97.26
675.3	97.14
675.649	97.28
675.998	97.13
676.346	97.2
676.695	97.42
677.044	97.18
677.393	97.38
677.741	97.29
678.09	97.06
678.438	97.18
678.787	97.16
679.135	97.21
679.484	97.11
679.832	97.28
680.181	97.24
680.529	97.13
680.877	97.26
681.225	97.34
681.573	97.28
681.922	97.14
682.27	97.12
682.618	96.96
682.966	97.28
683.314	97.22
683.661	97.3
684.009	97.19
684.357	97.07
684.705	97.15
685.053	97.25
685.4	97.06
685.748	97.11
686.095	97.08
686.443	97.15
686.79	96.93
687.138	96.97
687.485	97.19
687.832	96.97
688.18	97.18
688.527	97.05
688.874	96.96
689.221	96.85
689.568	97.09
689.915	97.06
690.262	97.1
690.609	96.87
690.956	96.93
691.303	96.98
691.65	97.04
691.997	96.95
692.344	96.91
692.69	96.92
693.037	96.88
693.383	97.08
693.73	96.95
694.077	97.01
694.423	96.72
694.769	96.84
695.116	96.89
695.462	96.95
695.808	96.93
696.155	96.76
696.501	96.72
696.847	96.83
697.193	96.81
697.539	96.88
697.885	96.73
698.231	96.75
698.577	96.78
698.923	96.9
699.269	96.62
699.614	96.69
699.96	96.61
700.306	96.74
700.651	96.57
700.997	96.22
701.342	96.64
701.688	96.62
702.033	96.7
702.379	96.63
702.724	96.46
703.069	96.55
703.415	96.38
703.76	96.39
704.105	96.44
704.45	96.38
704.795	96.34
705.14	96.21
705.485	96.44
705.83	96.35
706.175	96.26
706.52	96.39
706.865	96.39
707.209	96.31
707.554	96.34
707.899	96.31
708.243	96.36
708.588	96.35
708.932	96.12
709.277	96.04
709.621	96.11
709.966	96
710.31	96.38
710.654	95.99
710.998	96.15
711.342	96
711.687	95.96
712.031	95.97
712.375	96.09
712.719	95.84
713.063	96.16
713.407	95.9
713.75	95.82
714.094	96.13
714.438	95.87
714.782	95.77
715.125	96
715.469	95.78
715.812	95.92
716.156	95.65
716.499	95.79
716.843	95.86
717.186	95.81
717.53	95.63
717.873	95.52
718.216	95.52
718.559	95.81
718.902	95.64
719.246	95.67
719.589	95.46
719.932	95.51
720.275	95.5
720.617	95.51
720.96	95.34
721.303	95.82
721.646	95.36
721.989	95.42
722.331	95.42
722.674	95.44
723.016	95.35
723.359	95.63
723.701	95.47
724.044	95.56
724.386	95.24
724.729	95.41
725.071	95.3
725.413	95.45
725.755	95.17
726.097	95.24
726.439	95
726.782	95.09
727.124	95.54
727.465	95.15
727.807	95.04
728.149	95.34
728.491	95.3
728.833	95.26
729.175	95.15
729.516	95.02
729.858	95.46
730.199	95.09
730.541	95.03
730.882	95.09
731.224	94.81
731.565	94.99
731.906	94.9
732.248	95.18
732.589	95.04
732.93	94.96
733.271	95.15
733.612	94.8
733.953	94.79
734.294	94.93
734.635	94.55
734.976	94.68
735.317	94.9
735.658	94.95
735.999	94.68
736.339	94.79
736.68	94.65
737.021	94.62
737.361	94.78
737.702	94.86
738.042	94.94
738.383	94.7
738.723	95.1
739.063	94.57
739.404	94.53
739.744	94.91
740.084	94.66
740.424	94.9
740.764	94.67
741.104	94.42
741.444	94.83
741.784	94.89
742.124	94.98
742.464	94.46
742.804	94.66
743.143	95.01
743.483	94.9
743.823	94.5
744.162	94.5
744.502	94.66
744.841	94.39
745.181	94.4
745.52	94.34
745.86	94.53
746.199	94.75
746.538	94.45
746.877	94.52
747.216	94.28
747.556	94.38
747.895	94.54
748.234	94.19
748.573	94.44
748.911	94.38
749.25	94.23
749.589	94.53
749.928	94.39
750.267	94.6
750.605	94.25
750.944	94.34
751.283	94.69
751.621	94.19
751.96	93.92
752.298	94.44
752.636	94.36
752.975	93.99
753.313	94.25
753.651	93.91
753.989	94.62
754.327	94.16
754.666	94.49
755.004	94.25
755.342	94.27
755.679	94.06
756.017	94.15
756.355	94.07
756.693	94.31
757.031	94.58
757.368	94.27
757.706	94.29
758.044	94.01
758.381	93.95
758.719	94.32
759.056	94.04
759.394	94.23
759.731	94.05
760.068	94.22
760.405	94.23
760.743	94.28
761.08	94.25
761.417	93.98
761.754	94.23
762.091	94.07
762.428	94.19
762.765	93.96
763.102	94.05
763.438	94.13
763.775	94.39
764.112	94.11
764.449	94.03
764.785	94.13
765.122	93.85
765.458	93.84
765.795	93.87
766.131	94.52
766.467	94.01
766.804	94.55
767.14	93.62
767.476	93.85
767.812	93.95
768.148	93.87
768.485	94.08
768.821	93.74
769.157	93.7
769.492	94.04
769.828	93.29
770.164	94.42
770.5	93.68
770.836	94.28
771.171	93.83
771.507	93.94
771.842	93.94
772.178	94.4
772.513	93.69
772.849	93.97
773.184	93.6
773.519	94.1
773.855	94.3
774.19	94.09
774.525	93.67
774.86	93.45
775.195	93.64
775.53	93.83
775.865	93.55
776.2	93.69
776.535	94.21
776.87	93.87
777.205	94.14
777.539	93.65
777.874	93.59
778.209	93.9
778.543	93.47
778.878	94.2
779.212	94.1
779.547	94.08
779.881	93.93
780.215	93.87
780.55	93.82
780.884	93.72
781.218	93.57
781.552	94
781.886	93.92
782.22	94.07
782.554	93.56
782.888	94.05
783.222	93.87
783.556	93.72
783.889	94.1
784.223	93.86
784.557	93.92
784.89	93.93
785.224	94.11
785.557	93.87
785.891	93.76
786.224	94.27
786.558	94.25
786.891	94.09
787.224	94.1
787.557	94.12
787.891	94.27
788.224	94.14
788.557	93.97
788.89	93.68
789.223	93.65
789.556	93.63
789.888	93.97
790.221	94
790.554	94.12
790.887	94.09
791.219	93.62
791.552	93.46
791.884	93.76
792.217	93.64
792.549	93.61
792.882	94.09
793.214	93.43
793.546	93.7
793.879	93.83
794.211	93.4
794.543	93.84
794.875	93.92
795.207	93.67
795.539	93.9
795.871	93.71
796.203	93.9
796.535	93.98
796.867	93.91
797.198	93.84
797.53	93.62
797.862	93.22
798.193	93.29
798.525	94.01
798.856	93.76
799.188	94.46
799.519	93.58
799.85	94.11
800.182	93.85
800.513	94.2
800.844	94.07
801.175	93.89
801.506	94.38
801.837	94.26
802.168	93.81
802.499	94.01
802.83	93.7
803.161	93.79
803.491	93.71
803.822	94.34
804.153	93.81
804.483	93.46
804.814	93.87
805.145	93.85
805.475	93.93
805.805	93.18
806.136	94.13
806.466	93.71
806.796	94.09
807.126	93.77
807.457	94.15
807.787	93.94
808.117	94.02
808.447	93.5
808.777	93.38
809.107	93.97
809.436	93.91
809.766	93.67
810.096	94.29
810.426	93.68
810.755	93.97
811.085	94.15
811.414	93.35
811.744	94.32
812.073	94.09
812.403	93.67
812.732	93.52
813.061	94.05
813.39	93.29
813.719	93.66
814.049	93.96
814.378	93.85
814.707	93.73
815.036	94.04
815.365	93.9
815.693	93.65
816.022	93.93
816.351	93.71
816.68	93.85
