Data from White_reflection_standard_Reflection_00016.txt Node
Date: Mon Feb 06 14:43:20 GMT 2017
User: dcchb
Spectrometer: FLMS00149
Trigger mode: 0
Integration Time (sec): 2.000000E-2
Scans to average: 10
Electric dark correction enabled: true
Nonlinearity correction enabled: false
Boxcar width: 0
XAxis mode: Wavelengths
Number of Pixels in Spectrum: 2048
>>>>>Begin Spectral Data<<<<<
341.393	-99.28
341.776	-99.28
342.16	-99.28
342.543	11.49
342.927	-838.38
343.31	-439.75
343.693	102.61
344.077	307.43
344.46	43.29
344.843	223.53
345.226	233.12
345.61	-57.26
345.993	136.56
346.376	-352.67
346.759	32.66
347.142	66.88
347.525	251.13
347.908	-74.91
348.291	-365.64
348.674	51
349.057	63.58
349.44	168.45
349.823	9.12
350.206	69.32
350.588	91.86
350.971	67.11
351.354	70.16
351.737	104.45
352.119	112.22
352.502	103.83
352.884	89.5
353.267	103.19
353.65	80.32
354.032	106.72
354.414	127.96
354.797	73.13
355.179	95.95
355.562	82.57
355.944	98.56
356.326	85.25
356.709	95.85
357.091	88.19
357.473	106.36
357.855	94.77
358.238	99.49
358.62	84.83
359.002	94.25
359.384	70.75
359.766	101.42
360.148	104.36
360.53	84.13
360.912	93.87
361.294	101.59
361.676	77.33
362.057	79.96
362.439	79.32
362.821	71.83
363.203	98.34
363.584	80.22
363.966	79.14
364.348	87.22
364.729	90.58
365.111	110.12
365.493	85.35
365.874	84.16
366.256	82.78
366.637	79.56
367.019	89.54
367.4	86.38
367.781	97.88
368.163	84.21
368.544	89.24
368.925	91.48
369.306	98.72
369.688	90.35
370.069	98.24
370.45	88.18
370.831	84.03
371.212	78.57
371.593	89.58
371.974	95.51
372.355	90.82
372.736	94.7
373.117	93.25
373.498	100.53
373.879	83.07
374.26	93.16
374.641	76.19
375.021	96.25
375.402	88.3
375.783	88.74
376.163	91.5
376.544	100
376.925	80.4
377.305	76.46
377.686	89.47
378.066	96.79
378.447	94.34
378.827	84.17
379.208	87.46
379.588	94.9
379.968	97.17
380.349	85.71
380.729	91.83
381.109	86.1
381.489	87.9
381.87	87.74
382.25	94.07
382.63	91.34
383.01	92.73
383.39	93.1
383.77	98.08
384.15	93.4
384.53	87.04
384.91	93.3
385.29	100.81
385.67	86.93
386.049	86.4
386.429	85.68
386.809	87.65
387.189	91.82
387.568	94.72
387.948	89.45
388.328	94.65
388.707	92.48
389.087	84.27
389.466	92.12
389.846	86.1
390.225	89.25
390.605	89.31
390.984	88.24
391.363	99.65
391.743	91.98
392.122	95.51
392.501	93.32
392.881	91.42
393.26	91.61
393.639	95.56
394.018	88.86
394.397	96.27
394.776	90.99
395.155	88.28
395.534	90.58
395.913	86.06
396.292	88.36
396.671	95.39
397.05	88.52
397.429	90.33
397.808	92.57
398.186	92.31
398.565	91.43
398.944	93.18
399.323	93.05
399.701	91.38
400.08	94.42
400.458	95.3
400.837	92.81
401.215	93.56
401.594	91.69
401.972	93.03
402.351	89.87
402.729	91.69
403.107	92.58
403.486	92.37
403.864	89.53
404.242	94.16
404.62	94.96
404.999	91.63
405.377	87.84
405.755	94.16
406.133	91.72
406.511	95.19
406.889	94.46
407.267	92.68
407.645	95.56
408.023	93.64
408.401	93.98
408.779	91.77
409.156	94.57
409.534	92.72
409.912	90.43
410.29	91.21
410.667	92.6
411.045	90.56
411.422	92.88
411.8	92.47
412.178	93.21
412.555	93.82
412.933	92
413.31	91.91
413.687	93.51
414.065	94.46
414.442	92.17
414.819	92.19
415.197	95.43
415.574	96.19
415.951	93.1
416.328	92.73
416.705	91.67
417.082	92.33
417.46	94.61
417.837	94.32
418.214	93.63
418.591	94.74
418.967	93.21
419.344	92.41
419.721	92.22
420.098	93.11
420.475	94.57
420.852	92.98
421.228	91.81
421.605	93.77
421.982	92.4
422.358	94.02
422.735	95.01
423.111	94.77
423.488	93.12
423.864	93.21
424.241	92.46
424.617	94.6
424.994	92.58
425.37	94.76
425.746	93
426.123	92.93
426.499	92.19
426.875	93.44
427.251	92.58
427.627	93.6
428.003	93.5
428.379	94.76
428.756	93.17
429.132	92.19
429.507	92.6
429.883	92.39
430.259	92.34
430.635	92.9
431.011	93.74
431.387	94.77
431.763	93.82
432.138	93.76
432.514	95.16
432.89	91.16
433.265	93.97
433.641	92.2
434.016	95.22
434.392	93.57
434.767	93.3
435.143	93.8
435.518	94.77
435.894	91.2
436.269	93.01
436.644	93.51
437.02	92.65
437.395	95.36
437.77	93.87
438.145	92.76
438.52	93.34
438.895	92.68
439.271	93.47
439.646	93.29
440.021	93.73
440.395	95.02
440.77	94.39
441.145	92.63
441.52	92.91
441.895	93.33
442.27	94.92
442.645	91.81
443.019	92.72
443.394	93.53
443.769	93.11
444.143	93
444.518	93.16
444.892	93.35
445.267	93.53
445.641	93.47
446.016	92.85
446.39	92.1
446.764	93.16
447.139	93.73
447.513	93.22
447.887	93.58
448.262	94.55
448.636	93.47
449.01	93.13
449.384	93.17
449.758	92.05
450.132	94.53
450.506	93.75
450.88	91.81
451.254	93.1
451.628	93.57
452.002	94.06
452.376	93.46
452.75	94.5
453.123	93.84
453.497	93.09
453.871	94.18
454.244	93.41
454.618	93.96
454.992	94.15
455.365	92.97
455.739	93.45
456.112	93.46
456.486	94.13
456.859	94.75
457.232	93.92
457.606	92.64
457.979	93.13
458.352	93.67
458.725	92.97
459.099	93.21
459.472	93.96
459.845	94.01
460.218	92.86
460.591	93.53
460.964	93.32
461.337	92.31
461.71	92.75
462.083	93.56
462.456	92.94
462.829	92.66
463.201	94.45
463.574	93.45
463.947	93.35
464.32	93.49
464.692	92.66
465.065	92.95
465.438	93.18
465.81	92.48
466.183	93.64
466.555	93.01
466.928	92.72
467.3	93.65
467.672	92.71
468.045	93.18
468.417	93.66
468.789	93.15
469.161	92.69
469.534	92.9
469.906	94.37
470.278	93.14
470.65	92.97
471.022	92.93
471.394	94.23
471.766	91.58
472.138	93.34
472.51	93.37
472.882	93.25
473.253	93.24
473.625	93.13
473.997	93.19
474.369	92.92
474.74	93.78
475.112	93.94
475.484	93.32
475.855	92.5
476.227	92.64
476.598	92.93
476.97	92.92
477.341	92.9
477.713	92.75
478.084	93.31
478.455	93.68
478.827	92.65
479.198	93.33
479.569	93.3
479.94	92.8
480.311	93.9
480.682	93.02
481.053	93.58
481.424	92.9
481.795	93.08
482.166	93.14
482.537	93
482.908	92.66
483.279	93
483.65	93.53
484.021	93.47
484.391	93.52
484.762	93.88
485.133	92.84
485.503	93.23
485.874	93.25
486.244	93.4
486.615	93.44
486.985	92.96
487.356	92.76
487.726	93.53
488.097	92.94
488.467	93.4
488.837	93.61
489.207	93.91
489.578	93.45
489.948	93.84
490.318	93
490.688	93.26
491.058	93.49
491.428	94.09
491.798	93.44
492.168	93.22
492.538	93.06
492.908	93.72
493.278	93.81
493.648	92.74
494.017	93.22
494.387	93.55
494.757	93.62
495.126	93.41
495.496	93.31
495.866	93.17
496.235	93.6
496.605	93.03
496.974	93.65
497.344	93.73
497.713	93.47
498.082	93.64
498.452	93.01
498.821	93.14
499.19	93.75
499.559	93.24
499.928	93.41
500.298	93.39
500.667	93.68
501.036	93.82
501.405	92.96
501.774	93.22
502.143	93.05
502.512	93.4
502.88	93.27
503.249	93.23
503.618	93.11
503.987	93.54
504.356	93.17
504.724	93.31
505.093	93.14
505.462	93.37
505.83	93.7
506.199	93.12
506.567	93.02
506.936	93.64
507.304	93.91
507.672	93.34
508.041	93.31
508.409	93.24
508.777	93.37
509.145	93.46
509.514	93.6
509.882	93.32
510.25	93.59
510.618	93.24
510.986	93.78
511.354	93.38
511.722	93.12
512.09	93.15
512.458	93.23
512.826	93.01
513.193	92.89
513.561	93.55
513.929	93.11
514.297	93.07
514.664	92.93
515.032	93.23
515.4	93.53
515.767	93.86
516.135	93.54
516.502	93
516.869	93.35
517.237	93.44
517.604	92.83
517.972	93.2
518.339	93.56
518.706	93.22
519.073	93.49
519.44	93.96
519.808	93.44
520.175	93.28
520.542	93.52
520.909	93.64
521.276	93.97
521.643	93.37
522.009	93.53
522.376	93.34
522.743	93.77
523.11	94
523.477	93.6
523.843	93.67
524.21	93.68
524.577	93.83
524.943	94.2
525.31	94.02
525.676	93.3
526.043	93.54
526.409	93.64
526.776	93.75
527.142	93.34
527.508	93.83
527.874	93.66
528.241	94.06
528.607	93.8
528.973	93.95
529.339	93.64
529.705	93.93
530.071	93.68
530.437	93.53
530.803	94.04
531.169	94.05
531.535	93.96
531.901	94.11
532.267	93.98
532.632	94.02
532.998	94.01
533.364	94.2
533.73	94.07
534.095	94.24
534.461	94.35
534.826	94.58
535.192	94.1
535.557	94.13
535.923	94.25
536.288	94.16
536.653	94.39
537.019	94.21
537.384	95.06
537.749	94.79
538.114	94.37
538.479	94.38
538.845	94.59
539.21	94.63
539.575	94.65
539.94	94.73
540.305	94.88
540.67	94.88
541.034	94.88
541.399	94.55
541.764	95.04
542.129	94.86
542.494	94.92
542.858	95.06
543.223	94.95
543.587	94.96
543.952	94.86
544.316	95.15
544.681	94.72
545.045	95.11
545.41	95.17
545.774	95.27
546.138	95.33
546.503	95.25
546.867	95.58
547.231	95.31
547.595	95.33
547.959	95.51
548.324	95.46
548.688	95.5
549.052	95.43
549.416	95.66
549.779	95.71
550.143	95.37
550.507	95.8
550.871	95.71
551.235	95.57
551.599	96.07
551.962	95.82
552.326	95.76
552.689	96.03
553.053	95.76
553.417	95.94
553.78	95.96
554.143	95.79
554.507	95.92
554.87	95.81
555.234	96.01
555.597	95.99
555.96	96.23
556.323	96.26
556.686	96.27
557.05	96.16
557.413	96.11
557.776	96.46
558.139	96.3
558.502	96.25
558.865	96.37
559.228	96.43
559.59	96.48
559.953	96.5
560.316	96.54
560.679	96.32
561.041	96.35
561.404	96.5
561.767	96.61
562.129	96.69
562.492	96.84
562.854	96.62
563.217	96.71
563.579	96.84
563.941	96.73
564.304	96.76
564.666	96.8
565.028	96.71
565.39	96.86
565.753	96.89
566.115	96.77
566.477	96.68
566.839	96.89
567.201	96.98
567.563	96.91
567.925	96.9
568.287	97.03
568.648	97.04
569.01	96.99
569.372	97.07
569.734	96.98
570.095	96.96
570.457	97.08
570.819	97.06
571.18	97.07
571.542	97.13
571.903	96.99
572.265	97.11
572.626	97.09
572.987	97.16
573.349	96.97
573.71	97.12
574.071	97.12
574.432	96.99
574.794	97.02
575.155	97.13
575.516	97.09
575.877	97.27
576.238	97.16
576.599	97.27
576.96	96.93
577.32	97.33
577.681	97.25
578.042	97.19
578.403	97.21
578.763	97.22
579.124	97.3
579.485	97.22
579.845	97.36
580.206	97.42
580.566	97.24
580.927	97.32
581.287	97.11
581.648	97.09
582.008	97.21
582.368	97.12
582.728	97.4
583.089	97.23
583.449	97.17
583.809	97.25
584.169	97.31
584.529	97.28
584.889	97.23
585.249	97.37
585.609	97.15
585.969	97.37
586.329	97.32
586.688	97.26
587.048	97.3
587.408	97.12
587.768	97.14
588.127	97.36
588.487	97.17
588.846	97.28
589.206	97.31
589.565	97.15
589.925	97.13
590.284	97.2
590.643	97.4
591.003	97.2
591.362	97.22
591.721	97.46
592.08	97.28
592.44	97.32
592.799	97.18
593.158	97.3
593.517	97.32
593.876	97.22
594.235	97.43
594.593	97.28
594.952	97.3
595.311	97.37
595.67	97.14
596.029	97.21
596.387	97.43
596.746	97.41
597.104	97.29
597.463	97.42
597.822	97.34
598.18	97.26
598.538	97.3
598.897	97.34
599.255	97.31
599.613	97.24
599.972	97.32
600.33	97.34
600.688	97.31
601.046	97.35
601.404	97.38
601.762	97.26
602.12	97.41
602.478	97.34
602.836	97.49
603.194	97.44
603.552	97.41
603.91	97.42
604.268	97.42
604.625	97.32
604.983	97.37
605.341	97.44
605.698	97.29
606.056	97.39
606.413	97.4
606.771	97.35
607.128	97.3
607.485	97.31
607.843	97.28
608.2	97.31
608.557	97.39
608.914	97.39
609.272	97.41
609.629	97.41
609.986	97.28
610.343	97.28
610.7	97.3
611.057	97.36
611.414	97.4
611.771	97.23
612.127	97.34
612.484	97.26
612.841	97.32
613.198	97.41
613.554	97.42
613.911	97.4
614.267	97.49
614.624	97.42
614.98	97.48
615.337	97.38
615.693	97.36
616.05	97.52
616.406	97.36
616.762	97.63
617.118	97.43
617.475	97.53
617.831	97.48
618.187	97.47
618.543	97.3
618.899	97.46
619.255	97.56
619.611	97.5
619.967	97.43
620.323	97.43
620.678	97.48
621.034	97.5
621.39	97.4
621.746	97.43
622.101	97.34
622.457	97.44
622.812	97.43
623.168	97.41
623.523	97.41
623.879	97.41
624.234	97.38
624.589	97.43
624.945	97.53
625.3	97.52
625.655	97.52
626.01	97.43
626.365	97.53
626.72	97.36
627.075	97.49
627.43	97.52
627.785	97.51
628.14	97.51
628.495	97.45
628.85	97.4
629.205	97.45
629.559	97.4
629.914	97.49
630.269	97.37
630.623	97.53
630.978	97.49
631.332	97.36
631.687	97.41
632.041	97.49
632.396	97.49
632.75	97.5
633.104	97.4
633.459	97.4
633.813	97.4
634.167	97.45
634.521	97.38
634.875	97.46
635.229	97.46
635.583	97.31
635.937	97.48
636.291	97.42
636.645	97.48
636.999	97.37
637.352	97.31
637.706	97.24
638.06	97.38
638.413	97.48
638.767	97.39
639.121	97.36
639.474	97.43
639.828	97.35
640.181	97.32
640.534	97.33
640.888	97.31
641.241	97.35
641.594	97.35
641.947	97.34
642.301	97.45
642.654	97.3
643.007	97.39
643.36	97.32
643.713	97.4
644.066	97.43
644.419	97.13
644.771	97.2
645.124	97.35
645.477	97.27
645.83	97.36
646.182	97.3
646.535	97.28
646.888	97.31
647.24	97.35
647.593	97.24
647.945	97.33
648.298	97.25
648.65	97.23
649.002	97.19
649.355	97.17
649.707	97.24
650.059	97.31
650.411	97.36
650.763	97.23
651.115	97.37
651.467	97.29
651.819	97.27
652.171	97.33
652.523	97.32
652.875	97.22
653.227	97.22
653.578	97.23
653.93	97.25
654.282	97.32
654.633	97.28
654.985	97.19
655.337	97.36
655.688	97.36
656.039	97.22
656.391	97.39
656.742	97.49
657.094	97.33
657.445	97.29
657.796	97.22
658.147	97.2
658.498	97.3
658.849	97.25
659.2	97.18
659.551	97.11
659.902	97.21
660.253	97.26
660.604	97.32
660.955	97.21
661.306	97.29
661.656	97.24
662.007	97.16
662.358	97.25
662.708	97.21
663.059	97.28
663.409	97.14
663.76	97.16
664.11	97.28
664.461	97.1
664.811	97.19
665.161	97.06
665.511	97.14
665.862	97.19
666.212	97.2
666.562	97.19
666.912	97.14
667.262	97.22
667.612	97.14
667.962	97.15
668.312	97.23
668.662	97.18
669.011	97.3
669.361	97.28
669.711	97
670.06	97.27
670.41	97.18
670.76	97.17
671.109	97.26
671.459	97.14
671.808	97.25
672.157	97.32
672.507	97.15
672.856	97.24
673.205	97.07
673.554	97.2
673.904	97.01
674.253	97.07
674.602	97.28
674.951	97.2
675.3	96.99
675.649	97.18
675.998	97.2
676.346	97.24
676.695	97.19
677.044	97.24
677.393	97.22
677.741	97.2
678.09	97.16
678.438	97.25
678.787	97.19
679.135	97.25
679.484	97.15
679.832	97.18
680.181	97.16
680.529	97.2
680.877	97.24
681.225	97.27
681.573	97.21
681.922	97.4
682.27	96.97
682.618	97.02
682.966	97.25
683.314	97.08
683.661	97.19
684.009	97.13
684.357	97.13
684.705	97.03
685.053	97.05
685.4	97.02
685.748	97.15
686.095	97.04
686.443	97.09
686.79	96.92
687.138	97.09
687.485	97.22
687.832	96.95
688.18	97.05
688.527	97.01
688.874	96.98
689.221	97.02
689.568	97.01
689.915	96.91
690.262	96.96
690.609	96.97
690.956	96.86
691.303	96.91
691.65	96.88
691.997	96.94
692.344	96.66
692.69	96.84
693.037	96.83
693.383	96.99
693.73	96.81
694.077	96.8
694.423	96.7
694.769	96.74
695.116	96.95
695.462	96.68
695.808	96.8
696.155	96.69
696.501	96.74
696.847	96.9
697.193	96.7
697.539	96.98
697.885	96.71
698.231	96.46
698.577	96.7
698.923	96.64
699.269	96.58
699.614	96.7
699.96	96.58
700.306	96.52
700.651	96.6
700.997	96.44
701.342	96.69
701.688	96.44
702.033	96.59
702.379	96.58
702.724	96.53
703.069	96.26
703.415	96.35
703.76	96.33
704.105	96.52
704.45	96.26
704.795	96.18
705.14	96.16
705.485	96.34
705.83	96.52
706.175	96.43
706.52	96.35
706.865	96.27
707.209	96.06
707.554	96.25
707.899	96.18
708.243	96.18
708.588	96.24
708.932	96.16
709.277	95.95
709.621	96.17
709.966	96.03
710.31	96.17
710.654	96.02
710.998	96.12
711.342	95.87
711.687	95.9
712.031	95.96
712.375	95.87
712.719	95.92
713.063	96.13
713.407	95.76
713.75	96.06
714.094	95.9
714.438	95.8
714.782	95.9
715.125	95.68
715.469	95.71
715.812	95.86
716.156	95.49
716.499	95.95
716.843	95.72
717.186	95.7
717.53	95.52
717.873	95.49
718.216	95.57
718.559	95.63
718.902	95.54
719.246	95.58
719.589	95.49
719.932	95.3
720.275	95.51
720.617	95.33
720.96	95.01
721.303	95.56
721.646	95.38
721.989	95.06
722.331	95.13
722.674	95.48
723.016	95.46
723.359	95.33
723.701	95.33
724.044	95.33
724.386	95.31
724.729	95.12
725.071	95.36
725.413	95.27
725.755	95.16
726.097	95.2
726.439	95.09
726.782	95.02
727.124	95.35
727.465	95.12
727.807	95.12
728.149	95.11
728.491	95.13
728.833	95.09
729.175	95.08
729.516	95.17
729.858	94.9
730.199	95.15
730.541	94.91
730.882	94.9
731.224	94.9
731.565	94.85
731.906	94.88
732.248	94.9
732.589	94.8
732.93	94.8
733.271	94.96
733.612	94.96
733.953	94.96
734.294	95.2
734.635	94.56
734.976	95.09
735.317	94.52
735.658	94.61
735.999	94.77
736.339	94.98
736.68	94.51
737.021	94.56
737.361	94.73
737.702	94.94
738.042	94.65
738.383	94.76
738.723	95.09
739.063	94.46
739.404	94.45
739.744	94.7
740.084	94.84
740.424	94.92
740.764	94.77
741.104	94.38
741.444	94.63
741.784	94.68
742.124	94.7
742.464	94.48
742.804	94.43
743.143	94.72
743.483	94.83
743.823	94.52
744.162	94.39
744.502	94.75
744.841	94.07
745.181	94.5
745.52	94.26
745.86	94.79
746.199	94.3
746.538	94.19
746.877	94.37
747.216	94.49
747.556	94.23
747.895	94.65
748.234	94.38
748.573	94.29
748.911	94.58
749.25	94.13
749.589	94.66
749.928	94.07
750.267	94.47
750.605	94.14
750.944	94.11
751.283	94.41
751.621	93.99
751.96	94.22
752.298	94.32
752.636	94.17
752.975	94.02
753.313	93.93
753.651	94.12
753.989	94.05
754.327	94.33
754.666	94.24
755.004	94.2
755.342	94.11
755.679	93.82
756.017	94.04
756.355	93.91
756.693	94.29
757.031	94.17
757.368	94.36
757.706	94.31
758.044	94.06
758.381	94.2
758.719	94.07
759.056	93.95
759.394	93.94
759.731	94.23
760.068	94.34
760.405	94.22
760.743	94.18
761.08	94.26
761.417	94
761.754	94.09
762.091	93.77
762.428	93.84
762.765	93.77
763.102	94.03
763.438	93.84
763.775	94.71
764.112	94.11
764.449	94
764.785	93.97
765.122	93.68
765.458	93.95
765.795	93.76
766.131	94.06
766.467	93.58
766.804	94.56
767.14	93.7
767.476	93.84
767.812	93.58
768.148	93.92
768.485	94.02
768.821	93.66
769.157	93.73
769.492	93.67
769.828	93.98
770.164	94.28
770.5	94.15
770.836	94.02
771.171	93.91
771.507	93.85
771.842	93.91
772.178	93.81
772.513	93.58
772.849	93.88
773.184	93.8
773.519	94.14
773.855	94.11
774.19	94
774.525	93.4
774.86	93.73
775.195	93.71
775.53	93.87
775.865	93.52
776.2	93.8
776.535	93.98
776.87	94.16
777.205	93.95
777.539	93.89
777.874	93.92
778.209	94.15
778.543	93.66
778.878	94.06
779.212	93.98
779.547	93.92
779.881	93.79
780.215	94.05
780.55	93.82
780.884	93.74
781.218	93.68
781.552	93.73
781.886	93.6
782.22	94.13
782.554	93.32
782.888	93.67
783.222	94.26
783.556	94.01
783.889	93.9
784.223	93.98
784.557	94.16
784.89	93.89
785.224	94.28
785.557	93.75
785.891	94.06
786.224	94.34
786.558	94.19
786.891	93.75
787.224	93.82
787.557	94.14
787.891	94.17
788.224	93.89
788.557	93.74
788.89	93.42
789.223	93.74
789.556	93.4
789.888	94.07
790.221	93.91
790.554	93.85
790.887	93.67
791.219	93.81
791.552	93.79
791.884	93.69
792.217	93.75
792.549	93.89
792.882	93.99
793.214	93.93
793.546	93.79
793.879	93.69
794.211	93.69
794.543	93.75
794.875	93.93
795.207	93.84
795.539	93.69
795.871	93.45
796.203	93.95
796.535	93.96
796.867	93.81
797.198	93.36
797.53	94.07
797.862	93.74
798.193	93.4
798.525	93.71
798.856	93.68
799.188	93.78
799.519	93.31
799.85	94.08
800.182	93.51
800.513	94.13
800.844	93.92
801.175	93.44
801.506	93.62
801.837	94.19
802.168	94.05
802.499	93.78
802.83	94.1
803.161	93.78
803.491	94.08
803.822	93.48
804.153	93.55
804.483	93.62
804.814	93.96
805.145	93.24
805.475	93.6
805.805	93.05
806.136	93.61
806.466	93.58
806.796	94.14
807.126	93.29
807.457	93.66
807.787	94.01
808.117	93.78
808.447	93.21
808.777	93.73
809.107	93.49
809.436	94.08
809.766	93.89
810.096	94.05
810.426	93.87
810.755	93.85
811.085	94.2
811.414	93.2
811.744	93.84
812.073	94.31
812.403	93.17
812.732	93.27
813.061	94.01
813.39	93.72
813.719	93.85
814.049	93.39
814.378	94.46
814.707	93.99
815.036	93.49
815.365	94.01
815.693	93.71
816.022	93.24
816.351	93.83
816.68	93.74
