Data from White_reflection_standard_Reflection_00012.txt Node
Date: Mon Feb 06 14:43:19 GMT 2017
User: dcchb
Spectrometer: FLMS00149
Trigger mode: 0
Integration Time (sec): 2.000000E-2
Scans to average: 10
Electric dark correction enabled: true
Nonlinearity correction enabled: false
Boxcar width: 0
XAxis mode: Wavelengths
Number of Pixels in Spectrum: 2048
>>>>>Begin Spectral Data<<<<<
341.393	52.68
341.776	52.68
342.16	52.68
342.543	22.74
342.927	561.62
343.31	-286.44
343.693	-83.91
344.077	-29.71
344.46	198.36
344.843	718.55
345.226	277.71
345.61	26.96
345.993	210.07
346.376	-381.68
346.759	35.6
347.142	42.71
347.525	152.52
347.908	126.55
348.291	364.76
348.674	127.78
349.057	-339.88
349.44	164.75
349.823	-48.5
350.206	56.62
350.588	89
350.971	78.94
351.354	99.5
351.737	67.77
352.119	85.05
352.502	95.06
352.884	109.05
353.267	112.53
353.65	77.38
354.032	89.62
354.414	113.37
354.797	84.04
355.179	104.88
355.562	90.88
355.944	69.98
356.326	80.49
356.709	92.33
357.091	96.45
357.473	90.63
357.855	106.59
358.238	94.58
358.62	101.44
359.002	76.41
359.384	96.59
359.766	93.46
360.148	95.37
360.53	92.38
360.912	89.57
361.294	103.94
361.676	105.6
362.057	76.9
362.439	89.87
362.821	72.15
363.203	85.93
363.584	91.71
363.966	77.57
364.348	85.87
364.729	91.12
365.111	97.88
365.493	89.13
365.874	91.81
366.256	78.13
366.637	94.44
367.019	88.53
367.4	107.38
367.781	95.23
368.163	82.63
368.544	92.51
368.925	73.4
369.306	103.26
369.688	94.68
370.069	98.64
370.45	99.16
370.831	95.29
371.212	86.69
371.593	95.75
371.974	89.73
372.355	85.37
372.736	91.96
373.117	96.89
373.498	84.73
373.879	83.73
374.26	77.67
374.641	86.93
375.021	99.56
375.402	94.42
375.783	90.98
376.163	95.8
376.544	98.01
376.925	91.55
377.305	89.58
377.686	89.22
378.066	93.23
378.447	83.59
378.827	89.76
379.208	91.98
379.588	85.71
379.968	99.26
380.349	84.37
380.729	96.8
381.109	87.74
381.489	88.25
381.87	86.4
382.25	101.77
382.63	91.57
383.01	93.63
383.39	91.31
383.77	89.74
384.15	89.69
384.53	89.93
384.91	94.39
385.29	94.19
385.67	88.01
386.049	90.37
386.429	90.08
386.809	89.38
387.189	94.06
387.568	101.96
387.948	88.93
388.328	99.38
388.707	100.08
389.087	95.05
389.466	93.38
389.846	87.73
390.225	88.18
390.605	88.8
390.984	88.27
391.363	93.87
391.743	95.17
392.122	90.94
392.501	90.37
392.881	89.38
393.26	91.56
393.639	92.18
394.018	91.1
394.397	98.63
394.776	95.79
395.155	89.31
395.534	94.67
395.913	89.78
396.292	93.77
396.671	94.58
397.05	89.68
397.429	91.01
397.808	93.83
398.186	89.23
398.565	96.81
398.944	94.79
399.323	93.7
399.701	91.97
400.08	93.19
400.458	95.87
400.837	95.61
401.215	93.43
401.594	92.5
401.972	92.97
402.351	87.72
402.729	91.11
403.107	90.7
403.486	92.56
403.864	90.14
404.242	91.64
404.62	94.15
404.999	91.38
405.377	93
405.755	94.29
406.133	93.65
406.511	93.26
406.889	93.92
407.267	93.08
407.645	95.91
408.023	92.86
408.401	93.37
408.779	95.34
409.156	92.41
409.534	92.72
409.912	90.3
410.29	92.16
410.667	95.77
411.045	91.89
411.422	92.55
411.8	92.21
412.178	94.29
412.555	93.16
412.933	93.95
413.31	93.24
413.687	91.57
414.065	95.58
414.442	91.87
414.819	93.99
415.197	93.34
415.574	94.1
415.951	92.77
416.328	92.37
416.705	92.17
417.082	93.07
417.46	92.46
417.837	93.98
418.214	94.93
418.591	92.86
418.967	90.45
419.344	92.85
419.721	93.3
420.098	93.54
420.475	94.93
420.852	93.43
421.228	92.62
421.605	93.52
421.982	94.1
422.358	93.38
422.735	92.38
423.111	94.42
423.488	93.92
423.864	94.15
424.241	92.56
424.617	92.07
424.994	91.05
425.37	93.24
425.746	92.71
426.123	93.26
426.499	93.16
426.875	93.89
427.251	91.6
427.627	93.68
428.003	91.43
428.379	91.81
428.756	93.61
429.132	93.59
429.507	94.47
429.883	92.55
430.259	93.27
430.635	93.46
431.011	94.78
431.387	92.84
431.763	94.37
432.138	94.53
432.514	95.16
432.89	93.24
433.265	93.96
433.641	92.85
434.016	94.18
434.392	92.29
434.767	94.47
435.143	94.13
435.518	93.87
435.894	91.28
436.269	92.87
436.644	93.39
437.02	92.7
437.395	94.48
437.77	94.53
438.145	93.17
438.52	93.92
438.895	92.8
439.271	94.68
439.646	93.98
440.021	93.77
440.395	93.19
440.77	94.72
441.145	93.55
441.52	92.73
441.895	93.93
442.27	93.51
442.645	91.91
443.019	93.44
443.394	92.97
443.769	93.22
444.143	92.91
444.518	92.44
444.892	93.93
445.267	93.58
445.641	93.4
446.016	92.81
446.39	93.57
446.764	93.33
447.139	93.04
447.513	92.76
447.887	92.38
448.262	94.85
448.636	93.92
449.01	94.6
449.384	93.74
449.758	92.83
450.132	93.13
450.506	93.74
450.88	92.64
451.254	93.22
451.628	92.88
452.002	93.45
452.376	93.71
452.75	94.24
453.123	94.01
453.497	94.07
453.871	94.52
454.244	93.48
454.618	94.74
454.992	93.74
455.365	93.19
455.739	92.97
456.112	92.24
456.486	93.07
456.859	94.37
457.232	93.74
457.606	93.6
457.979	93.72
458.352	93.32
458.725	93.1
459.099	93.89
459.472	92.82
459.845	92.77
460.218	92.31
460.591	92.69
460.964	93.16
461.337	92.87
461.71	92.63
462.083	93.3
462.456	93.14
462.829	93.24
463.201	93.91
463.574	93.4
463.947	93.91
464.32	93.05
464.692	92.99
465.065	93.78
465.438	93.37
465.81	93.27
466.183	94.17
466.555	92.82
466.928	93.47
467.3	92.79
467.672	93.13
468.045	93.13
468.417	94.33
468.789	93.38
469.161	93.17
469.534	93.38
469.906	94.02
470.278	93.44
470.65	92.9
471.022	92.56
471.394	93.49
471.766	92.72
472.138	93.28
472.51	93.05
472.882	93.04
473.253	93.79
473.625	92.74
473.997	93.44
474.369	92.51
474.74	92.84
475.112	93.98
475.484	93.6
475.855	91.93
476.227	93.11
476.598	93.38
476.97	93.3
477.341	92.56
477.713	93.03
478.084	92.6
478.455	92.72
478.827	92.92
479.198	93.56
479.569	93.26
479.94	93.57
480.311	93.52
480.682	92.72
481.053	93.31
481.424	92.9
481.795	93.31
482.166	93.05
482.537	92.87
482.908	92.53
483.279	93.23
483.65	93.2
484.021	93.2
484.391	93.64
484.762	94.11
485.133	92.57
485.503	93.05
485.874	92.92
486.244	93.27
486.615	93.83
486.985	93.44
487.356	93.73
487.726	93.69
488.097	93.6
488.467	93.93
488.837	93.33
489.207	93.64
489.578	93.37
489.948	93.36
490.318	93.23
490.688	93.25
491.058	93.51
491.428	93.68
491.798	93.25
492.168	93.5
492.538	93.21
492.908	93.64
493.278	93.53
493.648	93.62
494.017	93.16
494.387	93.22
494.757	93.61
495.126	93.37
495.496	93.31
495.866	93.12
496.235	93.47
496.605	92.97
496.974	93.53
497.344	93.9
497.713	93.38
498.082	94.19
498.452	93.11
498.821	92.88
499.19	93.51
499.559	93.54
499.928	93.1
500.298	93.4
500.667	93.64
501.036	93.97
501.405	92.97
501.774	93.58
502.143	93.56
502.512	93.38
502.88	93.53
503.249	93.3
503.618	93.49
503.987	93.74
504.356	92.93
504.724	93.53
505.093	93.12
505.462	93.5
505.83	93.23
506.199	92.91
506.567	93.57
506.936	93.23
507.304	93.87
507.672	93.63
508.041	93.18
508.409	93.53
508.777	93.45
509.145	93.35
509.514	93.29
509.882	93.4
510.25	93.62
510.618	93.21
510.986	93.34
511.354	93.31
511.722	93.59
512.09	93.31
512.458	93.26
512.826	93.02
513.193	93.39
513.561	93.29
513.929	93.13
514.297	93.63
514.664	93.56
515.032	93.1
515.4	93.15
515.767	93.73
516.135	93.92
516.502	93.16
516.869	93.3
517.237	93.28
517.604	93.32
517.972	93.3
518.339	93.59
518.706	93.11
519.073	93.48
519.44	93.63
519.808	93.5
520.175	93.54
520.542	93.61
520.909	93.64
521.276	93.68
521.643	93.45
522.009	93.42
522.376	93.63
522.743	93.58
523.11	93.67
523.477	93.48
523.843	93.46
524.21	93.6
524.577	93.58
524.943	93.47
525.31	93.89
525.676	93.78
526.043	93.49
526.409	93.89
526.776	93.86
527.142	93.78
527.508	93.5
527.874	94.02
528.241	93.92
528.607	93.84
528.973	93.91
529.339	93.8
529.705	94.08
530.071	93.66
530.437	94.07
530.803	93.79
531.169	93.83
531.535	94.3
531.901	94.17
532.267	93.94
532.632	94.09
532.998	94.07
533.364	94.43
533.73	94.08
534.095	94.36
534.461	93.94
534.826	94.27
535.192	94.34
535.557	93.78
535.923	94.16
536.288	94.28
536.653	94.57
537.019	94.23
537.384	94.83
537.749	94.54
538.114	94.67
538.479	94.49
538.845	94.54
539.21	94.69
539.575	95.06
539.94	94.77
540.305	94.75
540.67	94.83
541.034	94.7
541.399	94.57
541.764	95
542.129	94.97
542.494	95.13
542.858	95.04
543.223	94.69
543.587	95.22
543.952	94.92
544.316	95.16
544.681	94.97
545.045	95.16
545.41	95.35
545.774	95.32
546.138	95.5
546.503	95.41
546.867	95.32
547.231	95.28
547.595	95.32
547.959	95.4
548.324	95.08
548.688	95.29
549.052	95.53
549.416	95.63
549.779	95.65
550.143	95.56
550.507	95.86
550.871	95.55
551.235	95.73
551.599	96.01
551.962	95.7
552.326	95.79
552.689	96.04
553.053	95.69
553.417	95.99
553.78	95.97
554.143	95.95
554.507	95.8
554.87	96.04
555.234	95.91
555.597	95.89
555.96	96.19
556.323	96.28
556.686	96.46
557.05	96.14
557.413	96.25
557.776	96.33
558.139	96.31
558.502	96.22
558.865	96.31
559.228	96.37
559.59	96.38
559.953	96.44
560.316	96.58
560.679	96.36
561.041	96.48
561.404	96.53
561.767	96.65
562.129	96.64
562.492	96.77
562.854	96.61
563.217	96.7
563.579	96.87
563.941	96.75
564.304	96.75
564.666	96.82
565.028	96.74
565.39	96.85
565.753	96.9
566.115	96.88
566.477	96.63
566.839	96.9
567.201	97.01
567.563	96.89
567.925	97.04
568.287	96.97
568.648	97.11
569.01	96.95
569.372	97.09
569.734	97.04
570.095	96.96
570.457	97.08
570.819	97.05
571.18	96.95
571.542	97.05
571.903	97.04
572.265	97.04
572.626	97
572.987	97.13
573.349	97.13
573.71	97.09
574.071	97.14
574.432	97.08
574.794	97.15
575.155	97.23
575.516	97.06
575.877	97.14
576.238	97.21
576.599	97.17
576.96	97.16
577.32	97.23
577.681	97.2
578.042	97.08
578.403	97.21
578.763	97.17
579.124	97.43
579.485	97.31
579.845	97.43
580.206	97.41
580.566	97.31
580.927	97.32
581.287	97.14
581.648	97.22
582.008	97.27
582.368	97.16
582.728	97.34
583.089	97.23
583.449	97.27
583.809	97.23
584.169	97.3
584.529	97.17
584.889	97.22
585.249	97.31
585.609	97.16
585.969	97.29
586.329	97.33
586.688	97.3
587.048	97.36
587.408	97.16
587.768	97.21
588.127	97.27
588.487	97.19
588.846	97.32
589.206	97.39
589.565	97.24
589.925	97.15
590.284	97.31
590.643	97.27
591.003	97.22
591.362	97.25
591.721	97.46
592.08	97.27
592.44	97.26
592.799	97.3
593.158	97.23
593.517	97.26
593.876	97.32
594.235	97.41
594.593	97.42
594.952	97.25
595.311	97.19
595.67	97.11
596.029	97.21
596.387	97.38
596.746	97.41
597.104	97.34
597.463	97.3
597.822	97.27
598.18	97.32
598.538	97.25
598.897	97.39
599.255	97.37
599.613	97.33
599.972	97.39
600.33	97.34
600.688	97.36
601.046	97.36
601.404	97.4
601.762	97.25
602.12	97.37
602.478	97.37
602.836	97.58
603.194	97.33
603.552	97.37
603.91	97.43
604.268	97.37
604.625	97.4
604.983	97.36
605.341	97.47
605.698	97.31
606.056	97.39
606.413	97.45
606.771	97.29
607.128	97.3
607.485	97.31
607.843	97.45
608.2	97.4
608.557	97.49
608.914	97.28
609.272	97.38
609.629	97.4
609.986	97.33
610.343	97.3
610.7	97.35
611.057	97.37
611.414	97.45
611.771	97.22
612.127	97.26
612.484	97.36
612.841	97.48
613.198	97.45
613.554	97.4
613.911	97.37
614.267	97.49
614.624	97.45
614.98	97.63
615.337	97.41
615.693	97.42
616.05	97.52
616.406	97.35
616.762	97.51
617.118	97.46
617.475	97.53
617.831	97.56
618.187	97.56
618.543	97.45
618.899	97.41
619.255	97.43
619.611	97.51
619.967	97.5
620.323	97.51
620.678	97.43
621.034	97.37
621.39	97.32
621.746	97.36
622.101	97.38
622.457	97.42
622.812	97.51
623.168	97.43
623.523	97.41
623.879	97.35
624.234	97.47
624.589	97.4
624.945	97.51
625.3	97.54
625.655	97.47
626.01	97.38
626.365	97.53
626.72	97.43
627.075	97.54
627.43	97.44
627.785	97.56
628.14	97.48
628.495	97.57
628.85	97.44
629.205	97.45
629.559	97.39
629.914	97.47
630.269	97.38
630.623	97.5
630.978	97.36
631.332	97.44
631.687	97.38
632.041	97.49
632.396	97.44
632.75	97.37
633.104	97.33
633.459	97.39
633.813	97.44
634.167	97.45
634.521	97.36
634.875	97.43
635.229	97.46
635.583	97.3
635.937	97.48
636.291	97.41
636.645	97.43
636.999	97.31
637.352	97.41
637.706	97.33
638.06	97.41
638.413	97.48
638.767	97.4
639.121	97.39
639.474	97.31
639.828	97.49
640.181	97.46
640.534	97.27
640.888	97.39
641.241	97.37
641.594	97.36
641.947	97.38
642.301	97.47
642.654	97.36
643.007	97.29
643.36	97.43
643.713	97.42
644.066	97.44
644.419	97.19
644.771	97.32
645.124	97.24
645.477	97.22
645.83	97.25
646.182	97.13
646.535	97.24
646.888	97.2
647.24	97.3
647.593	97.28
647.945	97.13
648.298	97.22
648.65	97.3
649.002	97.17
649.355	97.19
649.707	97.24
650.059	97.26
650.411	97.31
650.763	97.21
651.115	97.39
651.467	97.26
651.819	97.24
652.171	97.33
652.523	97.26
652.875	97.25
653.227	97.24
653.578	97.25
653.93	97.33
654.282	97.26
654.633	97.38
654.985	97.19
655.337	97.4
655.688	97.37
656.039	97.35
656.391	97.29
656.742	97.3
657.094	97.3
657.445	97.36
657.796	97.22
658.147	97.29
658.498	97.23
658.849	97.25
659.2	97.24
659.551	97.21
659.902	97.24
660.253	97.22
660.604	97.16
660.955	97.17
661.306	97.22
661.656	97.35
662.007	97.16
662.358	97.24
662.708	97.17
663.059	97.32
663.409	97.33
663.76	97.22
664.11	97.16
664.461	97.16
664.811	97.19
665.161	97.07
665.511	97.22
665.862	97.22
666.212	97.24
666.562	97.13
666.912	97.17
667.262	97.2
667.612	97.03
667.962	97.24
668.312	97.25
668.662	97.23
669.011	97.28
669.361	97.33
669.711	97.16
670.06	97.13
670.41	97.14
670.76	97.09
671.109	97.18
671.459	97.2
671.808	97.16
672.157	97.16
672.507	97.1
672.856	97.31
673.205	97.24
673.554	97.35
673.904	97.09
674.253	97.24
674.602	97.18
674.951	97.17
675.3	97.04
675.649	97.27
675.998	97.11
676.346	97.28
676.695	97.26
677.044	97.16
677.393	97.25
677.741	97.22
678.09	97.23
678.438	97.22
678.787	97.26
679.135	97.32
679.484	97.11
679.832	97.23
680.181	97.19
680.529	97.29
680.877	97.27
681.225	97.19
681.573	97.18
681.922	97.07
682.27	97.05
682.618	97.02
682.966	97.22
683.314	97.07
683.661	97.04
684.009	97.16
684.357	97.2
684.705	96.96
685.053	97.19
685.4	97.19
685.748	97.08
686.095	97.08
686.443	97.11
686.79	96.89
687.138	97.08
687.485	97.25
687.832	97.06
688.18	97.12
688.527	97.02
688.874	97.02
689.221	97.04
689.568	96.96
689.915	97.03
690.262	96.89
690.609	97.02
690.956	96.78
691.303	96.95
691.65	96.84
691.997	96.85
692.344	96.74
692.69	96.82
693.037	96.9
693.383	96.99
693.73	96.83
694.077	96.95
694.423	96.79
694.769	96.8
695.116	96.98
695.462	96.74
695.808	96.93
696.155	96.8
696.501	96.78
696.847	96.84
697.193	96.62
697.539	96.89
697.885	96.63
698.231	96.58
698.577	96.57
698.923	96.75
699.269	96.5
699.614	96.69
699.96	96.42
700.306	96.53
700.651	96.6
700.997	96.31
701.342	96.51
701.688	96.49
702.033	96.46
702.379	96.65
702.724	96.54
703.069	96.37
703.415	96.51
703.76	96.43
704.105	96.38
704.45	96.31
704.795	96.15
705.14	96.34
705.485	96.35
705.83	96.13
706.175	96.36
706.52	96.3
706.865	96.3
707.209	96.24
707.554	96.3
707.899	96.28
708.243	96.07
708.588	96.24
708.932	96.09
709.277	95.82
709.621	96.19
709.966	96.12
710.31	96.45
710.654	95.96
710.998	96.08
711.342	95.82
711.687	95.89
712.031	95.84
712.375	96.12
712.719	96.04
713.063	96.02
713.407	95.93
713.75	95.82
714.094	95.92
714.438	95.83
714.782	95.89
715.125	95.68
715.469	95.62
715.812	95.89
716.156	95.63
716.499	95.92
716.843	95.85
717.186	95.68
717.53	95.69
717.873	95.6
718.216	95.68
718.559	95.58
718.902	95.84
719.246	95.81
719.589	95.38
719.932	95.42
720.275	95.39
720.617	95.26
720.96	95.28
721.303	95.32
721.646	95.16
721.989	95.3
722.331	95.54
722.674	95.5
723.016	95.24
723.359	95.24
723.701	95.34
724.044	95.34
724.386	95.49
724.729	95.47
725.071	95.27
725.413	95.02
725.755	95.18
726.097	95.28
726.439	95.07
726.782	94.91
727.124	95.13
727.465	95.17
727.807	95.28
728.149	95.1
728.491	95.2
728.833	95.2
729.175	95.18
729.516	94.96
729.858	94.97
730.199	95
730.541	95.01
730.882	95.07
731.224	94.96
731.565	95.04
731.906	94.75
732.248	94.66
732.589	94.97
732.93	95.16
733.271	95
733.612	94.94
733.953	95.08
734.294	94.83
734.635	94.6
734.976	94.96
735.317	94.69
735.658	94.85
735.999	94.66
736.339	94.78
736.68	94.59
737.021	94.54
737.361	94.81
737.702	94.73
738.042	94.71
738.383	94.73
738.723	94.91
739.063	94.51
739.404	94.58
739.744	94.87
740.084	94.83
740.424	94.59
740.764	94.7
741.104	94.37
741.444	94.66
741.784	94.72
742.124	94.89
742.464	94.33
742.804	94.43
743.143	94.7
743.483	94.69
743.823	94.29
744.162	94.21
744.502	94.34
744.841	94.09
745.181	94.02
745.52	94.42
745.86	94.63
746.199	94.65
746.538	94.2
746.877	94.12
747.216	94.49
747.556	94.13
747.895	94.44
748.234	94.33
748.573	94.45
748.911	94.25
749.25	94.15
749.589	94.26
749.928	94.18
750.267	94.65
750.605	94.27
750.944	94.45
751.283	94.56
751.621	94.33
751.96	94.08
752.298	94.39
752.636	94.4
752.975	94
753.313	94.28
753.651	94.11
753.989	94.33
754.327	94.26
754.666	94.36
755.004	94.32
755.342	94.1
755.679	94.05
756.017	93.89
756.355	94.26
756.693	94.32
757.031	94.32
757.368	94.44
757.706	93.62
758.044	94
758.381	94.26
758.719	94.42
759.056	94.22
759.394	93.96
759.731	94.16
760.068	93.9
760.405	93.79
760.743	94.13
761.08	93.93
761.417	94.01
761.754	94.23
762.091	93.98
762.428	93.88
762.765	93.79
763.102	93.97
763.438	94.24
763.775	94.43
764.112	93.96
764.449	94.13
764.785	94.04
765.122	93.95
765.458	94.15
765.795	93.61
766.131	94.12
766.467	93.71
766.804	94.28
767.14	93.31
767.476	93.9
767.812	93.94
768.148	94.26
768.485	94.15
768.821	93.74
769.157	93.59
769.492	93.49
769.828	93.43
770.164	94.15
770.5	93.89
770.836	93.94
771.171	94.06
771.507	93.89
771.842	94.04
772.178	94.29
772.513	93.64
772.849	94.1
773.184	93.94
773.519	94.23
773.855	94.18
774.19	94.06
774.525	93.61
774.86	93.87
775.195	93.74
775.53	93.76
775.865	93.46
776.2	93.72
776.535	93.7
776.87	93.68
777.205	93.85
777.539	93.96
777.874	93.97
778.209	93.81
778.543	93.53
778.878	94.27
779.212	94
779.547	93.64
779.881	93.82
780.215	93.55
780.55	93.61
780.884	94.25
781.218	93.78
781.552	94.08
781.886	93.97
782.22	93.83
782.554	93.56
782.888	93.99
783.222	93.77
783.556	93.78
783.889	94.19
784.223	93.79
784.557	93.73
784.89	94.2
785.224	94.12
785.557	94.02
785.891	93.78
786.224	94.17
786.558	94.12
786.891	93.77
787.224	94.36
787.557	93.93
787.891	93.86
788.224	93.77
788.557	93.8
788.89	93.72
789.223	93.85
789.556	93.46
789.888	94.13
790.221	93.71
790.554	93.5
790.887	93.77
791.219	93.9
791.552	93.59
791.884	94.03
792.217	93.73
792.549	93.23
792.882	93.69
793.214	93.29
793.546	93.73
793.879	93.82
794.211	93.41
794.543	93.88
794.875	93.73
795.207	93.84
795.539	93.61
795.871	93.94
796.203	93.96
796.535	93.95
796.867	94.15
797.198	93.71
797.53	93.67
797.862	93.58
798.193	93.91
798.525	93.94
798.856	93.67
799.188	93.74
799.519	93.91
799.85	94.16
800.182	93.6
800.513	93.99
800.844	93.95
801.175	93.5
801.506	93.88
801.837	93.59
802.168	93.53
802.499	94.02
802.83	93.71
803.161	93.54
803.491	93.78
803.822	94.09
804.153	93.72
804.483	93.51
804.814	93.71
805.145	93.82
805.475	93.61
805.805	93.29
806.136	93.8
806.466	93.68
806.796	93.9
807.126	93.37
807.457	93.67
807.787	93.97
808.117	93.86
808.447	93.58
808.777	93.69
809.107	93.77
809.436	93.86
809.766	93.43
810.096	93.98
810.426	93.74
810.755	94.1
811.085	93.77
811.414	93.61
811.744	93.58
812.073	93.89
812.403	93.61
812.732	93.46
813.061	93.66
813.39	93.25
813.719	93.62
814.049	93.36
814.378	93.83
814.707	93.37
815.036	93.73
815.365	93.7
815.693	93.21
816.022	93.44
