Data from White_reflection_standard_Reflection_00010.txt Node
Date: Mon Feb 06 14:42:25 GMT 2017
User: dcchb
Spectrometer: FLMS00149
Trigger mode: 0
Integration Time (sec): 2.000000E-2
Scans to average: 10
Electric dark correction enabled: true
Nonlinearity correction enabled: false
Boxcar width: 0
XAxis mode: Wavelengths
Number of Pixels in Spectrum: 2048
>>>>>Begin Spectral Data<<<<<
341.393	9.84
341.776	9.84
342.16	9.84
342.543	24.48
342.927	-1337.37
343.31	-218.3
343.693	-7.75
344.077	209.52
344.46	-101.92
344.843	-74.21
345.226	89.17
345.61	-44.73
345.993	-27.73
346.376	-741.98
346.759	29.43
347.142	48.65
347.525	112.14
347.908	-68.36
348.291	185.02
348.674	15.18
349.057	349.13
349.44	95.42
349.823	-8.45
350.206	75.63
350.588	85.34
350.971	89.2
351.354	76.57
351.737	87.74
352.119	93.77
352.502	79.98
352.884	88.19
353.267	107.22
353.65	75.64
354.032	101.99
354.414	146.3
354.797	87.3
355.179	108.32
355.562	84.94
355.944	57.75
356.326	92.23
356.709	100.01
357.091	91.85
357.473	86.54
357.855	95.21
358.238	102.85
358.62	89.2
359.002	111.29
359.384	117.85
359.766	109.88
360.148	94.37
360.53	82.04
360.912	106.44
361.294	110.92
361.676	93.49
362.057	100.01
362.439	89.41
362.821	75.91
363.203	93.83
363.584	89.49
363.966	82.06
364.348	97.66
364.729	94.78
365.111	104.12
365.493	75.61
365.874	89.74
366.256	88.25
366.637	95.87
367.019	94
367.4	95.22
367.781	100.38
368.163	83.23
368.544	104.79
368.925	87.64
369.306	105.87
369.688	88.33
370.069	101.65
370.45	94.1
370.831	98.26
371.212	86.74
371.593	88.82
371.974	94.58
372.355	92.28
372.736	97.31
373.117	94.49
373.498	100.86
373.879	80.95
374.26	98.01
374.641	83.07
375.021	102.47
375.402	88.57
375.783	95.07
376.163	99.93
376.544	97.26
376.925	91.33
377.305	78.18
377.686	93.36
378.066	100.42
378.447	98.81
378.827	90.3
379.208	89.3
379.588	86.62
379.968	97.04
380.349	85.86
380.729	93.81
381.109	90.25
381.489	87.91
381.87	92.97
382.25	100.78
382.63	97.61
383.01	94.4
383.39	95.49
383.77	95.76
384.15	89.54
384.53	92.24
384.91	92.54
385.29	98.56
385.67	82.96
386.049	94.16
386.429	85.53
386.809	90.09
387.189	93.58
387.568	96.71
387.948	87.12
388.328	98.86
388.707	97.16
389.087	87.43
389.466	98.54
389.846	84.75
390.225	86.04
390.605	89.55
390.984	90.71
391.363	97.14
391.743	100.72
392.122	101.28
392.501	92.64
392.881	85.35
393.26	93.73
393.639	94.59
394.018	90.06
394.397	95.89
394.776	97.85
395.155	90.51
395.534	92.75
395.913	93.54
396.292	92.23
396.671	96.7
397.05	94.78
397.429	94.28
397.808	91.52
398.186	86.48
398.565	92.63
398.944	97.62
399.323	90.72
399.701	92.86
400.08	89.37
400.458	93.24
400.837	96.64
401.215	96.58
401.594	95.59
401.972	90.41
402.351	93.19
402.729	92.26
403.107	91.79
403.486	92.68
403.864	90.65
404.242	97.54
404.62	95.48
404.999	94.57
405.377	92.35
405.755	95.71
406.133	94.71
406.511	96.2
406.889	97.25
407.267	92.09
407.645	94.28
408.023	92.04
408.401	95.55
408.779	95.16
409.156	93.96
409.534	95.33
409.912	93.38
410.29	94.98
410.667	95.1
411.045	92.88
411.422	93.64
411.8	91.99
412.178	94.23
412.555	93.87
412.933	96.12
413.31	92.25
413.687	94.04
414.065	96.32
414.442	92.22
414.819	92.54
415.197	97.19
415.574	95.85
415.951	94.8
416.328	92.23
416.705	91.5
417.082	91.54
417.46	93.02
417.837	95.01
418.214	95.83
418.591	93.85
418.967	91.52
419.344	92.26
419.721	92.44
420.098	93.23
420.475	97.46
420.852	93.97
421.228	92.86
421.605	92.74
421.982	93.91
422.358	93.05
422.735	93.55
423.111	95.15
423.488	94.04
423.864	95.86
424.241	93.22
424.617	94.15
424.994	91.6
425.37	91.36
425.746	93.6
426.123	91.63
426.499	93.1
426.875	93.73
427.251	90.58
427.627	94.88
428.003	93.96
428.379	94.94
428.756	94.17
429.132	92.7
429.507	93.29
429.883	91.99
430.259	92.55
430.635	94.24
431.011	94.19
431.387	94.11
431.763	95.47
432.138	94.83
432.514	94.17
432.89	94.62
433.265	93.03
433.641	94.1
434.016	95.61
434.392	93.74
434.767	93.51
435.143	95.08
435.518	95.39
435.894	92.07
436.269	93.22
436.644	93.96
437.02	92.91
437.395	93.95
437.77	94.65
438.145	91.82
438.52	93.11
438.895	93.81
439.271	94.35
439.646	94.33
440.021	94.02
440.395	93.99
440.77	94.44
441.145	93.61
441.52	92.57
441.895	93.81
442.27	93.55
442.645	92.05
443.019	93.69
443.394	93.77
443.769	93.94
444.143	93.79
444.518	93.9
444.892	94.06
445.267	93.75
445.641	93.19
446.016	93.52
446.39	93.16
446.764	93.39
447.139	93.24
447.513	91.95
447.887	93.07
448.262	94.5
448.636	92.74
449.01	94.06
449.384	94.15
449.758	92.32
450.132	93.1
450.506	92.78
450.88	93.56
451.254	93.06
451.628	93.07
452.002	93.76
452.376	94.14
452.75	93.85
453.123	94.27
453.497	93.51
453.871	93.45
454.244	93.65
454.618	93.7
454.992	94.05
455.365	93.34
455.739	92.57
456.112	92.98
456.486	93.38
456.859	94.6
457.232	93.58
457.606	93.32
457.979	93.5
458.352	93.65
458.725	93.04
459.099	93.39
459.472	93.59
459.845	93.01
460.218	93.99
460.591	94.09
460.964	93.64
461.337	93.58
461.71	93.53
462.083	93.32
462.456	92.77
462.829	93.02
463.201	94.32
463.574	92.72
463.947	94.04
464.32	93.54
464.692	93.09
465.065	93.65
465.438	93.61
465.81	93.26
466.183	93.69
466.555	92.49
466.928	93.65
467.3	93.75
467.672	92.9
468.045	93.69
468.417	93.52
468.789	93.57
469.161	92.68
469.534	93.13
469.906	93.64
470.278	92.35
470.65	93.24
471.022	93.23
471.394	93.63
471.766	92.76
472.138	93.28
472.51	93.04
472.882	92.93
473.253	93.29
473.625	93.19
473.997	92.86
474.369	92.76
474.74	93.17
475.112	93.93
475.484	93.42
475.855	92.7
476.227	93.22
476.598	93.84
476.97	92.97
477.341	93.32
477.713	93.75
478.084	93.36
478.455	93.33
478.827	92.5
479.198	93.28
479.569	94.13
479.94	93.47
480.311	93.69
480.682	93.03
481.053	93.02
481.424	92.48
481.795	93.04
482.166	93.4
482.537	92.64
482.908	93.52
483.279	93.57
483.65	93.06
484.021	93.24
484.391	93.45
484.762	94.28
485.133	92.92
485.503	93.42
485.874	93.17
486.244	93.69
486.615	93.75
486.985	93.63
487.356	93.01
487.726	93.34
488.097	93.32
488.467	93.65
488.837	93.39
489.207	93.88
489.578	93.5
489.948	93.43
490.318	92.82
490.688	93.44
491.058	93.51
491.428	93.93
491.798	92.89
492.168	93.24
492.538	93.13
492.908	93.51
493.278	94.19
493.648	93.43
494.017	93.14
494.387	93.34
494.757	93.78
495.126	93.25
495.496	93.22
495.866	93.21
496.235	93.65
496.605	93.2
496.974	93.53
497.344	93.94
497.713	93.6
498.082	93.97
498.452	93.2
498.821	93.42
499.19	93.49
499.559	92.93
499.928	93.45
500.298	93.18
500.667	93.56
501.036	93.46
501.405	93.33
501.774	93.12
502.143	93.43
502.512	93.59
502.88	93.51
503.249	93.31
503.618	93.55
503.987	93.38
504.356	93.2
504.724	93.52
505.093	93.37
505.462	93.48
505.83	93.87
506.199	93.34
506.567	93.53
506.936	93.68
507.304	93.79
507.672	93.26
508.041	93.37
508.409	93.63
508.777	93.44
509.145	93.57
509.514	93.36
509.882	93.24
510.25	93.62
510.618	93.65
510.986	93.56
511.354	93.47
511.722	93.9
512.09	93.44
512.458	93.44
512.826	93.54
513.193	93.64
513.561	93.32
513.929	93.26
514.297	93.43
514.664	93.19
515.032	93.41
515.4	93.71
515.767	93.58
516.135	94.24
516.502	93.15
516.869	93.65
517.237	93.57
517.604	93.24
517.972	93.55
518.339	93.6
518.706	93.19
519.073	93.3
519.44	94.17
519.808	93.44
520.175	93.74
520.542	93.96
520.909	93.65
521.276	93.75
521.643	93.8
522.009	93.59
522.376	93.69
522.743	93.64
523.11	93.71
523.477	93.7
523.843	93.59
524.21	93.78
524.577	94
524.943	94.06
525.31	94.21
525.676	93.51
526.043	93.76
526.409	94
526.776	93.97
527.142	93.91
527.508	93.41
527.874	93.91
528.241	93.52
528.607	94.04
528.973	93.8
529.339	94.11
529.705	93.88
530.071	93.8
530.437	94.26
530.803	93.94
531.169	93.82
531.535	93.99
531.901	94.25
532.267	94.23
532.632	94.01
532.998	94.02
533.364	94.14
533.73	94.29
534.095	94.03
534.461	94.38
534.826	94.37
535.192	94.25
535.557	93.99
535.923	94.39
536.288	94.23
536.653	94.28
537.019	94.41
537.384	94.97
537.749	94.76
538.114	94.74
538.479	94.45
538.845	94.65
539.21	94.61
539.575	95.05
539.94	94.66
540.305	94.86
540.67	94.86
541.034	95.15
541.399	94.62
541.764	95.1
542.129	95.13
542.494	95.22
542.858	95.04
543.223	94.81
543.587	95.16
543.952	95.04
544.316	95.44
544.681	94.91
545.045	95.03
545.41	95.38
545.774	95.22
546.138	95.53
546.503	95.18
546.867	95.46
547.231	95.42
547.595	95.43
547.959	95.59
548.324	95.5
548.688	95.5
549.052	95.56
549.416	95.66
549.779	95.84
550.143	95.53
550.507	95.74
550.871	95.68
551.235	95.77
551.599	95.91
551.962	95.85
552.326	95.75
552.689	96.12
553.053	95.81
553.417	95.84
553.78	96.05
554.143	95.89
554.507	95.98
554.87	95.98
555.234	96.03
555.597	96.05
555.96	96.35
556.323	96.37
556.686	96.18
557.05	96.28
557.413	96.24
557.776	96.35
558.139	96.36
558.502	96.32
558.865	96.38
559.228	96.54
559.59	96.59
559.953	96.49
560.316	96.65
560.679	96.41
561.041	96.49
561.404	96.53
561.767	96.81
562.129	96.53
562.492	96.76
562.854	96.6
563.217	96.72
563.579	96.79
563.941	96.83
564.304	96.73
564.666	96.83
565.028	96.67
565.39	96.82
565.753	97
566.115	96.88
566.477	96.75
566.839	96.85
567.201	96.99
567.563	96.99
567.925	97.02
568.287	97.05
568.648	97.07
569.01	97.06
569.372	97.13
569.734	97.04
570.095	96.96
570.457	97.17
570.819	97.06
571.18	97.09
571.542	97.06
571.903	97.1
572.265	97.21
572.626	97.15
572.987	97.13
573.349	97.04
573.71	97.21
574.071	97.16
574.432	97.14
574.794	97.09
575.155	97.2
575.516	97.25
575.877	97.2
576.238	97.23
576.599	97.19
576.96	97.16
577.32	97.28
577.681	97.34
578.042	97.15
578.403	97.26
578.763	97.22
579.124	97.53
579.485	97.27
579.845	97.3
580.206	97.46
580.566	97.25
580.927	97.35
581.287	97.26
581.648	97.22
582.008	97.27
582.368	97.21
582.728	97.5
583.089	97.31
583.449	97.3
583.809	97.17
584.169	97.36
584.529	97.33
584.889	97.25
585.249	97.42
585.609	97.25
585.969	97.26
586.329	97.36
586.688	97.38
587.048	97.32
587.408	97.22
587.768	97.23
588.127	97.26
588.487	97.25
588.846	97.29
589.206	97.13
589.565	97.25
589.925	97.22
590.284	97.3
590.643	97.41
591.003	97.27
591.362	97.27
591.721	97.45
592.08	97.29
592.44	97.29
592.799	97.33
593.158	97.27
593.517	97.41
593.876	97.32
594.235	97.37
594.593	97.32
594.952	97.39
595.311	97.36
595.67	97.3
596.029	97.34
596.387	97.34
596.746	97.43
597.104	97.47
597.463	97.42
597.822	97.29
598.18	97.42
598.538	97.22
598.897	97.53
599.255	97.34
599.613	97.29
599.972	97.31
600.33	97.35
600.688	97.42
601.046	97.39
601.404	97.44
601.762	97.31
602.12	97.45
602.478	97.32
602.836	97.5
603.194	97.42
603.552	97.45
603.91	97.52
604.268	97.3
604.625	97.3
604.983	97.34
605.341	97.47
605.698	97.22
606.056	97.36
606.413	97.44
606.771	97.43
607.128	97.32
607.485	97.39
607.843	97.36
608.2	97.37
608.557	97.52
608.914	97.46
609.272	97.5
609.629	97.48
609.986	97.38
610.343	97.39
610.7	97.48
611.057	97.45
611.414	97.37
611.771	97.31
612.127	97.41
612.484	97.44
612.841	97.41
613.198	97.5
613.554	97.58
613.911	97.4
614.267	97.47
614.624	97.48
614.98	97.58
615.337	97.39
615.693	97.45
616.05	97.45
616.406	97.44
616.762	97.58
617.118	97.51
617.475	97.64
617.831	97.49
618.187	97.48
618.543	97.52
618.899	97.44
619.255	97.49
619.611	97.49
619.967	97.52
620.323	97.37
620.678	97.48
621.034	97.38
621.39	97.48
621.746	97.51
622.101	97.39
622.457	97.53
622.812	97.38
623.168	97.34
623.523	97.51
623.879	97.48
624.234	97.51
624.589	97.48
624.945	97.46
625.3	97.52
625.655	97.47
626.01	97.4
626.365	97.45
626.72	97.55
627.075	97.53
627.43	97.63
627.785	97.57
628.14	97.57
628.495	97.51
628.85	97.47
629.205	97.52
629.559	97.41
629.914	97.56
630.269	97.45
630.623	97.59
630.978	97.47
631.332	97.36
631.687	97.4
632.041	97.53
632.396	97.59
632.75	97.54
633.104	97.39
633.459	97.44
633.813	97.47
634.167	97.45
634.521	97.5
634.875	97.42
635.229	97.5
635.583	97.34
635.937	97.54
636.291	97.41
636.645	97.5
636.999	97.35
637.352	97.47
637.706	97.32
638.06	97.3
638.413	97.42
638.767	97.37
639.121	97.49
639.474	97.31
639.828	97.47
640.181	97.42
640.534	97.43
640.888	97.34
641.241	97.49
641.594	97.42
641.947	97.46
642.301	97.43
642.654	97.37
643.007	97.27
643.36	97.36
643.713	97.45
644.066	97.46
644.419	97.22
644.771	97.3
645.124	97.33
645.477	97.23
645.83	97.3
646.182	97.34
646.535	97.34
646.888	97.32
647.24	97.3
647.593	97.29
647.945	97.3
648.298	97.29
648.65	97.23
649.002	97.23
649.355	97.16
649.707	97.27
650.059	97.27
650.411	97.3
650.763	97.33
651.115	97.32
651.467	97.28
651.819	97.31
652.171	97.38
652.523	97.3
652.875	97.35
653.227	97.32
653.578	97.3
653.93	97.31
654.282	97.23
654.633	97.36
654.985	97.28
655.337	97.35
655.688	97.36
656.039	97.3
656.391	97.41
656.742	97.37
657.094	97.34
657.445	97.43
657.796	97.13
658.147	97.27
658.498	97.28
658.849	97.2
659.2	97.28
659.551	97.26
659.902	97.36
660.253	97.25
660.604	97.33
660.955	97.32
661.306	97.19
661.656	97.3
662.007	97.25
662.358	97.26
662.708	97.36
663.059	97.24
663.409	97.24
663.76	97.27
664.11	97.27
664.461	97.21
664.811	97.2
665.161	97.08
665.511	97.24
665.862	97.2
666.212	97.2
666.562	97.18
666.912	97.29
667.262	97.21
667.612	97.19
667.962	97.26
668.312	97.26
668.662	97.24
669.011	97.19
669.361	97.16
669.711	97.22
670.06	97.3
670.41	97.33
670.76	97.26
671.109	97.34
671.459	97.16
671.808	97.17
672.157	97.25
672.507	97.06
672.856	97.34
673.205	97.17
673.554	97.35
673.904	97.2
674.253	97.17
674.602	97.28
674.951	97.16
675.3	97.16
675.649	97.28
675.998	97.21
676.346	97.1
676.695	97.19
677.044	97.27
677.393	97.37
677.741	97.21
678.09	97.24
678.438	97.25
678.787	97.31
679.135	97.29
679.484	97.12
679.832	97.18
680.181	97.16
680.529	97.15
680.877	97.25
681.225	97.33
681.573	97.26
681.922	97.16
682.27	97.09
682.618	96.96
682.966	97.28
683.314	97.14
683.661	97.25
684.009	97.23
684.357	97.26
684.705	97.04
685.053	97.18
685.4	97
685.748	97.07
686.095	97.12
686.443	97.03
686.79	97.01
687.138	97.07
687.485	97.17
687.832	97.15
688.18	97.17
688.527	97.03
688.874	96.99
689.221	97.01
689.568	97.11
689.915	96.93
690.262	96.97
690.609	97.01
690.956	96.95
691.303	96.95
691.65	96.95
691.997	96.83
692.344	96.85
692.69	96.88
693.037	96.89
693.383	97.05
693.73	96.81
694.077	96.88
694.423	96.94
694.769	96.8
695.116	97.05
695.462	96.85
695.808	96.87
696.155	96.82
696.501	96.85
696.847	96.85
697.193	96.93
697.539	96.93
697.885	96.65
698.231	96.56
698.577	96.86
698.923	96.82
699.269	96.6
699.614	96.63
699.96	96.57
700.306	96.68
700.651	96.63
700.997	96.34
701.342	96.55
701.688	96.71
702.033	96.56
702.379	96.6
702.724	96.46
703.069	96.59
703.415	96.38
703.76	96.6
704.105	96.34
704.45	96.31
704.795	96.27
705.14	96.21
705.485	96.28
705.83	96.49
706.175	96.44
706.52	96.35
706.865	96.42
707.209	96.34
707.554	96.41
707.899	96.26
708.243	96.26
708.588	96.31
708.932	96.39
709.277	96.05
709.621	96.12
709.966	95.95
710.31	96.26
710.654	96.21
710.998	96.08
711.342	95.98
711.687	96.1
712.031	96.05
712.375	95.99
712.719	96.06
713.063	96.19
713.407	95.96
713.75	96.16
714.094	95.96
714.438	95.81
714.782	95.94
715.125	95.75
715.469	95.92
715.812	95.8
716.156	95.67
716.499	95.77
716.843	95.99
717.186	95.91
717.53	95.7
717.873	95.83
718.216	95.78
718.559	95.59
718.902	95.8
719.246	95.74
719.589	95.61
719.932	95.55
720.275	95.6
720.617	95.47
720.96	95.4
721.303	95.42
721.646	95.46
721.989	95.39
722.331	95.32
722.674	95.59
723.016	95.5
723.359	95.5
723.701	95.41
724.044	95.4
724.386	95.54
724.729	95.27
725.071	95.22
725.413	94.95
725.755	95.13
726.097	95.49
726.439	95.39
726.782	95.19
727.124	95.5
727.465	94.99
727.807	95.14
728.149	95.22
728.491	95.11
728.833	95.22
729.175	95.18
729.516	95.14
729.858	95
730.199	95.16
730.541	95.12
730.882	95.12
731.224	94.89
731.565	94.84
731.906	94.99
732.248	95.05
732.589	94.76
732.93	95.25
733.271	94.97
733.612	94.99
733.953	94.67
734.294	94.88
734.635	94.78
734.976	95.19
735.317	94.77
735.658	94.75
735.999	94.75
736.339	95.07
736.68	94.71
737.021	94.81
737.361	94.69
737.702	94.67
738.042	94.76
738.383	94.89
738.723	95.16
739.063	94.5
739.404	94.47
739.744	94.83
740.084	94.74
740.424	94.87
740.764	94.65
741.104	94.53
741.444	94.64
741.784	94.77
742.124	94.78
742.464	94.58
742.804	94.5
743.143	94.79
743.483	95.01
743.823	94.53
744.162	94.61
744.502	94.73
744.841	94.48
745.181	94.19
745.52	94.36
745.86	94.74
746.199	94.6
746.538	94.35
746.877	94.49
747.216	94.51
747.556	94.3
747.895	94.1
748.234	94.22
748.573	94.35
748.911	94.55
749.25	94.29
749.589	94.7
749.928	94.24
750.267	94.6
750.605	94.39
750.944	94.45
751.283	94.31
751.621	93.93
751.96	93.98
752.298	94.13
752.636	94.22
752.975	94.34
753.313	94.45
753.651	94.02
753.989	94.18
754.327	94.16
754.666	94.21
755.004	94.14
755.342	94.4
755.679	94.16
756.017	94.5
756.355	93.88
756.693	94.54
757.031	94.34
757.368	94.2
757.706	94.03
758.044	94.03
758.381	94.09
758.719	94.46
759.056	94.31
759.394	94.25
759.731	94.1
760.068	94.39
760.405	94.13
760.743	94.33
761.08	94.18
761.417	94.14
761.754	94.34
762.091	94.12
762.428	94.16
762.765	94.27
763.102	94.03
763.438	94.27
763.775	94.38
764.112	93.91
764.449	93.96
764.785	94.05
765.122	93.84
765.458	93.98
765.795	94
766.131	94.01
766.467	94.09
766.804	94.41
767.14	93.8
767.476	93.91
767.812	94.11
768.148	94.08
768.485	93.93
768.821	93.88
769.157	93.78
769.492	93.81
769.828	93.56
770.164	93.99
770.5	93.95
770.836	94.06
771.171	93.65
771.507	94.15
771.842	94.01
772.178	94.37
772.513	93.79
772.849	93.74
773.184	93.89
773.519	94.26
773.855	94.46
774.19	93.87
774.525	93.71
774.86	93.73
775.195	94.02
775.53	93.93
775.865	93.6
776.2	93.65
776.535	94.04
776.87	93.94
777.205	94.03
777.539	94.1
777.874	93.6
778.209	94.1
778.543	93.7
778.878	94.09
779.212	93.74
779.547	93.87
779.881	94.2
780.215	93.85
780.55	93.9
780.884	93.87
781.218	93.71
781.552	93.84
781.886	94.04
782.22	94.43
782.554	93.5
782.888	93.91
783.222	94.22
783.556	94.07
783.889	94.23
784.223	93.69
784.557	93.77
784.89	93.84
785.224	94.01
785.557	93.81
785.891	94.22
786.224	94.18
786.558	94.21
786.891	93.96
787.224	93.77
787.557	94.23
787.891	93.98
788.224	94.48
788.557	93.69
788.89	93.75
789.223	93.38
789.556	93.62
789.888	94.24
790.221	93.25
790.554	93.92
790.887	93.95
791.219	94.01
791.552	93.96
791.884	93.81
792.217	93.79
792.549	93.75
792.882	94.15
793.214	93.7
793.546	93.92
793.879	93.66
794.211	93.62
794.543	93.78
794.875	94.12
795.207	93.83
795.539	93.92
795.871	93.92
796.203	93.72
796.535	93.78
796.867	94.14
797.198	93.71
797.53	93.79
797.862	93.3
798.193	93.28
798.525	94.34
798.856	93.7
799.188	93.89
799.519	93.25
799.85	94.02
800.182	93.79
800.513	94.16
800.844	94.18
801.175	93.67
801.506	94.09
801.837	94.25
802.168	94.16
802.499	93.95
802.83	93.79
803.161	93.79
803.491	94.05
803.822	94.11
804.153	93.88
804.483	93.9
804.814	94.16
805.145	93.98
805.475	93.39
805.805	93.07
806.136	94.07
806.466	93.72
806.796	93.98
807.126	93.4
807.457	94.11
807.787	94.45
808.117	93.79
808.447	93.68
808.777	93.52
809.107	93.55
809.436	93.94
809.766	93.96
810.096	93.9
810.426	94
810.755	94.34
811.085	93.97
811.414	93.43
811.744	94.01
812.073	93.86
812.403	93.54
812.732	93.29
813.061	94.11
813.39	93.68
813.719	93.81
814.049	93.83
814.378	94.11
814.707	93.8
815.036	93.95
815.365	93.98
815.693	93.51
816.022	93.44
