Data from White_reflection_standard_Reflection_00006.txt Node
Date: Mon Feb 06 14:42:24 GMT 2017
User: dcchb
Spectrometer: FLMS00149
Trigger mode: 0
Integration Time (sec): 2.000000E-2
Scans to average: 10
Electric dark correction enabled: true
Nonlinearity correction enabled: false
Boxcar width: 0
XAxis mode: Wavelengths
Number of Pixels in Spectrum: 2048
>>>>>Begin Spectral Data<<<<<
341.393	-104.92
341.776	-104.92
342.16	-104.92
342.543	-79.68
342.927	-1023.23
343.31	-624.29
343.693	-11.2
344.077	220.38
344.46	360.82
344.843	147.06
345.226	349.68
345.61	-57.97
345.993	30.86
346.376	1083.21
346.759	-30.62
347.142	53.38
347.525	112.89
347.908	-286.91
348.291	-192.51
348.674	89.88
349.057	317.34
349.44	92.99
349.823	-52.17
350.206	56.58
350.588	78.48
350.971	83.56
351.354	79.33
351.737	90.96
352.119	91.02
352.502	104.96
352.884	78.47
353.267	84.88
353.65	78.59
354.032	98.52
354.414	135.73
354.797	87.52
355.179	107.48
355.562	85.85
355.944	95.13
356.326	80.31
356.709	88
357.091	95.4
357.473	76.6
357.855	90.3
358.238	95.07
358.62	95.72
359.002	79.45
359.384	62.15
359.766	93.99
360.148	104.1
360.53	85.28
360.912	86.11
361.294	92.7
361.676	83.79
362.057	76.89
362.439	93.13
362.821	79.89
363.203	78.37
363.584	92.59
363.966	81.74
364.348	88.86
364.729	81.69
365.111	94.05
365.493	97.16
365.874	87.09
366.256	81.03
366.637	74.92
367.019	80.11
367.4	81.78
367.781	91.74
368.163	69.91
368.544	93.96
368.925	84.06
369.306	101.97
369.688	80.77
370.069	94.24
370.45	89.44
370.831	84.56
371.212	83.83
371.593	96.13
371.974	82.31
372.355	79.28
372.736	86.88
373.117	94.94
373.498	90.26
373.879	78.85
374.26	86.39
374.641	81.8
375.021	101.33
375.402	91.99
375.783	88.71
376.163	100.04
376.544	95.88
376.925	92.85
377.305	78.51
377.686	84.52
378.066	91.5
378.447	91.7
378.827	84.65
379.208	88.3
379.588	88.62
379.968	93.47
380.349	91.68
380.729	90.18
381.109	88.36
381.489	89.41
381.87	90.16
382.25	97.97
382.63	95.77
383.01	98.06
383.39	89.72
383.77	95.09
384.15	85.82
384.53	83.76
384.91	101.79
385.29	95
385.67	86.05
386.049	89.97
386.429	86.95
386.809	90.21
387.189	94.46
387.568	94.54
387.948	90.87
388.328	98.93
388.707	99.13
389.087	87.94
389.466	91.68
389.846	89.78
390.225	87.46
390.605	87.83
390.984	87.54
391.363	94.61
391.743	96.93
392.122	95.26
392.501	90.86
392.881	87.21
393.26	92.47
393.639	88.49
394.018	92.7
394.397	95.99
394.776	93.99
395.155	92.32
395.534	92.43
395.913	91.33
396.292	88.83
396.671	95.38
397.05	90.11
397.429	93.06
397.808	88.58
398.186	88.8
398.565	93.9
398.944	92.58
399.323	91.24
399.701	89.66
400.08	92.98
400.458	91.98
400.837	94.82
401.215	93.1
401.594	90.37
401.972	92.04
402.351	89.81
402.729	95.97
403.107	90.05
403.486	95
403.864	89.18
404.242	96.84
404.62	96.56
404.999	93.97
405.377	91.02
405.755	93.07
406.133	92.7
406.511	91.55
406.889	94.93
407.267	91.34
407.645	93.79
408.023	94.07
408.401	93.12
408.779	90.41
409.156	94.01
409.534	94.83
409.912	89.83
410.29	90.51
410.667	92.85
411.045	91.49
411.422	91.94
411.8	91.42
412.178	93.91
412.555	93.74
412.933	94.79
413.31	92.52
413.687	90.83
414.065	94.87
414.442	91.25
414.819	91.56
415.197	92.63
415.574	94.15
415.951	92.88
416.328	91.75
416.705	91.32
417.082	92.58
417.46	92.26
417.837	95.62
418.214	94.67
418.591	93.01
418.967	91
419.344	91.6
419.721	93.14
420.098	92.61
420.475	95.51
420.852	92.98
421.228	90.45
421.605	93.05
421.982	93.57
422.358	91.68
422.735	93.26
423.111	93.79
423.488	94.97
423.864	94.03
424.241	91.6
424.617	92.19
424.994	90.99
425.37	92.31
425.746	93.18
426.123	95.62
426.499	92.6
426.875	94.22
427.251	93.21
427.627	93.83
428.003	92.52
428.379	92.33
428.756	93.16
429.132	92.11
429.507	93.05
429.883	92.65
430.259	92.58
430.635	92.66
431.011	94.11
431.387	92.2
431.763	94.33
432.138	94.1
432.514	94.54
432.89	93.52
433.265	92.96
433.641	94.48
434.016	93.05
434.392	92.71
434.767	93.38
435.143	94.1
435.518	93.68
435.894	92.25
436.269	93.66
436.644	93.6
437.02	93.75
437.395	93.98
437.77	93.52
438.145	92.68
438.52	93.61
438.895	92.99
439.271	94.67
439.646	94.33
440.021	93.57
440.395	93.9
440.77	93.93
441.145	93.6
441.52	93.06
441.895	93.35
442.27	93.36
442.645	90.96
443.019	93.32
443.394	93.35
443.769	93.73
444.143	93.65
444.518	92.43
444.892	93.49
445.267	93.33
445.641	92.06
446.016	93.41
446.39	92.62
446.764	93.81
447.139	94.31
447.513	92.67
447.887	92.94
448.262	93.89
448.636	92.97
449.01	92.82
449.384	94.32
449.758	92.63
450.132	92.8
450.506	93.59
450.88	91.83
451.254	92.66
451.628	93
452.002	93.79
452.376	93.76
452.75	94.09
453.123	94.19
453.497	94.51
453.871	94.92
454.244	93.46
454.618	94.36
454.992	94.09
455.365	93.53
455.739	93.15
456.112	92.5
456.486	93.58
456.859	94.24
457.232	92.92
457.606	93.38
457.979	93.78
458.352	93.35
458.725	93
459.099	92.87
459.472	93.5
459.845	93.42
460.218	93.07
460.591	94.26
460.964	94.01
461.337	93.15
461.71	92.94
462.083	93.07
462.456	92.87
462.829	92.95
463.201	93.5
463.574	93.18
463.947	92.84
464.32	92.96
464.692	93.09
465.065	92.95
465.438	92.75
465.81	93.07
466.183	93.74
466.555	92.82
466.928	92.99
467.3	93.14
467.672	92.59
468.045	93.6
468.417	93.46
468.789	94.14
469.161	92.51
469.534	92.42
469.906	93.84
470.278	92.76
470.65	93.67
471.022	92.1
471.394	93.74
471.766	92.87
472.138	94.06
472.51	93.15
472.882	93.19
473.253	93.49
473.625	93.18
473.997	93.23
474.369	93.11
474.74	93.66
475.112	93.81
475.484	93.64
475.855	92.02
476.227	92.73
476.598	93.5
476.97	92.57
477.341	92.93
477.713	92.97
478.084	93.32
478.455	92.9
478.827	92.27
479.198	93.41
479.569	93.71
479.94	92.84
480.311	93.91
480.682	92.41
481.053	93.18
481.424	92.48
481.795	93.62
482.166	93.57
482.537	92.75
482.908	93.55
483.279	93.01
483.65	93.3
484.021	93.58
484.391	93.71
484.762	93.61
485.133	92.76
485.503	93.15
485.874	93.19
486.244	93.29
486.615	93.42
486.985	93.53
487.356	93.64
487.726	93.1
488.097	93.67
488.467	93.79
488.837	93.04
489.207	93.48
489.578	93.65
489.948	93.45
490.318	92.92
490.688	93.49
491.058	93.39
491.428	93.7
491.798	93.47
492.168	93.11
492.538	93.24
492.908	93.52
493.278	93.79
493.648	92.63
494.017	93.62
494.387	93.58
494.757	93.91
495.126	93.33
495.496	93.59
495.866	93.2
496.235	93.56
496.605	93.32
496.974	94
497.344	94.26
497.713	93.61
498.082	93.98
498.452	93.3
498.821	93.35
499.19	94.12
499.559	93.06
499.928	93.49
500.298	93.64
500.667	93.87
501.036	93.88
501.405	92.89
501.774	93.7
502.143	93.6
502.512	93.18
502.88	93.5
503.249	93.3
503.618	93.55
503.987	93.95
504.356	93.5
504.724	93.45
505.093	93.62
505.462	93.48
505.83	93.38
506.199	93.36
506.567	93.41
506.936	93.67
507.304	93.71
507.672	93.58
508.041	93.51
508.409	93.55
508.777	93.24
509.145	93.23
509.514	93.22
509.882	93.31
510.25	93.55
510.618	93.46
510.986	93.52
511.354	93.6
511.722	93.52
512.09	93.5
512.458	93.73
512.826	93.48
513.193	93.41
513.561	93.34
513.929	93.16
514.297	93.44
514.664	93.6
515.032	93.34
515.4	93.77
515.767	93.66
516.135	93.94
516.502	93.22
516.869	93.41
517.237	93.41
517.604	93.46
517.972	93.23
518.339	93.36
518.706	93.57
519.073	93.21
519.44	93.85
519.808	93.44
520.175	93.19
520.542	93.39
520.909	93.56
521.276	93.76
521.643	93.6
522.009	93.76
522.376	93.76
522.743	93.64
523.11	93.82
523.477	93.76
523.843	93.72
524.21	93.66
524.577	93.86
524.943	93.95
525.31	93.84
525.676	93.44
526.043	93.67
526.409	93.69
526.776	94.24
527.142	93.5
527.508	93.54
527.874	93.83
528.241	94.06
528.607	93.9
528.973	93.92
529.339	93.73
529.705	93.96
530.071	93.63
530.437	94.02
530.803	94.08
531.169	93.84
531.535	93.84
531.901	94.21
532.267	94.15
532.632	94.03
532.998	94.27
533.364	94.31
533.73	94.3
534.095	94.25
534.461	94.13
534.826	94.3
535.192	94.01
535.557	94.06
535.923	94.23
536.288	94.29
536.653	94.81
537.019	94.4
537.384	94.87
537.749	94.69
538.114	94.5
538.479	94.66
538.845	94.74
539.21	94.61
539.575	94.91
539.94	94.7
540.305	94.82
540.67	94.72
541.034	94.65
541.399	94.86
541.764	94.75
542.129	94.94
542.494	95.04
542.858	95.05
543.223	94.95
543.587	94.97
543.952	94.95
544.316	95.45
544.681	94.97
545.045	95.27
545.41	95.45
545.774	95.37
546.138	95.24
546.503	95.29
546.867	95.45
547.231	95.47
547.595	95.4
547.959	95.71
548.324	95.4
548.688	95.5
549.052	95.66
549.416	95.55
549.779	95.62
550.143	95.45
550.507	95.96
550.871	95.73
551.235	95.68
551.599	96.03
551.962	95.65
552.326	95.73
552.689	95.94
553.053	95.81
553.417	96.11
553.78	96.03
554.143	95.94
554.507	95.9
554.87	95.84
555.234	96.01
555.597	95.95
555.96	96.07
556.323	96.32
556.686	96.16
557.05	96.27
557.413	96.17
557.776	96.36
558.139	96.36
558.502	96.21
558.865	96.47
559.228	96.41
559.59	96.55
559.953	96.48
560.316	96.56
560.679	96.48
561.041	96.53
561.404	96.58
561.767	96.71
562.129	96.61
562.492	96.72
562.854	96.6
563.217	96.52
563.579	96.81
563.941	96.65
564.304	96.79
564.666	96.94
565.028	96.82
565.39	96.86
565.753	96.85
566.115	96.87
566.477	96.73
566.839	96.92
567.201	96.92
567.563	96.94
567.925	97.02
568.287	96.99
568.648	97.13
569.01	96.92
569.372	97.08
569.734	97.04
570.095	96.9
570.457	96.97
570.819	97.22
571.18	97.07
571.542	97.05
571.903	97.03
572.265	97.21
572.626	97.1
572.987	97.13
573.349	97.11
573.71	97.24
574.071	97.2
574.432	97.03
574.794	97.12
575.155	97.21
575.516	97.1
575.877	97.32
576.238	97.14
576.599	97.15
576.96	97.06
577.32	97.26
577.681	97.38
578.042	97.03
578.403	97.24
578.763	97.31
579.124	97.35
579.485	97.33
579.845	97.41
580.206	97.38
580.566	97.22
580.927	97.27
581.287	97.31
581.648	97.19
582.008	97.2
582.368	97.23
582.728	97.37
583.089	97.2
583.449	97.33
583.809	97.26
584.169	97.36
584.529	97.35
584.889	97.39
585.249	97.3
585.609	97.21
585.969	97.36
586.329	97.24
586.688	97.35
587.048	97.26
587.408	97.17
587.768	97.23
588.127	97.39
588.487	97.29
588.846	97.32
589.206	97.4
589.565	97.25
589.925	97.17
590.284	97.26
590.643	97.31
591.003	97.23
591.362	97.21
591.721	97.47
592.08	97.36
592.44	97.25
592.799	97.26
593.158	97.34
593.517	97.32
593.876	97.28
594.235	97.41
594.593	97.33
594.952	97.38
595.311	97.27
595.67	97.28
596.029	97.29
596.387	97.34
596.746	97.43
597.104	97.35
597.463	97.4
597.822	97.28
598.18	97.33
598.538	97.27
598.897	97.33
599.255	97.27
599.613	97.35
599.972	97.38
600.33	97.27
600.688	97.38
601.046	97.38
601.404	97.37
601.762	97.24
602.12	97.4
602.478	97.29
602.836	97.53
603.194	97.37
603.552	97.38
603.91	97.52
604.268	97.36
604.625	97.3
604.983	97.37
605.341	97.46
605.698	97.29
606.056	97.36
606.413	97.4
606.771	97.33
607.128	97.32
607.485	97.4
607.843	97.4
608.2	97.38
608.557	97.43
608.914	97.29
609.272	97.52
609.629	97.42
609.986	97.33
610.343	97.33
610.7	97.39
611.057	97.5
611.414	97.41
611.771	97.38
612.127	97.26
612.484	97.39
612.841	97.41
613.198	97.49
613.554	97.43
613.911	97.44
614.267	97.55
614.624	97.44
614.98	97.51
615.337	97.43
615.693	97.45
616.05	97.44
616.406	97.49
616.762	97.56
617.118	97.53
617.475	97.44
617.831	97.53
618.187	97.58
618.543	97.54
618.899	97.55
619.255	97.45
619.611	97.43
619.967	97.44
620.323	97.37
620.678	97.46
621.034	97.5
621.39	97.35
621.746	97.45
622.101	97.31
622.457	97.44
622.812	97.42
623.168	97.44
623.523	97.53
623.879	97.38
624.234	97.54
624.589	97.37
624.945	97.49
625.3	97.56
625.655	97.48
626.01	97.49
626.365	97.52
626.72	97.47
627.075	97.62
627.43	97.5
627.785	97.56
628.14	97.46
628.495	97.49
628.85	97.43
629.205	97.5
629.559	97.48
629.914	97.56
630.269	97.5
630.623	97.58
630.978	97.42
631.332	97.42
631.687	97.41
632.041	97.49
632.396	97.54
632.75	97.51
633.104	97.39
633.459	97.4
633.813	97.47
634.167	97.39
634.521	97.36
634.875	97.36
635.229	97.45
635.583	97.39
635.937	97.43
636.291	97.42
636.645	97.47
636.999	97.4
637.352	97.41
637.706	97.28
638.06	97.44
638.413	97.37
638.767	97.37
639.121	97.45
639.474	97.39
639.828	97.42
640.181	97.36
640.534	97.24
640.888	97.35
641.241	97.44
641.594	97.43
641.947	97.41
642.301	97.49
642.654	97.4
643.007	97.37
643.36	97.41
643.713	97.44
644.066	97.43
644.419	97.23
644.771	97.25
645.124	97.33
645.477	97.31
645.83	97.36
646.182	97.31
646.535	97.36
646.888	97.25
647.24	97.34
647.593	97.21
647.945	97.17
648.298	97.23
648.65	97.19
649.002	97.12
649.355	97.13
649.707	97.34
650.059	97.26
650.411	97.38
650.763	97.27
651.115	97.31
651.467	97.26
651.819	97.27
652.171	97.31
652.523	97.21
652.875	97.32
653.227	97.31
653.578	97.28
653.93	97.41
654.282	97.27
654.633	97.35
654.985	97.23
655.337	97.43
655.688	97.42
656.039	97.3
656.391	97.26
656.742	97.32
657.094	97.38
657.445	97.34
657.796	97.2
658.147	97.23
658.498	97.21
658.849	97.21
659.2	97.27
659.551	97.16
659.902	97.31
660.253	97.23
660.604	97.33
660.955	97.18
661.306	97.26
661.656	97.35
662.007	97.27
662.358	97.23
662.708	97.37
663.059	97.4
663.409	97.24
663.76	97.3
664.11	97.26
664.461	97.25
664.811	97.2
665.161	97.07
665.511	97.22
665.862	97.24
666.212	97.29
666.562	97.16
666.912	97.25
667.262	97.21
667.612	97.19
667.962	97.11
668.312	97.22
668.662	97.25
669.011	97.25
669.361	97.26
669.711	97.15
670.06	97.2
670.41	97.21
670.76	97.15
671.109	97.28
671.459	97.19
671.808	97.2
672.157	97.32
672.507	97.1
672.856	97.27
673.205	97.29
673.554	97.33
673.904	97.2
674.253	97.2
674.602	97.24
674.951	97.19
675.3	97.15
675.649	97.37
675.998	97.23
676.346	97.14
676.695	97.22
677.044	97.25
677.393	97.32
677.741	97.25
678.09	97.19
678.438	97.32
678.787	97.31
679.135	97.35
679.484	97.18
679.832	97.18
680.181	97.27
680.529	97.25
680.877	97.21
681.225	97.27
681.573	97.37
681.922	97.21
682.27	96.99
682.618	97.11
682.966	97.2
683.314	97.18
683.661	97.16
684.009	97.15
684.357	97.17
684.705	97.07
685.053	97.21
685.4	97.2
685.748	97.08
686.095	97.06
686.443	97.12
686.79	97.11
687.138	97.02
687.485	97.13
687.832	97.18
688.18	97.27
688.527	97.07
688.874	96.85
689.221	96.88
689.568	96.89
689.915	97.03
690.262	96.89
690.609	96.95
690.956	96.83
691.303	97.01
691.65	96.91
691.997	96.83
692.344	96.79
692.69	96.89
693.037	96.83
693.383	97.03
693.73	96.72
694.077	96.84
694.423	96.79
694.769	96.83
695.116	96.96
695.462	96.84
695.808	96.82
696.155	96.94
696.501	96.81
696.847	96.96
697.193	96.77
697.539	96.81
697.885	96.68
698.231	96.55
698.577	96.63
698.923	96.69
699.269	96.63
699.614	96.67
699.96	96.81
700.306	96.61
700.651	96.55
700.997	96.41
701.342	96.83
701.688	96.54
702.033	96.55
702.379	96.54
702.724	96.46
703.069	96.43
703.415	96.32
703.76	96.45
704.105	96.35
704.45	96.16
704.795	96.21
705.14	96.29
705.485	96.43
705.83	96.38
706.175	96.38
706.52	96.45
706.865	96.39
707.209	96.17
707.554	96.26
707.899	96.26
708.243	96.32
708.588	96.21
708.932	96.16
709.277	95.77
709.621	96.27
709.966	95.94
710.31	96.45
710.654	95.96
710.998	96.21
711.342	96.03
711.687	96.14
712.031	95.8
712.375	95.92
712.719	96.03
713.063	96.13
713.407	96.01
713.75	96.03
714.094	95.9
714.438	95.8
714.782	95.96
715.125	95.91
715.469	96.01
715.812	95.83
716.156	95.64
716.499	95.81
716.843	96.02
717.186	95.78
717.53	95.73
717.873	95.53
718.216	95.63
718.559	95.59
718.902	95.73
719.246	95.67
719.589	95.45
719.932	95.32
720.275	95.53
720.617	95.56
720.96	95.43
721.303	95.51
721.646	95.46
721.989	95.54
722.331	95.44
722.674	95.32
723.016	95.53
723.359	95.4
723.701	95.5
724.044	95.34
724.386	95.34
724.729	95.45
725.071	95.21
725.413	95.24
725.755	95.09
726.097	95.14
726.439	95.2
726.782	94.97
727.124	95.38
727.465	95.26
727.807	95.17
728.149	95.09
728.491	95.17
728.833	95.32
729.175	95.09
729.516	94.94
729.858	95.02
730.199	95.17
730.541	94.9
730.882	94.94
731.224	94.91
731.565	95.06
731.906	94.97
732.248	95.07
732.589	95.01
732.93	95.09
733.271	94.8
733.612	94.89
733.953	94.82
734.294	94.87
734.635	94.52
734.976	95.22
735.317	94.6
735.658	94.69
735.999	94.41
736.339	94.83
736.68	94.73
737.021	94.54
737.361	94.72
737.702	94.77
738.042	94.78
738.383	94.81
738.723	95.05
739.063	94.31
739.404	94.71
739.744	94.94
740.084	94.54
740.424	94.86
740.764	94.91
741.104	94.65
741.444	94.69
741.784	94.64
742.124	95.08
742.464	94.31
742.804	94.45
743.143	94.81
743.483	94.82
743.823	94.52
744.162	94.24
744.502	94.73
744.841	94.52
745.181	94.37
745.52	94.25
745.86	94.58
746.199	94.38
746.538	94.46
746.877	94.33
747.216	94.69
747.556	94.4
747.895	94.38
748.234	94.69
748.573	94.62
748.911	94.34
749.25	94.18
749.589	94.71
749.928	94.19
750.267	94.42
750.605	94.51
750.944	94.47
751.283	94.3
751.621	94.12
751.96	94.24
752.298	94.65
752.636	94.2
752.975	94.05
753.313	94.35
753.651	94.22
753.989	94.25
754.327	94.16
754.666	94.48
755.004	94.15
755.342	94.09
755.679	94.07
756.017	93.8
756.355	93.8
756.693	94.3
757.031	94.03
757.368	94.47
757.706	94.11
758.044	94.02
758.381	94.21
758.719	94.01
759.056	94.2
759.394	94.22
759.731	94.46
760.068	94.49
760.405	94.21
760.743	94.38
761.08	94.41
761.417	93.78
761.754	94.48
762.091	94.04
762.428	94.05
762.765	93.74
763.102	93.99
763.438	93.98
763.775	94.48
764.112	93.94
764.449	93.9
764.785	94.15
765.122	93.76
765.458	94.04
765.795	93.89
766.131	93.98
766.467	94.05
766.804	94.48
767.14	93.85
767.476	94.02
767.812	93.93
768.148	93.99
768.485	94.06
768.821	93.69
769.157	93.98
769.492	93.69
769.828	93.85
770.164	94.28
770.5	93.63
770.836	94.37
771.171	93.88
771.507	94.09
771.842	93.98
772.178	93.64
772.513	93.73
772.849	94.07
773.184	93.97
773.519	94.37
773.855	94.16
774.19	93.87
774.525	93.89
774.86	93.3
775.195	93.71
775.53	93.75
775.865	93.58
776.2	93.87
776.535	93.76
776.87	93.83
777.205	94.13
777.539	93.82
777.874	93.98
778.209	93.77
778.543	93.71
778.878	93.95
779.212	93.83
779.547	94.09
779.881	94.12
780.215	93.86
780.55	93.65
780.884	93.78
781.218	93.8
781.552	93.97
781.886	94.03
782.22	94
782.554	93.83
782.888	93.72
783.222	94.47
783.556	93.98
783.889	94.2
784.223	94
784.557	93.84
784.89	94.2
785.224	94.05
785.557	93.77
785.891	93.73
786.224	94.16
786.558	93.98
786.891	93.49
787.224	94.17
787.557	94.54
787.891	94.3
788.224	94.06
788.557	93.84
788.89	93.9
789.223	93.71
789.556	93.8
789.888	93.92
790.221	93.71
790.554	93.64
790.887	94.14
791.219	93.64
791.552	93.68
791.884	93.99
792.217	94.18
792.549	93.67
792.882	93.96
793.214	93.79
793.546	93.92
793.879	93.85
794.211	93.77
794.543	93.94
794.875	93.9
795.207	93.64
795.539	93.63
795.871	93.78
796.203	93.91
796.535	93.93
796.867	93.95
797.198	93.59
797.53	93.6
797.862	93.57
798.193	93.31
798.525	94.09
798.856	94
799.188	93.86
799.519	93.54
799.85	94.02
800.182	93.44
800.513	94.01
800.844	94.23
801.175	93.65
801.506	94.08
801.837	93.98
802.168	94.39
802.499	94.03
802.83	93.93
803.161	94.09
803.491	93.69
803.822	93.72
804.153	93.94
804.483	93.35
804.814	93.93
805.145	93.63
805.475	93.27
805.805	93.65
806.136	93.55
806.466	93.55
806.796	94.25
807.126	93.4
807.457	93.89
807.787	93.87
808.117	93.55
808.447	93.24
808.777	93.58
809.107	93.42
809.436	93.78
809.766	93.87
810.096	93.82
810.426	93.2
810.755	94.03
811.085	93.96
811.414	93.35
811.744	93.96
812.073	94.1
812.403	93.47
812.732	93.68
813.061	93.98
813.39	93.41
813.719	93.67
814.049	93.8
814.378	94.17
814.707	93.43
815.036	94.13
815.365	93.7
815.693	93.43
816.022	93.57
