Data from 100_FLMS001491_007.txt Node
Date: Thu Apr 12 17:09:44 BST 2018
User: hsy
Spectrometer: FLMS00149
Trigger mode: 0
Integration Time (sec): 1.000000E-2
Scans to average: 10
Electric dark correction enabled: true
Nonlinearity correction enabled: false
Boxcar width: 0
XAxis mode: Wavelengths
Number of Pixels in Spectrum: 2048
>>>>>Begin Spectral Data<<<<<
341.393	-8.84
341.776	-8.84
342.16	-8.84
342.543	-71.89
342.927	-58.33
343.31	-44.32
343.693	-71.66
344.077	-65.34
344.46	-38.45
344.843	-56.07
345.226	-31.44
345.61	-24.89
345.993	-26.69
346.376	7.66
346.759	18.5
347.142	35.68
347.525	12.4
347.908	53.98
348.291	65.51
348.674	83.13
349.057	82
349.44	126.07
349.823	152.74
350.206	168.78
350.588	239.29
350.971	257.14
351.354	258.95
351.737	266.63
352.119	311.83
352.502	293.3
352.884	298.49
353.267	325.39
353.65	329.23
354.032	336.91
354.414	358.61
354.797	346.18
355.179	346.4
355.562	345.05
355.944	366.06
356.326	374.2
356.709	366.29
357.091	381.43
357.473	390.7
357.855	389.79
358.238	370.81
358.62	383.92
359.002	385.05
359.384	383.92
359.766	384.59
360.148	366.52
360.53	373.07
360.912	393.41
361.294	371.04
361.676	381.2
362.057	348.44
362.439	359.96
362.821	371.49
363.203	382.79
363.584	347.76
363.966	379.85
364.348	353.18
364.729	371.49
365.111	389.79
365.493	379.85
365.874	357.02
366.256	369
366.637	358.83
367.019	353.18
367.4	367.87
367.781	362.67
368.163	362
368.544	380.75
368.925	371.26
369.306	370.13
369.688	349.57
370.069	372.62
370.45	361.09
370.831	366.97
371.212	368.78
371.593	359.51
371.974	379.85
372.355	354.31
372.736	376.46
373.117	359.74
373.498	355.89
373.879	369.91
374.26	372.17
374.641	376.23
375.021	369.23
375.402	399.51
375.783	396.8
376.163	381.43
376.544	390.02
376.925	380.07
377.305	394.31
377.686	372.17
378.066	398.83
378.447	378.04
378.827	403.8
379.208	398.61
379.588	403.12
379.968	412.16
380.349	398.61
380.729	403.8
381.109	407.64
381.489	409.45
381.87	416.68
382.25	412.62
382.63	406.74
383.01	426.4
383.39	399.51
383.77	432.95
384.15	415.33
384.53	420.98
384.91	442.67
385.29	431.37
385.67	421.2
386.049	423.46
386.429	450.13
386.809	436.8
387.189	425.5
387.568	447.87
387.948	477.25
388.328	448.32
388.707	453.97
389.087	427.08
389.466	470.69
389.846	442.67
390.225	470.47
390.605	469.79
390.984	489.22
391.363	480.41
391.743	466.17
392.122	470.24
392.501	480.86
392.881	468.66
393.26	473.63
393.639	501.2
394.018	532.39
394.397	495.78
394.776	487.64
395.155	507.08
395.534	512.95
395.913	505.04
396.292	521.09
396.671	524.7
397.05	516.12
397.429	515.89
397.808	526.06
398.186	529.45
398.565	524.93
398.944	516.79
399.323	550.24
399.701	525.83
400.08	572.84
400.458	541.65
400.837	532.61
401.215	555.89
401.594	541.43
401.972	566.06
402.351	560.63
402.729	586.4
403.107	571.93
403.486	571.03
403.864	565.15
404.242	586.62
404.62	589.56
404.999	616.23
405.377	605.15
405.755	612.39
406.133	618.94
406.511	614.19
406.889	636.57
407.267	631.82
407.645	631.14
408.023	654.19
408.401	641.99
408.779	655.1
409.156	655.1
409.534	681.99
409.912	691.48
410.29	705.72
410.667	717.69
411.045	728.54
411.422	735.09
411.8	720.63
412.178	730.57
412.555	763.79
412.933	748.2
413.31	780.29
413.687	783
414.065	783.68
414.442	815.54
414.819	807.41
415.197	796.79
415.574	815.77
415.951	827.97
416.328	846.73
416.705	827.07
417.082	847.18
417.46	853.51
417.837	876.78
418.214	897.12
418.591	871.14
418.967	887.86
419.344	906.39
419.721	915.43
420.098	903.45
420.475	930.57
420.852	948.65
421.228	949.78
421.605	943.9
421.982	950
422.358	951.36
422.735	959.27
423.111	964.69
423.488	996.33
423.864	991.13
424.241	981.19
424.617	1024.13
424.994	1004.01
425.37	1036.78
425.746	1037.91
426.123	1059.6
426.499	1053.96
426.875	1035.65
427.251	1077.01
427.627	1091.92
428.003	1093.5
428.379	1112.26
428.756	1114.07
429.132	1114.97
429.507	1147.51
429.883	1180.05
430.259	1159.49
430.635	1190
431.011	1200.17
431.387	1232.93
431.763	1219.37
432.138	1230.67
432.514	1239.71
432.89	1272.71
433.265	1284.01
433.641	1312.71
434.016	1293.05
434.392	1310.45
434.767	1337.56
435.143	1322.2
435.518	1353.16
435.894	1336.21
436.269	1380.05
436.644	1393.61
437.02	1390.44
437.395	1424.12
437.77	1441.97
438.145	1440.61
438.52	1448.97
438.895	1472.25
439.271	1479.25
439.646	1503.21
440.021	1493.04
440.395	1500.05
440.77	1501.63
441.145	1519.71
441.52	1535.52
441.895	1509.54
442.27	1557.22
442.645	1561.06
443.019	1557.22
443.394	1587.27
443.769	1568.74
444.143	1561.29
444.518	1615.52
444.892	1609.87
445.267	1611.91
445.641	1594.51
446.016	1661.17
446.39	1638.57
446.764	1653.94
447.139	1670.66
447.513	1703.43
447.887	1658.91
448.262	1673.83
448.636	1718.57
449.01	1743.65
449.384	1757.89
449.758	1770.32
450.132	1796.99
450.506	1780.94
450.88	1790.66
451.254	1807.83
451.628	1835.86
452.002	1846.48
452.376	1900.26
452.75	1871.11
453.123	1874.5
453.497	1935.97
453.871	1915.4
454.244	1977.77
454.618	1984.33
454.992	2018.45
455.365	2012.8
455.739	2061.39
456.112	2089.18
456.486	2087.37
456.859	2119.24
457.232	2173.02
457.606	2164.21
457.979	2204.21
458.352	2229.29
458.725	2265
459.099	2286.24
459.472	2265.45
459.845	2346.58
460.218	2342.51
460.591	2403.52
460.964	2432.68
461.337	2449.85
461.71	2503.63
462.083	2537.53
462.456	2555.84
462.829	2563.29
463.201	2599.45
463.574	2588.38
463.947	2612.33
464.32	2648.49
464.692	2695.27
465.065	2691.2
465.438	2746.57
465.81	2771.65
466.183	2806.9
466.555	2871.76
466.928	2882.38
467.3	2868.6
467.672	2918.54
468.045	2997.86
468.417	2999.21
468.789	3001.47
469.161	3053.45
469.534	3110.85
469.906	3139.32
470.278	3170.74
470.65	3212.99
471.022	3307.23
471.394	3331.64
471.766	3364.63
472.138	3404.63
472.51	3453.44
472.882	3536.15
473.253	3558.75
473.625	3610.5
473.997	3698.63
474.369	3701.8
474.74	3726.2
475.112	3826.99
475.484	3880.55
475.855	3970.04
476.227	4006.19
476.598	4124.84
476.97	4154.89
477.341	4274.44
477.713	4273.53
478.084	4357.6
478.455	4497.48
478.827	4497.71
479.198	4630.81
479.569	4697.02
479.94	4812.95
480.311	4889.79
480.682	4969.78
481.053	5114.41
481.424	5167.52
481.795	5253.62
482.166	5311.02
482.537	5434.41
482.908	5508.3
483.279	5604.12
483.65	5770.22
484.021	5909.87
484.391	6027.38
484.762	6030.55
485.133	6146.93
485.503	6281.84
485.874	6506.24
486.244	6554.83
486.615	6708.5
486.985	6812.22
487.356	6998.21
487.726	7083.18
488.097	7323.62
488.467	7396.16
488.837	7612.88
489.207	7723.38
489.578	7861.46
489.948	8094.45
490.318	8253.09
490.688	8298.51
491.058	8517.71
491.428	8743.7
491.798	8812.62
492.168	9118.38
492.538	9234.53
492.908	9456.67
493.278	9628.19
493.648	9753.16
494.017	9994.29
494.387	10135.75
494.757	10377.33
495.126	10616.87
495.496	10766.47
495.866	10949.97
496.235	11187.47
496.605	11334.36
496.974	11576.84
497.344	11784.97
497.713	12010.96
498.082	12204.4
498.452	12468.12
498.821	12703.59
499.19	12876.02
499.559	13111.04
499.928	13351.03
500.298	13586.73
500.667	13798.7
501.036	13946.95
501.405	14251.12
501.774	14457.44
502.143	14815.4
502.512	14985.57
502.88	15421.26
503.249	15451.77
503.618	15641.14
503.987	15960.46
504.356	16164.52
504.724	16498.07
505.093	16759.98
505.462	17016.7
505.83	17139.18
506.199	17492.39
506.567	17891.93
506.936	17899.61
507.304	18384.35
507.672	18675.64
508.041	18808.06
508.409	19170.99
508.777	19410.53
509.145	19826.34
509.514	19817.08
509.882	20203.73
510.25	20266.56
510.618	20731.4
510.986	20833.77
511.354	21187.44
511.722	21593.53
512.09	21882.56
512.458	21809.34
512.826	22297.46
513.193	22396.9
513.561	22603.22
513.929	22957.11
514.297	23390.54
514.664	23540.6
515.032	23812.23
515.4	23964.54
515.767	24266.68
516.135	24552.77
516.502	24498.76
516.869	24997.05
517.237	25246.54
517.604	25190.27
517.972	25789.35
518.339	25953.41
518.706	26172.16
519.073	26429.33
519.44	26636.56
519.808	26997.23
520.175	27157.22
520.542	27466.59
520.909	27725.8
521.276	27970.08
521.643	28312.45
522.009	28499.56
522.376	28780.23
522.743	28962.6
523.11	29336.83
523.477	29842.58
523.843	29876.25
524.21	30353.52
524.577	30565.27
524.943	30812.95
525.31	30973.85
525.676	31457.45
526.043	31664.45
526.409	31879.13
526.776	32290.65
527.142	32538.1
527.508	32782.84
527.874	32983.51
528.241	33278.19
528.607	33570.61
528.973	33811.29
529.339	33824.17
529.705	34353.42
530.071	34580.53
530.437	34841.99
530.803	35118.6
531.169	35161.99
531.535	35337.8
531.901	35573.73
532.267	35818.69
532.632	35977.1
532.998	36361.05
533.364	36456.87
533.73	36493.25
534.095	37122.39
534.461	37050.52
534.826	37273.12
535.192	37324.41
535.557	37656.83
535.923	37768.24
536.288	37991.29
536.653	38209.36
537.019	38238.97
537.384	38320.09
537.749	38540.65
538.114	38698.39
538.479	38749.01
538.845	38967.31
539.21	39017.25
539.575	39119.17
539.94	39243.46
540.305	39507.86
540.67	39670.79
541.034	39737.46
541.399	39788.08
541.764	40000.95
542.129	40161.63
542.494	40217.67
542.858	40380.83
543.223	40389.64
543.587	40711.67
543.952	40605.01
544.316	40852.23
544.681	40670.99
545.045	41279.34
545.41	41406.34
545.774	41281.82
546.138	41321.37
546.503	41703.06
546.867	41737.41
547.231	42157.06
547.595	42215.13
547.959	42362.47
548.324	42483.83
548.688	42473.43
549.052	42737.61
549.416	42719.53
549.779	42773.08
550.143	42901.44
550.507	43243.13
550.871	43296.46
551.235	43322.67
551.599	43766.28
551.962	43851.7
552.326	43995.65
552.689	44082.65
553.053	43934.86
553.417	44133.27
553.78	44688.06
554.143	44747.95
554.507	44959.69
554.87	45054.83
555.234	45439.91
555.597	45236.97
555.96	45552.45
556.323	45755.83
556.686	45766.45
557.05	46095.26
557.413	46194.01
557.776	46278.3
558.139	46597.62
558.502	46688.46
558.865	46757.39
559.228	47136.13
559.59	47195.11
559.953	47302.23
560.316	47829.45
560.679	47779.73
561.041	48143.56
561.404	48166.84
561.767	48606.6
562.129	48445.03
562.492	48954.62
562.854	48799.59
563.217	49007.72
563.579	49173.82
563.941	49475.06
564.304	49757.53
564.666	49968.38
565.028	49969.96
565.39	50057.41
565.753	50397.74
566.115	50427.12
566.477	50703.5
566.839	50745.53
567.201	51119.08
567.563	51065.07
567.925	51249.7
568.287	51421.67
568.648	51378.96
569.01	51699.4
569.372	51959.74
569.734	52046.06
570.095	52208.54
570.457	52378.48
570.819	52420.51
571.18	52412.38
571.542	52684.46
571.903	52642.2
572.265	52971.01
572.626	52994.51
572.987	53050.55
573.349	53269.98
573.71	53402.64
574.071	53507.72
574.432	53608.96
574.794	53865.22
575.155	53803.53
575.516	53794.94
575.877	53960.59
576.238	53955.62
576.599	54052.79
576.96	54081.04
577.32	54161.71
577.681	54328.71
578.042	54447.35
578.403	54413
578.763	54464.53
579.124	54500.91
579.485	54720.57
579.845	54758.76
580.206	54736.84
580.566	54730.96
580.927	54781.36
581.287	54919.66
581.648	54830.85
582.008	54991.07
582.368	54881.47
582.728	55046.66
583.089	54942.71
583.449	54962.59
583.809	55002.14
584.169	55160.1
584.529	55058.41
584.889	55240.1
585.249	55040.11
585.609	54952.65
585.969	55177.28
586.329	55033.78
586.688	55205.75
587.048	55130.27
587.408	55128.01
587.768	55072.65
588.127	55067.68
588.487	55076.26
588.846	55350.61
589.206	55034
589.565	55010.28
589.925	55266.09
590.284	55153.32
590.643	55160.56
591.003	55095.7
591.362	55295.24
591.721	55239.65
592.08	55162.59
592.44	55365.97
592.799	55213.89
593.158	55283.49
593.517	55147.67
593.876	55285.52
594.235	55269.7
594.593	55252.08
594.952	55324.39
595.311	55307.44
595.67	55329.14
596.029	55434.9
596.387	55461.56
596.746	55523.26
597.104	55349.93
597.463	55403.49
597.822	55541.79
598.18	55407.1
598.538	55419.98
598.897	55626.31
599.255	55457.27
599.613	55750.14
599.972	55549.47
600.33	55655.01
600.688	55684.61
601.046	55683.48
601.404	55841.89
601.762	55766.64
602.12	55766.64
602.478	55894.77
602.836	55915.11
603.194	55754.44
603.552	55829.92
603.91	55821.33
604.268	55927.31
604.625	55972.29
604.983	56026.75
605.341	55921.67
605.698	56112.17
606.056	56290.92
606.413	56113.75
606.771	56330.47
607.128	56219.74
607.485	56169.79
607.843	56298.83
608.2	56396.23
608.557	56516.23
608.914	56389.9
609.272	56523.23
609.629	56610.01
609.986	56636.9
610.343	56607.52
610.7	56882.09
611.057	56805.48
611.414	56705.37
611.771	56858.14
612.127	56937.23
612.484	56945.59
612.841	57004.57
613.198	56838.25
613.554	56970.68
613.911	57086.38
614.267	57159.37
614.624	57109.2
614.98	57204.34
615.337	57351.46
615.693	57329.31
616.05	57330.44
616.406	57499.02
616.762	57412.7
617.118	57479.36
617.475	57446.14
617.831	57551.45
618.187	57494.96
618.543	57641.17
618.899	57742.41
619.255	57714.61
619.611	57611.79
619.967	57787.83
620.323	57867.83
620.678	57869.41
621.034	57799.81
621.39	57778.79
621.746	57816.08
622.101	58057.2
622.457	57888.17
622.812	58008.62
623.168	58088.61
623.523	58028.05
623.879	58193.92
624.234	58028.73
624.589	58095.62
624.945	58114.15
625.3	58189.4
625.655	58197.54
626.01	58087.94
626.365	58157.09
626.72	58094.72
627.075	58137.43
627.43	58177.65
627.785	58079.8
628.14	58131.1
628.495	58199.8
628.85	58282.28
629.205	58139.23
629.559	58221.49
629.914	58197.31
630.269	58111.66
630.623	58003.64
630.978	57981.72
631.332	58131.32
631.687	58140.14
632.041	58065.79
632.396	58017.43
632.75	58043.64
633.104	58058.56
633.459	57989.86
633.813	57923.19
634.167	57970.42
634.521	57953.7
634.875	57967.26
635.229	57881.84
635.583	57845.46
635.937	57820.15
636.291	57807.49
636.645	57784.44
636.999	57680.94
637.352	57777.66
637.706	57601.85
638.06	57712.13
638.413	57631.68
638.767	57585.12
639.121	57617.89
639.474	57428.74
639.828	57518.23
640.181	57473.04
640.534	57442.98
640.888	57396.2
641.241	57297.22
641.594	57328.63
641.947	57396.2
642.301	57334.74
642.654	57341.74
643.007	57220.84
643.36	57320.95
643.713	57228.75
644.066	57366.6
644.419	57180.62
644.771	56966.84
645.124	56678.48
645.477	56611.14
645.83	56509.9
646.182	56549.22
646.535	56451.59
646.888	56515.55
647.24	56373.86
647.593	56582.66
647.945	56409.34
648.298	56323.46
648.65	56247.76
649.002	56112.62
649.355	56121.21
649.707	56074.66
650.059	56017.71
650.411	56386.96
650.763	56501.31
651.115	56829.66
651.467	56746.28
651.819	56729.33
652.171	56643.45
652.523	56585.15
652.875	56655.66
653.227	56452.5
653.578	56656.79
653.93	56611.14
654.282	56413.18
654.633	56474.42
654.985	56497.24
655.337	56451.14
655.688	56421.77
656.039	56548.09
656.391	56164.14
656.742	56315.33
657.094	56242.56
657.445	56324.59
657.796	56291.15
658.147	56198.04
658.498	56251.37
658.849	56303.58
659.2	56231.49
659.551	56162.56
659.902	56291.15
660.253	56136.8
660.604	56254.54
660.955	56065.84
661.306	56238.49
661.656	56117.82
662.007	56057.48
662.358	56158.5
662.708	56091.38
663.059	56080.08
663.409	55856.58
663.76	56057.71
664.11	56083.69
664.461	56079.4
664.811	56029.46
665.161	56027.2
665.511	55916.69
665.862	55979.52
666.212	56006.41
666.562	56021.1
666.912	55967.99
667.262	55847.09
667.612	55903.59
667.962	55949.24
668.312	55818.62
668.662	55938.39
669.011	55965.28
669.361	55871.05
669.711	55920.31
670.06	55873.08
670.41	55851.61
670.76	55757.83
671.109	55879.41
671.459	55819.52
671.808	55859.07
672.157	55834.21
672.507	55653.2
672.856	55673.31
673.205	55716.7
673.554	55789.24
673.904	55670.6
674.253	55944.49
674.602	55686.64
674.951	55427.21
675.3	55232.19
675.649	55779.3
675.998	55775
676.346	55778.62
676.695	55755.79
677.044	55605.97
677.393	55642.58
677.741	55681.45
678.09	55611.84
678.438	55582.24
678.787	55600.09
679.135	55648.9
679.484	55479.87
679.832	55608.68
680.181	55461.79
680.529	55520.55
680.877	55402.13
681.225	55374.11
681.573	55611.39
681.922	55404.39
682.27	55350.61
682.618	55321
682.966	55311.29
683.314	55269.25
683.661	55253.66
684.009	55174.79
684.357	55096.15
684.705	55054.57
685.053	55045.53
685.4	54946.78
685.748	54926.21
686.095	54961.69
686.443	54833.56
686.79	54882.37
687.138	54906.55
687.485	54878.75
687.832	54743.17
688.18	54747.23
688.527	54667.69
688.874	54602.15
689.221	54655.94
689.568	54528.03
689.915	54429.95
690.262	54463.62
690.609	54375.72
690.956	54317.41
691.303	54395.6
691.65	54161.94
691.997	54204.87
692.344	54016.18
692.69	53998.78
693.037	53976.41
693.383	53733.93
693.73	53891.44
694.077	53789.74
694.423	53766.92
694.769	53646.7
695.116	53662.52
695.462	53527.83
695.808	53480.6
696.155	53512.01
696.501	53311.79
696.847	53353.37
697.193	53152.7
697.539	53265.24
697.885	53045.36
698.231	53045.13
698.577	52989.99
698.923	52958.58
699.269	52625.25
699.614	52628.42
699.96	52621.86
700.306	52627.51
700.651	52534.18
700.997	52435.2
701.342	52452.83
701.688	52279.95
702.033	52231.59
702.379	52216
702.724	52003.12
703.069	52117.7
703.415	51754.09
703.76	51832.96
704.105	51821.21
704.45	51749.12
704.795	51612.85
705.14	51389.58
705.485	51312.97
705.83	51183.94
706.175	51354.33
706.52	51224.61
706.865	51101.23
707.209	51073.66
707.554	50939.42
707.899	51061.45
708.243	50728.13
708.588	50691.75
708.932	50574.46
709.277	50630.05
709.621	50435.26
709.966	50341.47
710.31	50425.31
710.654	50113.68
710.998	50178.77
711.342	50161.82
711.687	49981.71
712.031	50013.8
712.375	49717.76
712.719	49761.15
713.063	49802.73
713.407	49901.71
713.75	49706.91
714.094	49605.45
714.438	49546.92
714.782	49356.64
715.125	49320.48
715.469	49473.25
715.812	49126.36
716.156	49122.97
716.499	49105.57
716.843	49306.47
717.186	48872.81
717.53	49057.21
717.873	49113.03
718.216	48847.95
718.559	48805.24
718.902	48534.51
719.246	48639.82
719.589	48416.1
719.932	48301.53
720.275	48391.69
720.617	48351.02
720.96	48229.44
721.303	48300.4
721.646	48273.96
721.989	47939.28
722.331	47999.39
722.674	48008.65
723.016	47966.85
723.359	47767.3
723.701	47809.56
724.044	47591.04
724.386	47497.48
724.729	47659.74
725.071	47622.45
725.413	47670.81
725.755	47590.36
726.097	47292.29
726.439	47323.25
726.782	47216.81
727.124	47278.95
727.465	47185.17
727.807	46937.27
728.149	47106.76
728.491	46923.03
728.833	46986.53
729.175	46909.02
729.516	46798.52
729.858	46673.32
730.199	46789.02
730.541	46722.13
730.882	46567.33
731.224	46678.52
731.565	46427.23
731.906	46431.97
732.248	46383.84
732.589	46241.92
732.93	46255.48
733.271	46231.52
733.612	46119.44
733.953	46258.87
734.294	46116.27
734.635	46007.35
734.976	46236.04
735.317	45869.5
735.658	45782.95
735.999	45716.96
736.339	45777.98
736.68	45777.75
737.021	45608.26
737.361	45588.15
737.702	45779.56
738.042	45585.89
738.383	45709.96
738.723	45640.81
739.063	45505.22
739.404	45517.42
739.744	45444.88
740.084	45238.78
740.424	45391.77
740.764	45213.92
741.104	45404.2
741.444	45107.94
741.784	44988.39
742.124	45166.02
742.464	45004.44
742.804	44997.43
743.143	44784.33
743.483	45023.42
743.823	44730.1
744.162	44737.78
744.502	44855.74
744.841	44635.41
745.181	44676.54
745.52	44504.11
745.86	44567.39
746.199	44415.3
746.538	44467.05
746.877	44515.64
747.216	44340.05
747.556	44231.58
747.895	44347.96
748.234	44258.92
748.573	44179.83
748.911	43981.41
749.25	43989.1
749.589	43788.88
749.928	43895.54
750.267	43895.99
750.605	43680.18
750.944	43683.12
751.283	43600.18
751.621	43651.48
751.96	43420.07
752.298	43431.6
752.636	43408.55
752.975	43209.01
753.313	43048.78
753.651	43263.69
753.989	42982.57
754.327	43100.31
754.666	42799.3
755.004	42764.27
