Data from 100_FLMS001491_006.txt Node
Date: Thu Apr 12 17:09:42 BST 2018
User: hsy
Spectrometer: FLMS00149
Trigger mode: 0
Integration Time (sec): 1.000000E-2
Scans to average: 10
Electric dark correction enabled: true
Nonlinearity correction enabled: false
Boxcar width: 0
XAxis mode: Wavelengths
Number of Pixels in Spectrum: 2048
>>>>>Begin Spectral Data<<<<<
341.393	4.79
341.776	4.79
342.16	4.79
342.543	-65.27
342.927	-60.75
343.31	-57.58
343.693	-65.49
344.077	-77.24
344.46	-72.72
344.843	-57.36
345.226	-37.92
345.61	-46.28
345.993	-18.04
346.376	-18.04
346.759	28.52
347.142	51.79
347.525	40.49
347.908	58.12
348.291	79.14
348.674	72.13
349.057	120.49
349.44	136.54
349.823	157.1
350.206	175.63
350.588	229.19
350.971	268.96
351.354	268.74
351.737	291.56
352.119	289.98
352.502	291.79
352.884	322.07
353.267	337.21
353.65	344.89
354.032	338.79
354.414	335.85
354.797	350.77
355.179	360.03
355.562	358.68
355.944	393.48
356.326	379.47
356.709	394.83
357.091	374.27
357.473	372.91
357.855	398.22
358.238	385.57
358.62	384.67
359.002	367.94
359.384	407.04
359.766	370.2
360.148	388.73
360.53	372.69
360.912	403.2
361.294	379.02
361.676	373.59
362.057	374.5
362.439	379.24
362.821	384.67
363.203	394.61
363.584	385.12
363.966	389.41
364.348	377.66
364.729	349.86
365.111	359.81
365.493	379.02
365.874	373.59
366.256	376.76
366.637	387.83
367.019	366.59
367.4	372.01
367.781	375.4
368.163	386.92
368.544	374.27
368.925	370.2
369.306	372.46
369.688	370.88
370.069	363.87
370.45	372.69
370.831	388.05
371.212	377.21
371.593	373.59
371.974	368.85
372.355	356.42
372.736	370.88
373.117	380.6
373.498	370.88
373.879	377.89
374.26	366.36
374.641	369.52
375.021	386.7
375.402	379.02
375.783	412.91
376.163	394.38
376.544	399.13
376.925	394.61
377.305	379.02
377.686	392.8
378.066	398.45
378.447	404.1
378.827	398
379.208	405.46
379.588	392.57
379.968	399.13
380.349	396.19
380.729	410.43
381.109	420.37
381.489	403.65
381.87	432.57
382.25	420.6
382.63	425.12
383.01	426.7
383.39	440.48
383.77	425.79
384.15	442.06
384.53	420.37
384.91	444.1
385.29	423.31
385.67	439.8
386.049	445.23
386.429	441.84
386.809	450.43
387.189	456.75
387.568	447.26
387.948	448.17
388.328	450.88
388.707	473.02
389.087	464.44
389.466	447.94
389.846	451.33
390.225	466.92
390.605	487.49
390.984	479.35
391.363	488.62
391.743	501.72
392.122	473.02
392.501	495.85
392.881	521.84
393.26	520.48
393.639	494.72
394.018	506.7
394.397	522.74
394.776	518.9
395.155	522.74
395.534	515.96
395.913	512.12
396.292	519.35
396.671	522.06
397.05	511.67
397.429	532.46
397.808	543.98
398.186	543.3
398.565	552.12
398.944	555.28
399.323	537.43
399.701	543.3
400.08	559.35
400.458	578.11
400.837	555.96
401.215	567.94
401.594	573.59
401.972	594.15
402.351	584.21
402.729	587.15
403.107	582.4
403.486	597.77
403.864	616.98
404.242	607.48
404.62	609.52
404.999	628.5
405.377	635.51
405.755	599.8
406.133	620.37
406.511	616.52
406.889	675.5
407.267	665.34
407.645	655.39
408.023	654.71
408.401	678.89
408.779	685.22
409.156	673.02
409.534	687.93
409.912	695.17
410.29	727.03
410.667	732.23
411.045	737.65
411.422	729.06
411.8	749.85
412.178	770.19
412.555	771.32
412.933	787.82
413.31	798.44
413.687	815.84
414.065	801.15
414.442	823.07
414.819	824.43
415.197	840.47
415.574	831.88
415.951	829.85
416.328	874.14
416.705	847.03
417.082	883.18
417.46	877.99
417.837	891.77
418.214	908.04
418.591	910.53
418.967	906.69
419.344	924.76
419.721	934.93
420.098	939.23
420.475	946.91
420.852	938.55
421.228	959.11
421.605	966.12
421.982	972.9
422.358	997.3
422.735	1002.73
423.111	986.23
423.488	1018.77
423.864	1011.77
424.241	1019.22
424.617	1040.24
424.994	1041.14
425.37	1060.35
425.746	1066.46
426.123	1084.76
426.499	1084.76
426.875	1113.23
427.251	1130.41
427.627	1115.49
428.003	1136.74
428.379	1127.24
428.756	1138.09
429.132	1131.31
429.507	1182.84
429.883	1179.45
430.259	1209.05
430.635	1203.4
431.011	1216.28
431.387	1250.4
431.763	1251.76
432.138	1269.61
432.514	1269.16
432.89	1291.99
433.265	1320.69
433.641	1300.8
434.016	1319.78
434.392	1344.87
434.767	1410.63
435.143	1353.91
435.518	1386.67
435.894	1410.17
436.269	1419.21
436.644	1456.28
437.02	1454.47
437.395	1466.22
437.77	1472.55
438.145	1475.03
438.52	1501.47
438.895	1481.81
439.271	1498.99
439.646	1536.5
440.021	1567.91
440.395	1560.68
440.77	1527.01
441.145	1576.5
441.52	1599.1
441.895	1581.92
442.27	1600.23
442.645	1592.54
443.019	1604.07
443.394	1637.29
443.769	1638.19
444.143	1645.2
444.518	1654.91
444.892	1675.48
445.267	1653.33
445.641	1709.38
446.016	1694.01
446.39	1722.71
446.764	1726.1
447.139	1723.61
447.513	1718.87
447.887	1722.26
448.262	1738.08
448.636	1786.89
449.01	1790.73
449.384	1816.04
449.758	1816.49
450.132	1817.62
450.506	1850.16
450.88	1832.08
451.254	1839.99
451.628	1879.77
452.002	1903.27
452.376	1905.53
452.75	1912.31
453.123	1946.88
453.497	1971.97
453.871	1978.07
454.244	2044.73
454.618	2034.57
454.992	2078.18
455.365	2089.7
455.739	2161.57
456.112	2122.7
456.486	2175.35
456.859	2210.38
457.232	2243.37
457.606	2226.65
457.979	2263.26
458.352	2306.2
458.725	2352.75
459.099	2357.72
459.472	2417.83
459.845	2447.21
460.218	2441.33
460.591	2459.64
460.964	2495.34
461.337	2553.87
461.71	2617.83
462.083	2614.44
462.456	2624.38
462.829	2598.62
463.201	2667.32
463.574	2689.01
463.947	2724.04
464.32	2778.05
464.692	2804.71
465.065	2812.17
465.438	2822.57
465.81	2903.69
466.183	2887.2
466.555	2944.6
466.928	3019.62
467.3	3013.75
467.672	3037.25
468.045	3095.55
468.417	3109.57
468.789	3125.16
469.161	3191.14
469.534	3228.88
469.906	3258.71
470.278	3272.05
470.65	3368.09
471.022	3411.25
471.394	3435.88
471.766	3460.29
472.138	3531.93
472.51	3603.56
472.882	3686.73
473.253	3714.75
473.625	3719.04
473.997	3832.71
474.369	3850.34
474.74	3877.91
475.112	3989.77
475.484	4016.21
475.855	4071.8
476.227	4184.79
476.598	4278.8
476.97	4281.29
477.341	4442.64
477.713	4438.34
478.084	4509.53
478.455	4647.15
478.827	4648.06
479.198	4811.44
479.569	4864.32
479.94	4980.25
480.311	5069.29
480.682	5199.91
481.053	5320.58
481.424	5373.69
481.795	5447.36
482.166	5601.7
482.537	5695.71
482.908	5827.91
483.279	5899.32
483.65	6075.81
484.021	6196.94
484.391	6280.78
484.762	6323.49
485.133	6434.9
485.503	6567.33
485.874	6758.28
486.244	6850.94
486.615	7045.05
486.985	7176.8
487.356	7332.28
487.726	7410.24
488.097	7634.19
488.467	7727.97
488.837	7965.71
489.207	8120.96
489.578	8249.54
489.948	8458.8
490.318	8553.04
490.688	8718.23
491.058	8913.25
491.428	9170.2
491.798	9300.14
492.168	9570.19
492.538	9706.91
492.908	9871.42
493.278	10082.72
493.648	10244.74
494.017	10507.34
494.387	10705.07
494.757	10827.33
495.126	11115.23
495.496	11282.91
495.866	11519.29
496.235	11684.71
496.605	11950.24
496.974	12174.19
497.344	12429.09
497.713	12566.49
498.082	12793.38
498.452	13017.55
498.821	13302.29
499.19	13517.2
499.559	13792.45
499.928	14005.78
500.298	14220.46
500.667	14468.14
501.036	14647.34
501.405	14947.9
501.774	15201.45
502.143	15448.22
502.512	15719.86
502.88	16010.02
503.249	16166.85
503.618	16535.88
503.987	16555.54
504.356	17005.7
504.724	17306.93
505.093	17482.07
505.462	17736.07
505.83	18025.11
506.199	18293.35
506.567	18669.38
506.936	18773.33
507.304	19239.99
507.672	19422.58
508.041	19626.42
508.409	19955.22
508.777	20348.43
509.145	20583.68
509.514	20798.82
509.882	21091.24
510.25	21264.12
510.618	21566.93
510.986	21804.21
511.354	22044.66
511.722	22439.45
512.09	22686
512.458	22849.61
512.826	23264.97
513.193	23487.33
513.561	23633.32
513.929	23947.89
514.297	24337.03
514.664	24606.85
515.032	24838.03
515.4	25081.64
515.767	25322.09
516.135	25659.25
516.502	25497.45
516.869	26139.24
517.237	26381.27
517.604	26301.5
517.972	26820.81
518.339	27091.53
518.706	27338.31
519.073	27455.82
519.44	27774.68
519.808	28118.4
520.175	28246.08
520.542	28656.01
520.909	28964.03
521.276	29098.94
521.643	29513.39
522.009	29739.37
522.376	29959.93
522.743	30322.41
523.11	30582.06
523.477	31020.47
523.843	31244.64
524.21	31483.96
524.577	31989.26
524.943	32065.19
525.31	32201.46
525.676	32788.78
526.043	33081.21
526.409	33215.67
526.776	33592.38
527.142	33833.73
527.508	34104.23
527.874	34317.78
528.241	34592.81
528.607	34759.81
528.973	35281.83
529.339	35106.92
529.705	35760.91
530.071	36044.07
530.437	36115.25
530.803	36418.52
531.169	36586.43
531.535	36838.17
531.901	36956.13
532.267	37137.37
532.632	37371.94
532.998	37674.76
533.364	37946.84
533.73	38074.07
534.095	38526.04
534.461	38547.28
534.826	38640.83
535.192	38835.63
535.557	39155.62
535.923	39238.78
536.288	39306.81
536.653	39672.9
537.019	39611.2
537.384	39809.39
537.749	40045.54
538.114	40188.14
538.479	40090.29
538.845	40366.89
539.21	40392.65
539.575	40616.6
539.94	40852.53
540.305	40915.12
540.67	41070.15
541.034	41273.99
541.399	41315.57
541.764	41485.73
542.129	41644.82
542.494	41812.95
542.858	42026.06
543.223	41988.54
543.587	42175.2
543.952	42280.06
544.316	42537.45
544.681	42424.92
545.045	42792.14
545.41	42997.33
545.774	42925.24
546.138	43077.1
546.503	43153.03
546.867	43275.29
547.231	43583.76
547.595	43632.57
547.959	43889.74
548.324	43973.58
548.688	44090.86
549.052	44370.63
549.416	44239.33
549.779	44428.93
550.143	44583.5
550.507	44815.36
550.871	44868.24
551.235	44999.31
551.599	45294.9
551.962	45335.35
552.326	45569.24
552.689	45782.12
553.053	45470.03
553.417	45863.47
553.78	46388.88
554.143	46383.68
554.507	46442.89
554.87	46691.92
555.234	46944.34
555.597	46716.1
555.96	46912.48
556.323	47231.57
556.686	47304.11
557.05	47611.45
557.413	47613.71
557.776	47747.04
558.139	48019.12
558.502	48150.87
558.865	48126.69
559.228	48576.84
559.59	48714.24
559.953	48734.35
560.316	49163.5
560.679	49172.99
561.041	49476.26
561.404	49632.64
561.767	49930.71
562.129	49842.12
562.492	50072.4
562.854	50280.53
563.217	50344.71
563.579	50602.33
563.941	50729.56
564.304	50926.84
564.666	51172.93
565.028	51163.67
565.39	51435.75
565.753	51698.12
566.115	51717.1
566.477	51840.71
566.839	51933.59
567.201	52292.45
567.563	52227.6
567.925	52538.1
568.287	52589.39
568.648	52640.92
569.01	52854.47
569.372	53146.22
569.734	53018.08
570.095	53284.74
570.457	53437.28
570.819	53530.84
571.18	53507.79
571.542	53819.42
571.903	53799.53
572.265	54015.35
572.626	54195.45
572.987	54189.58
573.349	54356.58
573.71	54454.2
574.071	54587.31
574.432	54706.4
574.794	54905.27
575.155	54835.66
575.516	54820.75
575.877	55020.29
576.238	55035.43
576.599	55151.81
576.96	55192.26
577.32	55247.4
577.681	55317.23
578.042	55533.05
578.403	55438.58
578.763	55450.11
579.124	55589.32
579.485	55692.36
579.845	55810.33
580.206	55690.33
580.566	55740.95
580.927	55790.21
581.287	55843.09
581.648	55862.3
582.008	55985.46
582.368	55938.01
582.728	55984.11
583.089	55950.89
583.449	56044.67
583.809	56122.63
584.169	56149.07
584.529	55967.16
584.889	56189.98
585.249	56008.06
585.609	55961.96
585.969	56044.22
586.329	55982.3
586.688	56054.61
587.048	56080.6
587.408	56063.43
587.768	56062.3
588.127	56179.58
588.487	56127.61
588.846	56288.51
589.206	56045.57
589.565	56062.98
589.925	56250.77
590.284	56102.07
590.643	56184.55
591.003	56177.32
591.362	56332.12
591.721	56161.05
592.08	56202.63
592.44	56318.79
592.799	56285.12
593.158	56216.87
593.517	56185.46
593.876	56332.8
594.235	56284.66
594.593	56288.73
594.952	56289.86
595.311	56279.47
595.67	56352.91
596.029	56463.19
596.387	56466.35
596.746	56516.75
597.104	56356.3
597.463	56355.62
597.822	56516.75
598.18	56404.89
598.538	56377.32
598.897	56602.62
599.255	56461.83
599.613	56723.52
599.972	56531.44
600.33	56646.01
600.688	56506.81
601.046	56634.71
601.404	56795.39
601.762	56752.22
602.12	56823.86
602.478	56796.52
602.836	56862.28
603.194	56723.75
603.552	56834.25
603.91	56741.38
604.268	56935.72
604.625	56864.76
604.983	57003.06
605.341	56876.74
605.698	57116.73
606.056	57154.92
606.413	56996.51
606.771	57218.42
607.128	57205.77
607.485	57133.91
607.843	57163.06
608.2	57284.64
608.557	57397.63
608.914	57406.67
609.272	57509.26
609.629	57531.19
609.986	57627.23
610.343	57545.87
610.7	57724.85
611.057	57702.25
611.414	57623.61
611.771	57792.65
612.127	57845.3
612.484	57815.25
612.841	57892.31
613.198	57864.51
613.554	57921.46
613.911	58092.98
614.267	58005.3
614.624	58051.4
614.98	58150.6
615.337	58325.74
615.693	58198.51
616.05	58226.08
616.406	58368.9
616.762	58333.88
617.118	58429.24
617.475	58371.61
617.831	58488.9
618.187	58436.92
618.543	58511.27
618.899	58666.07
619.255	58614.55
619.611	58610.93
619.967	58783.81
620.323	58786.75
620.678	58698.84
621.034	58651.38
621.39	58718.95
621.746	58661.1
622.101	58977.7
622.457	58799.63
622.812	58913.52
623.168	58902.9
623.523	58909.45
623.879	58918.72
624.234	58872.84
624.589	58970.02
624.945	58956.01
625.3	59037.59
625.655	59020.86
626.01	59038.49
626.365	59074.2
626.72	58999.17
627.075	59034.42
627.43	59005.72
627.785	59004.82
628.14	59013.18
628.495	59036
628.85	59087.75
629.205	58952.62
629.559	59080.3
629.914	58935.44
630.269	59021.54
630.623	58904.93
630.978	58844.82
631.332	59028.55
631.687	58969.57
632.041	58954.2
632.396	58933.18
632.75	58881.43
633.104	58870.13
633.459	58797.82
633.813	58787.42
634.167	58768.67
634.521	58795.33
634.875	58746.52
635.229	58730.93
635.583	58581.33
635.937	58652.06
636.291	58602.34
636.645	58599.86
636.999	58518.73
637.352	58612.29
637.706	58459.52
638.06	58588.11
638.413	58422.01
638.767	58403.25
639.121	58454.78
639.474	58326.19
639.828	58368.23
640.181	58299.07
640.534	58353.31
640.888	58254.78
641.241	58151.96
641.594	58255.23
641.947	58281.67
642.301	58165.52
642.654	58296.59
643.007	58255.91
643.36	58209.81
643.713	58164.39
644.066	58271.28
644.419	58072.64
644.771	57781.12
645.124	57488.7
645.477	57493.9
645.83	57343.85
646.182	57369.83
646.535	57307.24
646.888	57321.92
647.24	57267.69
647.593	57379.55
647.945	57283.73
648.298	57227.92
648.65	57118.09
649.002	57071.76
649.355	56978.43
649.707	56989.05
650.059	56960.35
650.411	57365.99
650.763	57360.79
651.115	57713.78
651.467	57624.06
651.819	57644.63
652.171	57599.21
652.523	57511.75
652.875	57549.04
653.227	57492.99
653.578	57617.28
653.93	57498.19
654.282	57368.48
654.633	57328.48
654.985	57440.34
655.337	57375.71
655.688	57330.74
656.039	57455.71
656.391	57147.69
656.742	57252.77
657.094	57217.07
657.445	57257.52
657.796	57328.03
658.147	57101.14
658.498	57170.74
658.849	57253.68
659.2	57113.57
659.551	57064.76
659.902	57195.6
660.253	57054.14
660.604	57117.86
660.955	56996.96
661.306	57096.17
661.656	57092.55
662.007	57038.77
662.358	56991.54
662.708	57004.65
663.059	57016.4
663.409	56812.11
663.76	56944.99
664.11	56957.87
664.461	56952.44
664.811	56981.14
665.161	56913.8
665.511	56868.83
665.862	56913.57
666.212	56934.14
666.562	56948.38
666.912	56977.75
667.262	56768.49
667.612	56831.32
667.962	56893.69
668.312	56806.46
668.662	56896.4
669.011	56852.78
669.361	56874.03
669.711	56843.07
670.06	56751.32
670.41	56699.79
670.76	56697.53
671.109	56805.78
671.459	56756.97
671.808	56778.89
672.157	56802.84
672.507	56634.49
672.856	56595.39
673.205	56667.93
673.554	56655.5
673.904	56589.74
674.253	56861.37
674.602	56641.26
674.951	56225.68
675.3	56233.14
675.649	56612.34
675.998	56671.55
676.346	56654.37
676.695	56658.67
677.044	56474.26
677.393	56544.54
677.741	56697.53
678.09	56578.67
678.438	56533.25
678.787	56572.34
679.135	56510.42
679.484	56387.71
679.832	56557.88
680.181	56432.91
680.529	56442.4
680.877	56330.54
681.225	56298.45
681.573	56495.96
681.922	56297.77
682.27	56325.57
682.618	56285.79
682.966	56196.53
683.314	56240.37
683.661	56250.09
684.009	56152.24
684.357	56020.04
684.705	55960.83
685.053	56095.74
685.4	55950.66
685.748	55957.89
686.095	55944.33
686.443	55801.96
686.79	55830.89
687.138	55903.66
687.485	55828.63
687.832	55759.71
688.18	55696.66
688.527	55522.2
688.874	55556.77
689.221	55578.47
689.568	55483.1
689.915	55458.47
690.262	55453.5
690.609	55411.01
690.956	55210.57
691.303	55290.34
691.65	55114.53
691.997	55161.76
692.344	55017.35
692.69	54926.06
693.037	55048.76
693.383	54732.39
693.73	54898.94
694.077	54693.75
694.423	54725.38
694.769	54644.03
695.116	54643.58
695.462	54470.25
695.808	54387.31
696.155	54525.16
696.501	54186.64
696.847	54388.44
697.193	54056.25
697.539	54135.79
697.885	54007.44
698.231	53939.19
698.577	53982.13
698.923	53921.34
699.269	53692.64
699.614	53602.7
699.96	53490.61
700.306	53549.37
700.651	53396.15
700.997	53370.16
701.342	53282.26
701.688	53310.05
702.033	53261.69
702.379	53060.79
702.724	53082.04
703.069	53057.4
703.415	52744.42
703.76	52733.12
704.105	52848.14
704.45	52682.72
704.795	52506.46
705.14	52414.26
705.485	52411.32
705.83	52304.2
706.175	52423.07
706.52	52288.61
706.865	52221.72
707.209	52162.06
707.554	52109.86
707.899	52088.16
708.243	51877.1
708.588	51794.61
708.932	51645.24
709.277	51765.23
709.621	51497.45
709.966	51294.96
710.31	51353.04
710.654	51232.59
710.998	51319.37
711.342	51284.12
711.687	51195.53
712.031	51027.63
712.375	50869.44
712.719	50974.07
713.063	50854.07
713.407	50959.38
713.75	50760.06
714.094	50784.92
714.438	50515.1
714.782	50497.02
715.125	50473.07
715.469	50679.61
715.812	50349.68
716.156	50258.38
716.499	50151.49
716.843	50249.79
717.186	50040.53
717.53	50320.98
717.873	50183.58
718.216	49996.47
718.559	49890.71
718.902	49716.93
719.246	49773.2
719.589	49584.95
719.932	49552.86
720.275	49564.39
720.617	49508.35
720.96	49278.29
721.303	49399.65
721.646	49379.08
721.989	49118.75
722.331	49300.44
722.674	49108.36
723.016	49055.48
723.359	48910.39
723.701	49097.06
724.044	48955.37
724.386	48752.21
724.729	48808.7
725.071	48775.71
725.413	48718.54
725.755	48671.53
726.097	48520.8
726.439	48409.84
726.782	48331.43
727.124	48535.49
727.465	48391.54
727.807	48329.17
728.149	48267.93
728.491	48139.57
728.833	48290.98
729.175	48044.43
729.516	47955.84
729.858	47877.88
730.199	48077.87
730.541	48035.39
730.882	47845.11
731.224	47827.03
731.565	47712.01
731.906	47866.35
732.248	47757.43
732.589	47480.6
732.93	47535.29
733.271	47543.43
733.612	47504.33
733.953	47621.39
734.294	47372.58
734.635	47254.17
734.976	47376.2
735.317	47332.58
735.658	47231.34
735.999	47147.5
736.339	47123.55
736.68	47117.22
737.021	47020.5
737.361	46893.27
737.702	46999.48
738.042	46775.31
738.383	46822.99
738.723	46897.79
739.063	46767.85
739.404	46837.23
739.744	46661.41
740.084	46603.11
740.424	46756.55
740.764	46442.89
741.104	46599.27
741.444	46394.53
741.784	46239.28
742.124	46423
742.464	46339.84
742.804	46211.03
743.143	46253.52
743.483	46241.99
743.823	46105.72
744.162	46108.43
744.502	46066.63
744.841	45954.77
745.181	46001.77
745.52	45871.15
745.86	45847.2
746.199	45741.66
746.538	45645.62
746.877	45849.46
747.216	45734.89
747.556	45643.36
747.895	45557.49
748.234	45474.33
748.573	45326.53
748.911	45325.4
749.25	45308.46
749.589	45100.78
749.928	45171.28
750.267	45139.42
750.605	45047.9
750.944	45025.07
751.283	44935.36
751.621	44837.28
751.96	44748.24
752.298	44817.4
752.636	44477.52
752.975	44437.07
753.313	44465.77
753.651	44651.75
753.989	44242.04
754.327	44269.61
