Data from 100_FLMS001491_010.txt Node
Date: Thu Apr 12 17:09:50 BST 2018
User: hsy
Spectrometer: FLMS00149
Trigger mode: 0
Integration Time (sec): 1.000000E-2
Scans to average: 10
Electric dark correction enabled: true
Nonlinearity correction enabled: false
Boxcar width: 0
XAxis mode: Wavelengths
Number of Pixels in Spectrum: 2048
>>>>>Begin Spectral Data<<<<<
341.393	-16.92
341.776	-16.92
342.16	-16.92
342.543	-45.17
342.927	-76.13
343.31	-68.67
343.693	-73.19
344.077	-66.41
344.46	-39.52
344.843	-63.47
345.226	-40.42
345.61	-40.65
345.993	-25.96
346.376	-0.65
346.759	-11.95
347.142	24.21
347.525	48.39
347.908	65.56
348.291	80.25
348.674	104.66
349.057	107.82
349.44	137.2
349.823	151.21
350.206	179.23
350.588	230.3
350.971	238.67
351.354	257.65
351.737	303.75
352.119	284.99
352.502	292.9
352.884	307.36
353.267	325.9
353.65	340.81
354.032	338.1
354.414	350.08
354.797	351.88
355.179	355.73
355.562	348.27
355.944	376.52
356.326	376.52
356.709	382.17
357.091	379.23
357.473	391.43
357.855	390.3
358.238	371.32
358.62	365.44
359.002	397.08
359.384	389.17
359.766	386.01
360.148	371.09
360.53	397.76
360.912	394.82
361.294	385.78
361.676	388.27
362.057	356.86
362.439	385.78
362.821	373.8
363.203	375.16
363.584	371.77
363.966	379
364.348	376.06
364.729	372.22
365.111	374.93
365.493	372.22
365.874	363.18
366.256	388.49
366.637	388.72
367.019	370.64
367.4	372.22
367.781	367.48
368.163	368.83
368.544	368.38
368.925	360.47
369.306	385.1
369.688	380.13
370.069	359.57
370.45	389.4
370.831	399.34
371.212	386.68
371.593	383.75
371.974	380.36
372.355	377.87
372.736	386.23
373.117	385.78
373.498	387.59
373.879	386.01
374.26	395.27
374.641	365.44
375.021	381.49
375.402	385.1
375.783	378.1
376.163	399.34
376.544	390.3
376.925	375.16
377.305	412.22
377.686	399.34
378.066	397.98
378.447	393.46
378.827	411.32
379.208	416.29
379.588	388.04
379.968	411.77
380.349	410.64
380.729	435.72
381.109	430.3
381.489	414.25
381.87	408.61
382.25	417.64
382.63	426.01
383.01	423.29
383.39	437.76
383.77	424.42
384.15	422.84
384.53	435.72
384.91	428.49
385.29	448.83
385.67	428.04
386.049	464.87
386.429	448.83
386.809	461.49
387.189	452.9
387.568	450.64
387.948	471.65
388.328	458.55
388.707	486.8
389.087	486.34
389.466	454.03
389.846	494.7
390.225	484.31
390.605	474.37
390.984	475.27
391.363	482.73
391.743	487.7
392.122	493.57
392.501	486.12
392.881	503.07
393.26	520.47
393.639	500.35
394.018	517.75
394.397	523.86
394.776	523.18
395.155	509.62
395.534	522.95
395.913	506.46
396.292	548.26
396.671	543.74
397.05	539
397.429	542.84
397.808	527.7
398.186	559.56
398.565	564.08
398.944	531.31
399.323	556.17
399.701	558.21
400.08	572.22
400.458	564.99
400.837	562.27
401.215	565.66
401.594	573.12
401.972	564.53
402.351	598.88
402.729	582.16
403.107	581.26
403.486	606.34
403.864	601.82
404.242	619.45
404.62	603.4
404.999	606.34
405.377	624.87
405.755	626.68
406.133	648.15
406.511	665.32
406.889	636.17
407.267	647.02
407.645	661.25
408.023	679.56
408.401	690.18
408.779	696.51
409.156	692.21
409.534	702.83
409.912	720.69
410.29	717.52
410.667	730.86
411.045	759.1
411.422	761.82
411.8	742.16
412.178	771.08
412.555	792.78
412.933	791.42
413.31	793.91
413.687	798.88
414.065	836.16
414.442	819.44
414.819	838.88
415.197	844.07
415.574	847.01
415.951	838.2
416.328	866.67
416.705	880.01
417.082	877.97
417.46	886.11
417.837	884.3
418.214	898.08
418.591	913.68
418.967	915.94
419.344	904.19
419.721	910.96
420.098	922.72
420.475	961.81
420.852	953.22
421.228	939.44
421.605	964.52
421.982	986.67
422.358	992.77
422.735	983.96
423.111	975.82
423.488	1022.83
423.864	1023.5
424.241	1021.92
424.617	1041.13
424.994	1048.36
425.37	1037.97
425.746	1071.86
426.123	1085.65
426.499	1087.91
426.875	1092.2
427.251	1104.41
427.627	1160.22
428.003	1127
428.379	1145.53
428.756	1147.12
429.132	1176.95
429.507	1175.82
429.883	1194.35
430.259	1202.93
430.635	1236.38
431.011	1226.44
431.387	1234.57
431.763	1256.04
432.138	1248.81
432.514	1318.19
432.89	1284.97
433.265	1331.74
433.641	1322.48
434.016	1322.25
434.392	1389.37
434.767	1353.21
435.143	1379.2
435.518	1396.15
435.894	1408.58
436.269	1420.33
436.644	1433.89
437.02	1435.7
437.395	1465.75
437.77	1470.95
438.145	1519.99
438.52	1486.09
438.895	1510.27
439.271	1500.33
439.646	1556.37
440.021	1523.6
440.395	1559.76
440.77	1538.29
441.145	1579.42
441.52	1603.15
441.895	1586.88
442.27	1589.59
442.645	1603.15
443.019	1638.63
443.394	1626.88
443.769	1644.05
444.143	1614
444.518	1673.88
444.892	1699.87
445.267	1672.07
445.641	1661.45
446.016	1688.35
446.39	1702.13
446.764	1715.01
447.139	1710.04
447.513	1732.86
447.887	1758.63
448.262	1766.76
448.636	1781.68
449.01	1802.69
449.384	1794.78
449.758	1804.95
450.132	1821.9
450.506	1861.22
450.88	1848.34
451.254	1848.12
451.628	1881.11
452.002	1930.37
452.376	1907.77
452.75	1922.01
453.123	1954.33
453.497	1978.28
453.871	1996.36
454.244	2022.12
454.618	2061.44
454.992	2095.79
455.365	2090.14
455.739	2120.42
456.112	2132.85
456.486	2180.31
456.859	2227.09
457.232	2229.12
457.606	2240.2
457.979	2250.82
458.352	2355.22
458.725	2322.45
459.099	2407.87
459.472	2373.98
459.845	2433.18
460.218	2448.78
460.591	2479.29
460.964	2492.17
461.337	2514.09
461.71	2605.84
462.083	2662.56
462.456	2626.63
462.829	2658.72
463.201	2703.01
463.574	2708.21
463.947	2726.74
464.32	2768.54
464.692	2831.59
465.065	2824.59
465.438	2865.72
465.81	2918.82
466.183	2907.52
466.555	3007.63
466.928	3008.08
467.3	3002.44
467.672	3086.5
468.045	3091.25
468.417	3149.32
468.789	3179.83
469.161	3168.76
469.534	3252.82
469.906	3344.35
470.278	3302.31
470.65	3404.01
471.022	3417.11
471.394	3462.99
471.766	3498.24
472.138	3524
472.51	3645.36
472.882	3669.31
473.253	3720.16
473.625	3747.5
473.997	3890.32
474.369	3848.97
474.74	3931.45
475.112	4008.96
475.484	4043.09
475.855	4140.94
476.227	4195.85
476.598	4265.45
476.97	4373.7
477.341	4426.13
477.713	4452.57
478.084	4527.14
478.455	4648.49
478.827	4718.55
479.198	4849.39
479.569	4897.07
479.94	5025.88
480.311	5088.26
480.682	5207.57
481.053	5338.19
481.424	5441.92
481.795	5528.24
482.166	5633.1
482.537	5700.44
482.908	5835.58
483.279	5913.09
483.65	6053.65
484.021	6178.85
484.391	6326.64
484.762	6421.33
485.133	6502.68
485.503	6648.44
485.874	6819.51
486.244	6902.9
486.615	7127.75
486.985	7217.92
487.356	7332.94
487.726	7508.76
488.097	7736.55
488.467	7865.13
488.837	8051.12
489.207	8222.86
489.578	8397.1
489.948	8507.83
490.318	8661.04
490.688	8800.93
491.058	9018.77
491.428	9221.48
491.798	9423.96
492.168	9642.71
492.538	9842.26
492.908	10033.21
493.278	10167.9
493.648	10373.77
494.017	10588
494.387	10808.78
494.757	11027.08
495.126	11237.7
495.496	11423
495.866	11561.98
496.235	11809.44
496.605	12049.43
496.974	12329.87
497.344	12573.03
497.713	12809.41
498.082	12929.41
498.452	13194.71
498.821	13469.05
499.19	13616.39
499.559	13768.93
499.928	14198.52
500.298	14410.04
500.667	14691.17
501.036	14739.75
501.405	15140.2
501.774	15303.35
502.143	15633.06
502.512	15743.12
502.88	16263.1
503.249	16342.65
503.618	16665.13
503.987	16793.26
504.356	17066.02
504.724	17334.49
505.093	17655.84
505.462	18000.91
505.83	18171.75
506.199	18569.48
506.567	18845.63
506.936	18973.54
507.304	19460.53
507.672	19629.79
508.041	19795.89
508.409	20229.33
508.777	20346.61
509.145	20779.14
509.514	20871.34
509.882	21241.05
510.25	21429.52
510.618	21851.88
510.986	21990.86
511.354	22349.05
511.722	22658.19
512.09	23001.23
512.458	23089.59
512.826	23543.14
513.193	23603.48
513.561	23880.53
513.929	24106.51
514.297	24455.43
514.664	24774.29
515.032	24955.08
515.4	25310.55
515.767	25531.33
516.135	25842.06
516.502	25821.04
516.869	26311.43
517.237	26478.43
517.604	26472.55
517.972	27175.13
518.339	27164.74
518.706	27429.82
519.073	27722.01
519.44	27954.1
519.808	28332.16
520.175	28427.3
520.542	28770.8
520.909	29083.78
521.276	29201.07
521.643	29696.2
522.009	29885.8
522.376	30187.03
522.743	30415.5
523.11	30886.9
523.477	31083.73
523.843	31291.63
524.21	31738.85
524.577	32060.2
524.943	32355.11
525.31	32546.29
525.676	32946.51
526.043	33123
526.409	33426.95
526.776	33800.04
527.142	33937.89
527.508	34210.2
527.874	34621.94
528.241	34810.41
528.607	34939.45
528.973	35335.37
529.339	35487.68
529.705	35892.42
530.071	36194.78
530.437	36431.61
530.803	36645.39
531.169	36880.64
531.535	37013.97
531.901	37253.29
532.267	37331.7
532.632	37708.87
532.998	37975.3
533.364	38160.38
533.73	38246.93
534.095	38574.16
534.461	38761.49
534.826	38990.64
535.192	39136.85
535.557	39277.87
535.923	39429.5
536.288	39636.05
536.653	39785.2
537.019	39843.95
537.384	39944.74
537.749	40108.35
538.114	40271.96
538.479	40304.05
538.845	40654.1
539.21	40540.88
539.575	40802.57
539.94	40915.34
540.305	41304.93
540.67	41207.08
541.034	41421.76
541.399	41508.54
541.764	41677.12
542.129	41803
542.494	42019.94
542.858	42109.2
543.223	42064.23
543.587	42440.04
543.952	42550.1
544.316	42652.01
544.681	42759.13
545.045	42853.36
545.41	43084.32
545.774	43126.8
546.138	43233.02
546.503	43408.38
546.867	43402.73
547.231	43660.58
547.595	43877.97
547.959	44070.06
548.324	44068.47
548.688	44212.88
549.052	44375.36
549.416	44365.42
549.779	44551.4
550.143	44711.62
550.507	44969.69
550.871	45063.48
551.235	45031.84
551.599	45492.17
551.962	45548.66
552.326	45721.31
552.689	45933.06
553.053	45790.69
553.417	46067.07
553.78	46475.64
554.143	46530.1
554.507	46692.81
554.87	46748.63
555.234	47288.95
555.597	46971.22
555.96	47225.45
556.323	47308.16
556.686	47415.05
557.05	47822.95
557.413	47876.51
557.776	47908.6
558.139	48276.95
558.502	48375.93
558.865	48342.49
559.228	48660.9
559.59	48864.96
559.953	48992.64
560.316	49335.68
560.679	49365.51
561.041	49755.56
561.404	49818.15
561.767	50025.83
562.129	50011.14
562.492	50329.55
562.854	50427.4
563.217	50475.76
563.579	50693.61
563.941	50996.43
564.304	51087.05
564.666	51410.88
565.028	51380.6
565.39	51482.06
565.753	51720.02
566.115	51838.67
566.477	51996.18
566.839	52096.06
567.201	52373.34
567.563	52364.08
567.925	52564.07
568.287	52599.1
568.648	52772.43
569.01	53029.82
569.372	53176.94
569.734	53154.56
570.095	53421
570.457	53596.81
570.819	53601.78
571.18	53711.38
571.542	53973.75
571.903	53962.23
572.265	54082.22
572.626	54287.64
572.987	54338.71
573.349	54474.3
573.71	54553.4
574.071	54688.76
574.432	54813.05
574.794	55046.04
575.155	54936.66
575.516	54962.88
575.877	55105.92
576.238	55104.12
576.599	55275.41
576.96	55355.86
577.32	55398.35
577.681	55421.85
578.042	55523.99
578.403	55552.24
578.763	55572.35
579.124	55646.47
579.485	55836.53
579.845	55868.84
580.206	55776.64
580.566	55835.85
580.927	55818.45
581.287	55929.41
581.648	55893.47
582.008	56042.4
582.368	56066.35
582.728	56087.82
583.089	56058.67
583.449	56045.56
583.809	56097.54
584.169	56226.8
584.529	56111.55
584.889	56362.61
585.249	56129.85
585.609	56021.83
585.969	56261.83
586.329	56154.94
586.688	56246.01
587.048	56163.3
587.408	56147.48
587.768	56201.26
588.127	56214.82
588.487	56174.82
588.846	56389.51
589.206	56094.15
589.565	56154.48
589.925	56342.5
590.284	56289.4
590.643	56359.9
591.003	56239.68
591.362	56479.22
591.721	56299.56
592.08	56335.5
592.44	56456.17
592.799	56400.35
593.158	56337.98
593.517	56301.82
593.876	56425.44
594.235	56423.86
594.593	56373.01
594.952	56409.62
595.311	56439.22
595.67	56422.27
596.029	56603.96
596.387	56608.71
596.746	56669.27
597.104	56538.88
597.463	56482.38
597.822	56634.7
598.18	56520.35
598.538	56506.11
598.897	56690.06
599.255	56552.89
599.613	56888.48
599.972	56759.44
600.33	56778.42
600.688	56713.79
601.046	56747.91
601.404	56943.16
601.762	56933.67
602.12	56954.24
602.478	56971.64
602.836	56933.45
603.194	56881.47
603.552	56959.66
603.91	56876.5
604.268	56980.45
604.625	56946.33
604.983	57104.74
605.341	56989.72
605.698	57164.63
606.056	57249.37
606.413	57065.19
606.771	57285.75
607.128	57330.27
607.485	57329.82
607.843	57333.21
608.2	57459.08
608.557	57500.44
608.914	57435.81
609.272	57590.38
609.629	57728.23
609.986	57732.75
610.343	57645.74
610.7	57914.44
611.057	57734.33
611.414	57743.59
611.771	57921.9
612.127	57938.17
612.484	57998.05
612.841	58112.17
613.198	58032.4
613.554	57976.13
613.911	58151.95
614.267	58192.17
614.624	58128.9
614.98	58241.89
615.337	58331.15
615.693	58349
616.05	58386.52
616.406	58493.41
616.762	58385.61
617.118	58458.15
617.475	58487.3
617.831	58602.1
618.187	58580.63
618.543	58663.12
618.899	58808.43
619.255	58807.97
619.611	58754.64
619.967	58855.2
620.323	58937.46
620.678	58875.54
621.034	58864.92
621.39	58909.21
621.746	58867.86
622.101	59175.87
622.457	58962.77
622.812	59040.06
623.168	59094.97
623.523	59109.21
623.879	59148.98
624.234	59014.75
624.589	59151.69
624.945	59149.66
625.3	59155.53
625.655	59167.51
626.01	59190.11
626.365	59243.89
626.72	59137.46
627.075	59125.03
627.43	59180.85
627.785	59153.73
628.14	59194.4
628.495	59204.8
628.85	59208.87
629.205	59102.66
629.559	59301.29
629.914	59161.18
630.269	59150.11
630.623	59053.62
630.978	59021.53
631.332	59196.44
631.687	59201.41
632.041	59119.83
632.396	59150.34
632.75	59079.6
633.104	59113.5
633.459	58937.91
633.813	59014.07
634.167	58964.35
634.521	59022.21
634.875	58974.97
635.229	58952.6
635.583	58818.14
635.937	58871.25
636.291	58848.42
636.645	58808.65
636.999	58686.62
637.352	58782.21
637.706	58634.42
638.06	58708.32
638.413	58650.46
638.767	58562.78
639.121	58578.83
639.474	58491.82
639.828	58497.47
640.181	58569.56
640.534	58572.5
640.888	58513.07
641.241	58349.45
641.594	58426.74
641.947	58441.66
642.301	58292.28
642.654	58384.93
643.007	58342.22
643.36	58367.76
643.713	58341.55
644.066	58378.61
644.419	58274.43
644.771	58012.51
645.124	57704.27
645.477	57691.62
645.83	57501.57
646.182	57566.42
646.535	57514.9
646.888	57518.97
647.24	57443.26
647.593	57566.88
647.945	57548.35
648.298	57366.2
648.65	57280.78
649.002	57198.75
649.355	57127.11
649.707	57130.05
650.059	57196.26
650.411	57464.73
650.763	57543.15
651.115	57908.79
651.467	57776.36
651.819	57786.08
652.171	57730.94
652.523	57657.5
652.875	57662.47
653.227	57568.68
653.578	57813.2
653.93	57619.98
654.282	57465.41
654.633	57487.33
654.985	57514
655.337	57534.56
655.688	57477.61
656.039	57613.88
656.391	57329.37
656.742	57385.19
657.094	57361.01
657.445	57343.15
657.796	57372.08
658.147	57226.32
658.498	57356.94
658.849	57401.91
659.2	57283.04
659.551	57144.29
659.902	57382.47
660.253	57158.07
660.604	57222.93
660.955	57100.67
661.306	57192.65
661.656	57101.58
662.007	57130.73
662.358	57082.6
662.708	57142.48
663.059	57098.87
663.409	56982.03
663.76	57069.94
664.11	57043.27
664.461	57075.14
664.811	57088.24
665.161	56991.07
665.511	56966.89
665.862	57042.82
666.212	57083.73
666.562	57033.78
666.912	56963.95
667.262	56899.32
667.612	56987.68
667.962	56946.78
668.312	56921.7
668.662	57056.61
669.011	57023.16
669.361	56979.32
669.711	56955.37
670.06	56928.7
670.41	56832.43
670.76	56814.81
671.109	56987.46
671.459	56935.93
671.808	56883.28
672.157	56915.82
672.507	56803.05
672.856	56808.48
673.205	56878.98
673.554	56898.42
673.904	56794.24
674.253	56985.42
674.602	56837.86
674.951	56484.19
675.3	56383.86
675.649	56857.97
675.998	56734.81
676.346	56788.59
676.695	56833.11
677.044	56591.99
677.393	56683.06
677.741	56782.94
678.09	56647.8
678.438	56648.26
678.787	56593.57
679.135	56671.31
679.484	56500.69
679.832	56641.25
680.181	56583.63
680.529	56682.38
680.877	56507.47
681.225	56460.24
681.573	56696.84
681.922	56447.36
682.27	56384.31
682.618	56421.37
682.966	56377.08
683.314	56448.26
683.661	56349.73
684.009	56354.7
684.357	56217.99
684.705	56171.43
685.053	56263.86
685.4	56084.66
685.748	56080.81
686.095	56081.94
686.443	56010.08
686.79	55930.99
687.138	55994.04
687.485	56014.83
687.832	55868.16
688.18	55960.36
688.527	55872.68
688.874	55792.23
689.221	55830.2
689.568	55700.48
689.915	55627.27
690.262	55680.82
690.609	55603.99
690.956	55545.23
691.303	55551.56
691.65	55443.99
691.997	55456.2
692.344	55331
692.69	55269.31
693.037	55257.56
693.383	55039.94
693.73	55138.01
694.077	54949.77
694.423	55039.03
694.769	54893.5
695.116	54855.08
695.462	54771.24
695.808	54711.81
696.155	54777.8
696.501	54484.7
696.847	54651.47
697.193	54392.5
697.539	54475.21
697.885	54322.22
698.231	54229.56
698.577	54199.28
698.923	54217.13
699.269	53989.8
699.614	53957.25
699.96	53920.19
700.306	53862.11
700.651	53723.36
700.997	53601.1
701.342	53551.61
701.688	53486.31
702.033	53422.13
702.379	53502.58
702.724	53284.95
703.069	53387.1
703.415	53037.05
703.76	53014.91
704.105	53045.64
704.45	52917.51
704.795	52809.49
705.14	52688.13
705.485	52649.04
705.83	52499.44
706.175	52581.7
706.52	52509.83
706.865	52454.69
707.209	52267.58
707.554	52259.22
707.899	52291.53
708.243	52037.98
708.588	52091.99
708.932	51958.21
709.277	51929.96
709.621	51835.73
709.966	51691.32
710.31	51742.85
710.654	51422.86
710.998	51551.44
711.342	51627.15
711.687	51486.13
712.031	51346.02
712.375	51209.98
712.719	51158.68
713.063	51169.53
713.407	51233.71
713.75	50998.46
714.094	50981.96
714.438	50774.06
714.782	50846.83
715.125	50655.42
715.469	50917.79
715.812	50458.14
716.156	50432.37
716.499	50477.35
716.843	50442.32
717.186	50363.22
717.53	50465.59
717.873	50419.72
718.216	50248.65
718.559	50177.24
718.902	49926.17
719.246	49989
719.589	49910.58
719.932	49768.89
720.275	49831.49
720.617	49890.24
720.96	49741.09
721.303	49766.86
721.646	49756.69
721.989	49471.95
722.331	49654.32
722.674	49461.33
723.016	49521.21
723.359	49244.16
723.701	49346.53
724.044	49192.41
724.386	49064.73
724.729	49090.94
725.071	49101.34
725.413	49039.42
725.755	49047.33
726.097	48805.3
726.439	48740.67
726.782	48657.28
727.124	48793.55
727.465	48746.09
727.807	48651.4
728.149	48586.55
728.491	48364.86
728.833	48408.02
729.175	48411.86
729.516	48288.48
729.858	48248.03
730.199	48427.68
730.541	48398.53
730.882	48156.5
731.224	48149.5
731.565	47936.39
731.906	48087.58
732.248	48066.11
732.589	47814.82
732.93	47782.5
733.271	47813.01
733.612	47652.79
733.953	47944.3
734.294	47704.76
734.635	47624.31
734.976	47697.08
735.317	47484.2
735.658	47535.73
735.999	47381.83
736.339	47330.31
736.68	47419.35
737.021	47239.24
737.361	47263.64
737.702	47399.23
738.042	47089.41
738.383	47167.6
738.723	47194.72
739.063	47006.7
739.404	47057.77
739.744	47079.47
740.084	46962.64
740.424	46934.61
740.764	46813.03
741.104	46963.77
741.444	46719.93
741.784	46486.49
742.124	46711.34
742.464	46632.25
742.804	46431.12
743.143	46396.32
743.483	46366.72
743.823	46237.91
744.162	46321.07
744.502	46300.28
744.841	46125.37
745.181	46306.61
745.52	46003.34
745.86	46133.5
746.199	45982.1
746.538	46086.73
746.877	46091.7
747.216	45906.84
747.556	45837.92
747.895	45901.19
748.234	45889.44
748.573	45658.49
748.911	45504.14
749.25	45499.85
749.589	45479.51
749.928	45524.48
750.267	45349.8
750.605	45374.88
750.944	45306.86
751.283	45135.11
751.621	45289.23
751.96	44927.43
752.298	44871.39
752.636	44986.19
752.975	44812.18
753.313	44770.6
753.651	44807.66
753.989	44657.84
754.327	44710.72
754.666	44222.59
755.004	44496.49
