Data from 100_FLMS001491_003.txt Node
Date: Thu Apr 12 17:09:36 BST 2018
User: hsy
Spectrometer: FLMS00149
Trigger mode: 0
Integration Time (sec): 1.000000E-2
Scans to average: 10
Electric dark correction enabled: true
Nonlinearity correction enabled: false
Boxcar width: 0
XAxis mode: Wavelengths
Number of Pixels in Spectrum: 2048
>>>>>Begin Spectral Data<<<<<
341.393	-10.37
341.776	-10.37
342.16	-10.37
342.543	-39.29
342.927	-49.91
343.31	-74.09
343.693	-63.02
344.077	-71.38
344.46	-66.18
344.843	-52.17
345.226	-42.68
345.61	-52.17
345.993	-9.46
346.376	-2.46
346.759	11.78
347.142	22.4
347.525	47.26
347.908	65.34
348.291	91.55
348.674	82.96
349.057	112.34
349.44	131.32
349.823	143.3
350.206	165.45
350.588	232.56
350.971	246.12
351.354	267.14
351.737	294.71
352.119	293.81
352.502	304.2
352.884	326.8
353.267	326.57
353.65	322.73
354.032	364.09
354.414	329.51
354.797	336.97
355.179	353.92
355.562	359.34
355.944	365.44
356.326	375.61
356.709	401.15
357.091	373.13
357.473	384.42
357.855	374.48
358.238	389.17
358.62	400.92
359.002	392.56
359.384	376.97
359.766	377.19
360.148	394.59
360.53	382.39
360.912	379
361.294	347.82
361.676	358.44
362.057	379.45
362.439	372.9
362.821	369.28
363.203	389.17
363.584	384.2
363.966	380.36
364.348	364.09
364.729	385.78
365.111	363.86
365.493	350.08
365.874	373.8
366.256	369.51
366.637	372.9
367.019	365.22
367.4	361.37
367.781	350.53
368.163	369.28
368.544	360.7
368.925	364.54
369.306	388.49
369.688	382.39
370.069	376.74
370.45	338.32
370.831	357.53
371.212	381.26
371.593	388.72
371.974	367.25
372.355	384.65
372.736	389.17
373.117	387.36
373.498	378.78
373.879	370.41
374.26	371.54
374.641	381.94
375.021	377.87
375.402	393.01
375.783	398.89
376.163	395.95
376.544	402.05
376.925	409.96
377.305	397.08
377.686	384.65
378.066	411.99
378.447	412.9
378.827	398.44
379.208	413.8
379.588	413.35
379.968	405.44
380.349	389.62
380.729	401.83
381.109	411.09
381.489	417.64
381.87	441.82
382.25	426.23
382.63	415.16
383.01	414.71
383.39	425.33
383.77	419.45
384.15	454.25
384.53	429.62
384.91	439.56
385.29	416.74
385.67	430.75
386.049	433.46
386.429	468.26
386.809	458.1
387.189	459.23
387.568	466.23
387.948	459
388.328	456.06
388.707	455.61
389.087	473.24
389.466	488.6
389.846	477.53
390.225	485.44
390.605	488.15
390.984	503.07
391.363	489.73
391.743	491.54
392.122	491.31
392.501	490.41
392.881	498.55
393.26	484.99
393.639	523.18
394.018	500.35
394.397	518.88
394.776	505.55
395.155	502.61
395.534	517.3
395.913	509.39
396.292	540.8
396.671	515.95
397.05	525.66
397.429	529.28
397.808	520.47
398.186	543.29
398.565	546.68
398.944	544.87
399.323	576.28
399.701	541.93
400.08	546.91
400.458	558.88
400.837	553.69
401.215	569.5
401.594	554.36
401.972	578.54
402.351	575.61
402.729	581.48
403.107	620.8
403.486	599.11
403.864	613.35
404.242	619.67
404.62	601.59
404.999	616.28
405.377	625.32
405.755	614.7
406.133	624.87
406.511	641.14
406.889	644.98
407.267	657.86
407.645	645.21
408.023	694.7
408.401	673.46
408.779	692.44
409.156	694.93
409.534	697.19
409.912	698.99
410.29	722.04
410.667	729.05
411.045	754.58
411.422	725.88
411.8	747.81
412.178	759.33
412.555	762.49
412.933	782.83
413.31	795.94
413.687	820.8
414.065	819.67
414.442	821.93
414.819	826
415.197	832.32
415.574	874.36
415.951	845.88
416.328	858.99
416.705	873.23
417.082	880.91
417.46	879.1
417.837	925.2
418.214	920.23
418.591	915.94
418.967	913
419.344	952.55
419.721	932.89
420.098	941.02
420.475	955.48
420.852	965.2
421.228	969.49
421.605	959.33
421.982	988.25
422.358	984.41
422.735	1003.84
423.111	999.32
423.488	1015.37
423.864	1012.21
424.241	1041.13
424.617	1056.95
424.994	1059.44
425.37	1041.81
425.746	1049.94
426.123	1065.08
426.499	1081.36
426.875	1099.66
427.251	1133.33
427.627	1137.17
428.003	1155.25
428.379	1169.94
428.756	1179.21
429.132	1185.53
429.507	1192.54
429.883	1210.39
430.259	1222.82
430.635	1231.41
431.011	1242.93
431.387	1270.05
431.763	1278.19
432.138	1281.8
432.514	1290.84
432.89	1310.05
433.265	1343.27
433.641	1329.71
434.016	1333.33
434.392	1370.84
434.767	1403.38
435.143	1385.98
435.518	1381.91
435.894	1407.9
436.269	1443.38
436.644	1440.22
437.02	1446.54
437.395	1482.25
437.77	1508.92
438.145	1498.52
438.52	1528.12
438.895	1511.17
439.271	1513.89
439.646	1552.53
440.021	1568.35
440.395	1592.98
440.77	1541.46
441.145	1591.85
441.52	1620.1
441.895	1618.29
442.27	1637.5
442.645	1605.64
443.019	1639.53
443.394	1655.58
443.769	1642.47
444.143	1661.23
444.518	1666.65
444.892	1718.63
445.267	1682.24
445.641	1693.32
446.016	1726.31
446.39	1714.56
446.764	1726.99
447.139	1743.49
447.513	1751.62
447.887	1758.85
448.262	1811.51
448.636	1803.14
449.01	1806.08
449.384	1822.58
449.758	1851.05
450.132	1818.96
450.506	1829.36
450.88	1879.07
451.254	1875.01
451.628	1909.81
452.002	1955.68
452.376	1943.25
452.75	2024.38
453.123	2001.78
453.497	2001.33
453.871	2015.57
454.244	2072.06
454.618	2060.54
454.992	2114.77
455.365	2119.07
455.739	2171.95
456.112	2169.91
456.486	2249.01
456.859	2219.4
457.232	2258.05
457.606	2341.66
457.979	2326.07
458.352	2352.06
458.725	2390.25
459.099	2428.66
459.472	2422.79
459.845	2498.27
460.218	2445.61
460.591	2496.01
460.964	2545.5
461.337	2552.5
461.71	2601.09
462.083	2642.22
462.456	2629.11
462.829	2684.03
463.201	2728.54
463.574	2733.74
463.947	2754.31
464.32	2803.34
464.692	2828.43
465.065	2848.54
465.438	2919.05
465.81	2936.22
466.183	2962.44
466.555	3014.41
466.928	3015.09
467.3	3013.06
467.672	3097.35
468.045	3160.85
468.417	3195.42
468.789	3138.25
469.161	3230.23
469.534	3302.09
469.906	3327.85
470.278	3373.27
470.65	3359.04
471.022	3435.42
471.394	3477.68
471.766	3551.12
472.138	3585.47
472.51	3666.82
472.882	3674.06
473.253	3754.96
473.625	3770.1
473.997	3881.51
474.369	3897.1
474.74	3984.33
475.112	4030.66
475.484	4082.86
475.855	4176.19
476.227	4168.05
476.598	4324.89
476.97	4408.95
477.341	4507.48
477.713	4534.37
478.084	4587.48
478.455	4716.74
478.827	4772.56
479.198	4923.06
479.569	4929.39
479.94	5073.12
480.311	5148.59
480.682	5292.54
481.053	5387.68
481.424	5483.5
481.795	5553.33
482.166	5621.8
482.537	5718.75
482.908	5872.64
483.279	5936.82
483.65	6102.69
484.021	6203.71
484.391	6381.1
484.762	6405.28
485.133	6513.98
485.503	6685.73
485.874	6804.37
486.244	6922.11
486.615	7154.87
486.985	7209.56
487.356	7402.32
487.726	7538.36
488.097	7738.81
488.467	7878.47
488.837	8089.31
489.207	8207.5
489.578	8378.34
489.948	8527.49
490.318	8726.8
490.688	8816.97
491.058	9013.12
491.428	9303.51
491.798	9385.54
492.168	9637.74
492.538	9802.48
492.908	10022.36
493.278	10185.98
493.648	10360.21
494.017	10642.23
494.387	10870.93
494.757	10951.83
495.126	11157.7
495.496	11371.48
495.866	11560.4
496.235	11822.32
496.605	12004.23
496.974	12257.11
497.344	12480.83
497.713	12700.03
498.082	12818.67
498.452	13160.59
498.821	13451.43
499.19	13616.85
499.559	13855.26
499.928	14123.72
500.298	14298.18
500.667	14615.92
501.036	14799.87
501.405	15089.57
501.774	15248.21
502.143	15495.67
502.512	15770.46
502.88	16069.89
503.249	16273.5
503.618	16588.97
503.987	16786.48
504.356	17110.09
504.724	17333.13
505.093	17525.9
505.462	17770.63
505.83	17977.41
506.199	18352.54
506.567	18726.54
506.936	18972.18
507.304	19307.77
507.672	19582.11
508.041	19824.59
508.409	19996.34
508.777	20388.42
509.145	20632.03
509.514	20760.39
509.882	21153.14
510.25	21211.22
510.618	21683.07
510.986	21833.35
511.354	22124.87
511.722	22471.53
512.09	22833.33
512.458	22926.66
512.826	23338.17
513.193	23439.19
513.561	23628.79
513.929	23965.5
514.297	24334.53
514.664	24619.27
515.032	24665.82
515.4	25117.11
515.767	25155.3
516.135	25560.71
516.502	25581.28
516.869	26100.81
517.237	26377.19
517.604	26364.53
517.972	26904.41
518.339	27013.1
518.706	27315.47
519.073	27453.09
519.44	27746.64
519.808	28148.89
520.175	28297.59
520.542	28703.23
520.909	28841.76
521.276	29115.65
521.643	29510.21
522.009	29684.9
522.376	29956.08
522.743	30213.47
523.11	30665.44
523.477	30861.14
523.843	31224.29
524.21	31744.5
524.577	31925.29
524.943	32141.78
525.31	32311.04
525.676	32796.23
526.043	33005.04
526.409	33170.46
526.776	33565.47
527.142	33832.58
527.508	34031.9
527.874	34409.74
528.241	34629.63
528.607	34746.69
528.973	35113.91
529.339	35202.04
529.705	35581.92
530.071	36044.28
530.437	36083.6
530.803	36267.32
531.169	36655.34
531.535	36740.31
531.901	36969.45
532.267	37126.28
532.632	37532.6
532.998	37610.11
533.364	37921.29
533.73	38056.2
534.095	38432.69
534.461	38465.91
534.826	38664.1
535.192	38693.93
535.557	39141.82
535.923	39068.15
536.288	39364.87
536.653	39547.01
537.019	39688.7
537.384	39922.14
537.749	39867.23
538.114	40116.04
538.479	40172.08
538.845	40452.75
539.21	40553.31
539.575	40814.1
539.94	40829.24
540.305	41106.97
540.67	41069.91
541.034	41318.72
541.399	41329.34
541.764	41422.67
542.129	41624.92
542.494	41844.58
542.858	41963.44
543.223	41953.05
543.587	42252.02
543.952	42313.72
544.316	42499.7
544.681	42559.36
545.045	42772.91
545.41	42962.74
545.774	42902.4
546.138	43142.4
546.503	43300.36
546.867	43265.33
547.231	43599.33
547.595	43748.93
547.959	43896.05
548.324	44075.03
548.688	44105.31
549.052	44240.45
549.416	44259.43
549.779	44375.36
550.143	44518.63
550.507	44820.77
550.871	45028.45
551.235	44988.45
551.599	45389.12
551.962	45478.38
552.326	45602.9
552.689	45660.07
553.053	45554.76
553.417	45933.74
553.78	46245.82
554.143	46484.68
554.507	46466.83
554.87	46599.71
555.234	47057.55
555.597	46790.21
555.96	46990.43
556.323	47331.21
556.686	47370.99
557.05	47671.32
557.413	47745.44
557.776	47837.87
558.139	48128.93
558.502	48129.16
558.865	48359.66
559.228	48624.74
559.59	48846.2
559.953	48716.04
560.316	49229.92
560.679	49223.14
561.041	49414.1
561.404	49786.06
561.767	49930.24
562.129	49904.7
562.492	50174.08
562.854	50301.3
563.217	50364.81
563.579	50551.47
563.941	50859.71
564.304	51034.62
564.666	51185.8
565.028	51136.76
565.39	51397.09
565.753	51652.68
566.115	51699.91
566.477	51870.98
566.839	51975.61
567.201	52280.91
567.563	52280.24
567.925	52608.36
568.287	52630.28
568.648	52712.99
569.01	52893.55
569.372	53111.4
569.734	53116.82
570.095	53303.49
570.457	53444.95
570.819	53525.63
571.18	53592.07
571.542	53778.73
571.903	53803.36
572.265	53991.6
572.626	54120.64
572.987	54140.75
573.349	54321.99
573.71	54440.86
574.071	54515.43
574.432	54723.11
574.794	54876.78
575.155	54938.24
575.516	54917.91
575.877	55069.54
576.238	55056.89
576.599	55199.03
576.96	55244.9
577.32	55326.03
577.681	55363.54
578.042	55508.4
578.403	55525.12
578.763	55528.06
579.124	55570.09
579.485	55773.03
579.845	55772.12
580.206	55809.86
580.566	55779.35
580.927	55803.31
581.287	55910.2
581.648	55864.32
582.008	56017.76
582.368	55986.8
582.728	55993.13
583.089	55977.77
583.449	55923.3
583.809	56044.66
584.169	56146.35
584.529	55992.45
584.889	56225.67
585.249	56097.08
585.609	56044.88
585.969	56159.23
586.329	56020.7
586.688	56115.84
587.048	56184.77
587.408	56134.15
587.768	56074.71
588.127	56157.2
588.487	56052.11
588.846	56327.36
589.206	55998.33
589.565	56136.63
589.925	56266.12
590.284	56169.4
590.643	56152.9
591.003	56192.9
591.362	56351.54
591.721	56307.02
592.08	56217.53
592.44	56346.8
592.799	56285.55
593.158	56336.85
593.517	56171.88
593.876	56279.45
594.235	56302.05
594.593	56302.05
594.952	56326.23
595.311	56322.39
595.67	56311.09
596.029	56444.42
596.387	56519.22
596.746	56538.43
597.104	56416.17
597.463	56374.37
597.822	56577.52
598.18	56544.08
598.538	56467.92
598.897	56651.42
599.255	56444.42
599.613	56790.63
599.972	56635.83
600.33	56619.1
600.688	56591.53
601.046	56687.13
601.404	56842.15
601.762	56781.36
602.12	56889.61
602.478	56832.21
602.836	56845.99
603.194	56713.79
603.552	56839.89
603.91	56810.74
604.268	56865.88
604.625	56837.18
604.983	57076.95
605.341	56883.96
605.698	57105.42
606.056	57186.55
606.413	57042.37
606.771	57248.69
607.128	57132.54
607.485	57074.46
607.843	57208.02
608.2	57247.79
608.557	57378.86
608.914	57299.76
609.272	57409.59
609.629	57502.92
609.986	57590.15
610.343	57526.88
610.7	57761.9
611.057	57663.82
611.414	57640.32
611.771	57876.7
612.127	57826.76
612.484	57775.01
612.841	57914.66
613.198	57892.97
613.554	57839.86
613.911	58093.87
614.267	58066.75
614.624	58038.05
614.98	58160.76
615.337	58295.67
615.693	58278.5
616.05	58273.07
616.406	58385.39
616.762	58371.6
617.118	58381.54
617.475	58373.63
617.831	58481.2
618.187	58487.53
618.543	58611.14
618.899	58708.77
619.255	58674.42
619.611	58599.39
619.967	58801.19
620.323	58899.95
620.678	58753.06
621.034	58682.33
621.39	58763.68
621.746	58804.36
622.101	59016.78
622.457	58770.01
622.812	58976.33
623.168	58988.31
623.523	58947.86
623.879	59061.53
624.234	58906.05
624.589	58986.27
624.945	59039.15
625.3	58995.77
625.655	59082.77
626.01	59059.27
626.365	59019.49
626.72	59042.54
627.075	59000.96
627.43	59021.98
627.785	59011.81
628.14	59044.13
628.495	59162.99
628.85	59108.76
629.205	59005.93
629.559	59099.49
629.914	59086.16
630.269	59027.4
630.623	58925.94
630.978	58918.93
631.332	59018.59
631.687	59031.24
632.041	58970.91
632.396	58972.71
632.75	59022.66
633.104	59035.31
633.459	58878.48
633.813	58872.15
634.167	58867.18
634.521	58854.3
634.875	58893.17
635.229	58812.95
635.583	58757.13
635.937	58710.8
636.291	58692.95
636.645	58708.54
636.999	58576.57
637.352	58763.68
637.706	58545.16
638.06	58688.65
638.413	58530.24
638.767	58476
639.121	58517.36
639.474	58396.91
639.828	58421.77
640.181	58394.88
640.534	58437.14
640.888	58361.88
641.241	58290.47
641.594	58353.07
641.947	58378.83
642.301	58206.86
642.654	58353.75
643.007	58199.4
643.36	58277.14
643.713	58187.42
644.066	58301.77
644.419	58086.64
644.771	57872.63
645.124	57622.92
645.477	57614.78
645.83	57510.15
646.182	57461.12
646.535	57402.13
646.888	57438.74
647.24	57439.2
647.593	57541.34
647.945	57335.7
648.298	57270.61
648.65	57168.69
649.002	57150.39
649.355	57122.82
649.707	57000.11
650.059	57044.63
650.411	57329.14
650.763	57479.87
651.115	57867.89
651.467	57645.74
651.819	57651.85
652.171	57639.19
652.523	57523.04
652.875	57621.34
653.227	57421.57
653.578	57643.03
653.93	57525.07
654.282	57494.11
654.633	57421.57
654.985	57486.43
655.337	57440.55
655.688	57412.98
656.039	57462.7
656.391	57228.81
656.742	57357.39
657.094	57293.21
657.445	57320.33
657.796	57317.62
658.147	57228.35
658.498	57297.96
658.849	57339.54
659.2	57257.28
659.551	57201.24
659.902	57311.74
660.253	57196.72
660.604	57239.2
660.955	57120.33
661.306	57229.26
661.656	57135.93
662.007	57132.09
662.358	57073.1
662.708	57143.38
663.059	57024.97
663.409	56864.3
663.76	57022.71
664.11	56954.91
664.461	57013.9
664.811	57002.15
665.161	56995.59
665.511	56917.18
665.862	56942.26
666.212	56976.16
666.562	56962.6
666.912	56879.66
667.262	56805.99
667.612	56852.77
667.962	56876.5
668.312	56848.93
668.662	56989.26
669.011	56963.28
669.361	56820.23
669.711	56816.39
670.06	56774.13
670.41	56725.77
670.76	56692.55
671.109	56890.51
671.459	56829.49
671.808	56798.76
672.157	56822.71
672.507	56634.92
672.856	56674.92
673.205	56699.33
673.554	56738.88
673.904	56655.04
674.253	56831.08
674.602	56720.8
674.951	56375.95
675.3	56175.95
675.649	56693.45
675.998	56673.11
676.346	56694.36
676.695	56700.68
677.044	56455.04
677.393	56597.41
677.741	56653.91
678.09	56540.24
678.438	56496.4
678.787	56564.42
679.135	56526.45
679.484	56381.6
679.832	56464.76
680.181	56484.42
680.529	56486.9
680.877	56412.78
681.225	56346.8
681.573	56500.46
681.922	56385.44
682.27	56279.9
682.618	56383.63
682.966	56249.4
683.314	56237.19
683.661	56230.41
684.009	56192.22
684.357	56110.87
684.705	56039.68
685.053	56225.44
685.4	56025.22
685.748	55912.23
686.095	55910.87
686.443	55791.33
686.79	55810.54
687.138	55942.29
687.485	55938.44
687.832	55803.98
688.18	55842.4
688.527	55740.26
688.874	55691.22
689.221	55678.34
689.568	55562.86
689.915	55493.03
690.262	55497.33
690.609	55423.43
690.956	55411
691.303	55378.69
691.65	55180.95
691.997	55227.05
692.344	55102.08
692.69	55107.28
693.037	55140.27
693.383	54862.99
693.73	55006.27
694.077	54858.25
694.423	54843.11
694.769	54803.56
695.116	54718.59
695.462	54676.1
695.808	54566.96
696.155	54668.87
696.501	54370.12
696.847	54458.48
697.193	54276.57
697.539	54372.84
697.885	54129.23
698.231	54101.66
698.577	54093.07
698.923	54057.36
699.269	53862.11
699.614	53786.41
699.96	53724.94
700.306	53711.38
700.651	53680.2
700.997	53459.19
701.342	53482.46
701.688	53511.16
702.033	53325.86
702.379	53203.15
702.724	53150.5
703.069	53285.41
703.415	52949.6
703.76	52920.44
704.105	52929.94
704.45	52835.02
704.795	52712.54
705.14	52703.95
705.485	52597.52
705.83	52341.93
706.175	52494.24
706.52	52421.93
706.865	52299.44
707.209	52093.57
707.554	52108.04
707.899	52177.19
708.243	52064.42
708.588	52032.78
708.932	51792.56
709.277	51890.87
709.621	51732.68
709.966	51539.24
710.31	51545.57
710.654	51414.72
710.998	51510.31
711.342	51466.92
711.687	51271.45
712.031	51276.87
712.375	51103.09
712.719	51079.59
713.063	50906.71
713.407	51141.96
713.75	50982.42
714.094	50948.75
714.438	50710.79
714.782	50856.54
715.125	50554.18
715.469	50705.59
715.812	50464.69
716.156	50474.63
716.499	50420.62
716.843	50424.24
717.186	50200.52
717.53	50359.83
717.873	50392.15
718.216	50247.75
718.559	50108.32
718.902	49799.62
719.246	49885.04
719.589	49779.06
719.932	49645.5
720.275	49713.98
720.617	49652.73
720.96	49518.5
721.303	49482.34
721.646	49628.78
721.989	49400.09
722.331	49550.36
722.674	49385.62
723.016	49335.68
723.359	49291.16
723.701	49293.42
724.044	49201.45
724.386	48866.99
724.729	49006.65
725.071	49057.27
725.413	48963.03
725.755	48923.94
726.097	48707.9
726.439	48591.07
726.782	48562.37
727.124	48821.8
727.465	48624.51
727.807	48536.15
728.149	48473.33
728.491	48196.95
728.833	48402.82
729.175	48232.21
729.516	48174.35
729.858	48213.45
730.199	48272.43
730.541	48184.52
730.882	48055.71
731.224	48045.54
731.565	47871.99
731.906	47915.6
732.248	47927.81
732.589	47680.81
732.93	47577.53
733.271	47788.83
733.612	47606.23
733.953	47721.03
734.294	47503.64
734.635	47445.79
734.976	47613.92
735.317	47389.29
735.658	47305.23
735.999	47227.49
736.339	47239.69
736.68	47251.67
737.021	47200.82
737.361	47041.28
737.702	47217.09
738.042	47046.47
738.383	47006.48
738.723	47180.93
739.063	46887.83
739.404	47136.19
739.744	46867.04
740.084	46798.12
740.424	46813.94
740.764	46710.21
741.104	46793.15
741.444	46509.99
741.784	46500.27
742.124	46626.37
742.464	46568.52
742.804	46571.69
743.143	46306.38
743.483	46427.06
743.823	46143.67
744.162	46317.45
744.502	46229.55
744.841	45927.63
745.181	46196.78
745.52	46060.29
745.86	46090.34
746.199	45999.95
746.538	45898.26
746.877	46029.78
747.216	45975.32
747.556	45723.12
747.895	45854.42
748.234	45755.44
748.573	45631.14
748.911	45435.67
749.25	45431.15
749.589	45331.49
749.928	45304.6
750.267	45312.06
750.605	45295.33
750.944	45213.98
751.283	45062.57
751.621	45189.8
751.96	44964.95
752.298	44939.19
752.636	44903.03
752.975	44829.58
753.313	44613.77
753.651	44741.9
753.989	44526.77
754.327	44471.85
