Data from 100_FLMS001491_008.txt Node
Date: Thu Apr 12 17:09:46 BST 2018
User: hsy
Spectrometer: FLMS00149
Trigger mode: 0
Integration Time (sec): 1.000000E-2
Scans to average: 10
Electric dark correction enabled: true
Nonlinearity correction enabled: false
Boxcar width: 0
XAxis mode: Wavelengths
Number of Pixels in Spectrum: 2048
>>>>>Begin Spectral Data<<<<<
341.393	-4.1
341.776	-4.1
342.16	-4.1
342.543	-48.84
342.927	-52.23
343.31	-78.22
343.693	-78.9
344.077	-60.37
344.46	-71.66
344.843	-49.29
345.226	-44.09
345.61	-24.66
345.993	-12.23
346.376	5.85
346.759	12.4
347.142	42.23
347.525	49.69
347.908	65.96
348.291	47.65
348.674	82
349.057	113.64
349.44	137.82
349.823	145.96
350.206	160.87
350.588	238.84
350.971	250.13
351.354	264.15
351.737	282.68
352.119	291.49
352.502	290.81
352.884	310.92
353.267	329.45
353.65	369
354.032	351.83
354.414	358.61
354.797	355.67
355.179	347.76
355.562	377.36
355.944	351.37
356.326	374.65
356.709	389.79
357.091	363.35
357.473	384.14
357.855	387.76
358.238	382.79
358.62	372.84
359.002	395.44
359.384	369.68
359.766	397.25
360.148	399.28
360.53	390.92
360.912	388.44
361.294	356.57
361.676	391.15
362.057	397.93
362.439	386.4
362.821	384.14
363.203	376.46
363.584	375.33
363.966	377.81
364.348	379.17
364.729	381.88
365.111	373.75
365.493	380.07
365.874	365.39
366.256	389.11
366.637	354.99
367.019	372.62
367.4	378.94
367.781	371.71
368.163	344.6
368.544	378.72
368.925	350.47
369.306	373.75
369.688	371.49
370.069	373.75
370.45	383.92
370.831	348.21
371.212	379.62
371.593	385.05
371.974	362.45
372.355	382.56
372.736	374.43
373.117	372.39
373.498	380.75
373.879	385.72
374.26	372.84
374.641	373.07
375.021	370.13
375.402	367.65
375.783	373.3
376.163	393.86
376.544	392.05
376.925	384.59
377.305	391.6
377.686	382.33
378.066	408.77
378.447	386.4
378.827	410.81
379.208	397.25
379.588	387.08
379.968	416.23
380.349	417.59
380.729	398.15
381.109	422.11
381.489	425.5
381.87	405.61
382.25	412.39
382.63	430.02
383.01	416.46
383.39	438.38
383.77	417.14
384.15	423.01
384.53	428.89
384.91	439.51
385.29	455.33
385.67	430.02
386.049	442.9
386.429	446.06
386.809	452.84
387.189	439.06
387.568	452.39
387.948	448.77
388.328	471.6
388.707	479.28
389.087	446.97
389.466	462.11
389.846	442.45
390.225	474.99
390.605	462.78
390.984	497.36
391.363	488.32
391.743	484.03
392.122	496.68
392.501	505.72
392.881	499.17
393.26	484.93
393.639	515.21
394.018	536.45
394.397	503.01
394.776	494.42
395.155	516.57
395.534	525.16
395.913	518.15
396.292	547.53
396.671	539.39
397.05	543.23
397.429	521.31
397.808	535.32
398.186	545.49
398.565	556.12
398.944	554.99
399.323	578.49
399.701	586.17
400.08	562.89
400.458	571.26
400.837	570.8
401.215	572.61
401.594	577.81
401.972	577.81
402.351	587.07
402.729	600.86
403.107	596.79
403.486	601.76
403.864	576.45
404.242	598.37
404.62	593.4
404.999	624.59
405.377	622.33
405.755	629.79
406.133	644.25
406.511	632.05
406.889	635.66
407.267	677.47
407.645	685.38
408.023	657.58
408.401	677.47
408.779	682.67
409.156	702.55
409.534	714.98
409.912	712.72
410.29	733.96
410.667	733.29
411.045	749.56
411.422	727.41
411.8	766.05
412.178	766.73
412.555	779.16
412.933	773.28
413.31	777.8
413.687	820.52
414.065	808.99
414.442	822.1
414.819	836.56
415.197	843.57
415.574	864.13
415.951	878.37
416.328	876.33
416.705	903.68
417.082	881.98
417.46	914.3
417.837	885.6
418.214	915.65
418.591	930.12
418.967	896.67
419.344	945.94
419.721	945.94
420.098	949.55
420.475	977.35
420.852	961.75
421.228	986.84
421.605	983
421.982	1003.34
422.358	1001.3
422.735	1006.27
423.111	1027.29
423.488	1041.3
423.864	1022.09
424.241	1037.68
424.617	1050.79
424.994	1049.89
425.37	1083.56
425.746	1059.15
426.123	1041.53
426.499	1079.72
426.875	1121.98
427.251	1124.91
427.627	1128.3
428.003	1145.48
428.379	1154.07
428.756	1196.32
429.132	1198.81
429.507	1200.84
429.883	1204.91
430.259	1239.04
430.635	1238.13
431.011	1245.14
431.387	1265.7
431.763	1277.68
432.138	1308.64
432.514	1327.62
432.89	1305.93
433.265	1323.78
433.641	1349.09
434.016	1340.05
434.392	1338.69
434.767	1413.27
435.143	1422.08
435.518	1406.94
435.894	1414.62
436.269	1445.58
436.644	1471.57
437.02	1479.71
437.395	1468.63
437.77	1503.21
438.145	1541.4
438.52	1536.43
438.895	1558.35
439.271	1512.47
439.646	1536.88
440.021	1589.08
440.395	1561.96
440.77	1568.97
441.145	1620.72
441.52	1603.55
441.895	1590.89
442.27	1646.03
442.645	1634.05
443.019	1666.59
443.394	1667.27
443.769	1658.91
444.143	1665.69
444.518	1703.2
444.892	1676.54
445.267	1691
445.641	1674.28
446.016	1720.83
446.39	1721.51
446.764	1744.78
447.139	1738.91
447.513	1758.34
447.887	1784.11
448.262	1789.08
448.636	1775.74
449.01	1805.8
449.384	1827.49
449.758	1817.55
450.132	1851.67
450.506	1845.12
450.88	1865.23
451.254	1912.24
451.628	1909.75
452.002	1923.76
452.376	1954.5
452.75	1983.2
453.123	1952.24
453.497	1999.24
453.871	2003.31
454.244	2043.53
454.618	2071.33
454.992	2095.51
455.365	2106.36
455.739	2163.08
456.112	2177.77
456.486	2214.83
456.859	2237.65
457.232	2251.44
457.606	2281.27
457.979	2300.48
458.352	2376.41
458.725	2359.91
459.099	2386.8
459.472	2432.68
459.845	2463.41
460.218	2488.49
460.591	2512.9
460.964	2526.01
461.337	2593.58
461.71	2624.76
462.083	2665.21
462.456	2662.27
462.829	2709.05
463.201	2719.22
463.574	2747.24
463.947	2759
464.32	2824.08
464.692	2844.42
465.065	2864.76
465.438	2888.71
465.81	2934.36
466.183	2944.75
466.555	2991.98
466.928	3072.21
467.3	3049.61
467.672	3129.38
468.045	3138.65
468.417	3193.79
468.789	3164.63
469.161	3209.38
469.534	3292.54
469.906	3368.02
470.278	3334.8
470.65	3390.39
471.022	3506.77
471.394	3510.84
471.766	3605.98
472.138	3629.71
472.51	3725.3
472.882	3705.41
473.253	3718.07
473.625	3839.19
473.997	3911.96
474.369	3940.89
474.74	4003.48
475.112	4073.76
475.484	4102.69
475.855	4164.16
476.227	4283.02
476.598	4364.83
476.97	4342.68
477.341	4446.41
477.713	4579.74
478.084	4633.75
478.455	4725.27
478.827	4713.07
479.198	4909
479.569	4951.71
479.94	5064.47
480.311	5161.19
480.682	5300.62
481.053	5381.75
481.424	5478.25
481.795	5577.9
482.166	5657
482.537	5755.98
482.908	5927.05
483.279	6011.79
483.65	6095.86
484.021	6329.75
484.391	6372.46
484.762	6461.5
485.133	6570.42
485.503	6671.43
485.874	6826.01
486.244	6957.3
486.615	7151.2
486.985	7222.15
487.356	7461.7
487.726	7476.61
488.097	7771.97
488.467	7878.86
488.837	8097.16
489.207	8200.21
489.578	8383.03
489.948	8500.09
490.318	8743.02
490.688	8813.75
491.058	9071.37
491.428	9322.89
491.798	9406.05
492.168	9737.34
492.538	9818.7
492.908	10036.09
493.278	10185.47
493.648	10335.07
494.017	10542.52
494.387	10767.37
494.757	10944.32
495.126	11295.04
495.496	11393.34
495.866	11585.43
496.235	11803.05
496.605	12023.38
496.974	12207.33
497.344	12483.26
497.713	12723.25
498.082	13000.76
498.452	13235.1
498.821	13386.51
499.19	13557.36
499.559	13821.76
499.928	14092.26
500.298	14258.13
500.667	14612.24
501.036	14666.03
501.405	15035.51
501.774	15232.57
502.143	15497.87
502.512	15745.09
502.88	16115.03
503.249	16284.52
503.618	16524.06
503.987	16721.79
504.356	17017.15
504.724	17248.11
505.093	17511.6
505.462	17780.52
505.83	18075.88
506.199	18335.76
506.567	18706.37
506.936	18885.35
507.304	19283.53
507.672	19402.63
508.041	19673.58
508.409	20006.68
508.777	20302.04
509.145	20620.9
509.514	20747.22
509.882	20971.17
510.25	21262.69
510.618	21545.85
510.986	21763.47
511.354	22075.78
511.722	22456.78
512.09	22837.79
512.458	22791.91
512.826	23262.86
513.193	23392.35
513.561	23655.62
513.929	23831.21
514.297	24226.68
514.664	24525.88
515.032	24818.53
515.4	25037.73
515.767	25235.01
516.135	25465.29
516.502	25482.92
516.869	26082.22
517.237	26225.95
517.604	26237.93
517.972	26812.83
518.339	27000.62
518.706	27180.95
519.073	27373.94
519.44	27625.69
519.808	28106.35
520.175	28077.2
520.542	28663.17
520.909	28801.02
521.276	29084.63
521.643	29493.21
522.009	29641.23
522.376	29952.4
522.743	30193.08
523.11	30452.05
523.477	30834.42
523.843	31135.65
524.21	31512.14
524.577	31667.61
524.943	31990.09
525.31	32230.76
525.676	32673.01
526.043	32936.51
526.409	33072.77
526.776	33567.45
527.142	33598.64
527.508	33875.01
527.874	34263.93
528.241	34467.54
528.607	34616.01
528.973	35039.73
529.339	35086.28
529.705	35474.75
530.071	35908.86
530.437	36077.44
530.803	36279.7
531.169	36480.14
531.535	36611.44
531.901	36827.93
532.267	37017.3
532.632	37422.26
532.998	37482.83
533.364	37678.3
533.73	37842.59
534.095	38230.6
534.461	38331.85
534.826	38626.53
535.192	38699.29
535.557	38969.57
535.923	39089.79
536.288	39243.23
536.653	39481.87
537.019	39430.8
537.384	39749.21
537.749	39729.32
538.114	39985.59
538.479	39881.18
538.845	40412.24
539.21	40245.02
539.575	40402.07
539.94	40696.08
540.305	40948.05
540.67	40960.48
541.034	41072.56
541.399	41234.59
541.764	41316.17
542.129	41600.23
542.494	41656.96
542.858	41893.56
543.223	41825.54
543.587	42102.59
543.952	42214.23
544.316	42287.67
544.681	42227.56
545.045	42572.41
545.41	42700.77
545.774	42723.82
546.138	42807.43
546.503	43038.16
546.867	43298.04
547.231	43494.65
547.595	43527.41
547.959	43698.94
548.324	43826.62
548.688	43874.07
549.052	43939.83
549.416	44045.59
549.779	44263.89
550.143	44429.54
550.507	44638.35
550.871	44753.15
551.235	44821.84
551.599	45302.06
551.962	45252.57
552.326	45408.5
552.689	45443.3
553.053	45310.87
553.417	45683.52
553.78	46040.12
554.143	46140.91
554.507	46261.81
554.87	46497.28
555.234	46846.65
555.597	46682.13
555.96	46933.65
556.323	47045.97
556.686	47124.38
557.05	47501.32
557.413	47611.83
557.776	47661.54
558.139	48005.94
558.502	48058.82
558.865	48029.9
559.228	48539.49
559.59	48657.68
559.953	48690.89
560.316	49148.28
560.679	49172.01
561.041	49387.83
561.404	49617.65
561.767	49836.85
562.129	49913.69
562.492	50181.7
562.854	50270.29
563.217	50342.6
563.579	50454.92
563.941	50823.95
564.304	50959.31
564.666	51177.84
565.028	51132.41
565.39	51312.75
565.753	51555.23
566.115	51704.83
566.477	51846.97
566.839	51870.47
567.201	52285.6
567.563	52173.29
567.925	52342.1
568.287	52507.29
568.648	52680.85
569.01	52768.53
569.372	53025.92
569.734	53016.66
570.095	53232.47
570.457	53423.88
570.819	53434.72
571.18	53507.49
571.542	53707.94
571.903	53846.92
572.265	53879.23
572.626	54033.81
572.987	54106.57
573.349	54208.04
573.71	54398.32
574.071	54424.76
574.432	54649.16
574.794	54775.48
575.155	54768.02
575.516	54736.84
575.877	54952.2
576.238	54975.25
576.599	55070.84
576.96	55189.03
577.32	55143.38
577.681	55234.9
578.042	55342.25
578.403	55422.7
578.763	55473.09
579.124	55429.93
579.485	55628.79
579.845	55724.38
580.206	55662.24
580.566	55725.74
580.927	55773.42
581.287	55869.24
581.648	55725.51
582.008	55913.3
582.368	55843.25
582.728	55942.91
583.089	55894.55
583.449	55901.55
583.809	55939.07
584.169	55983.13
584.529	55886.19
584.889	56142
585.249	55935.9
585.609	55918.73
585.969	56104.94
586.329	55983.81
586.688	56140.64
587.048	56005.5
587.408	56011.83
587.768	55949.01
588.127	56058.84
588.487	55953.75
588.846	56219.96
589.206	55949.91
589.565	56002.12
589.925	56130.47
590.284	56032.4
590.643	56026.3
591.003	56133.64
591.362	56277.59
591.721	56133.64
592.08	56167.76
592.44	56282.11
592.799	56190.36
593.158	56153.07
593.517	56086.86
593.876	56222.9
594.235	56253.63
594.593	56170.02
594.952	56191.26
595.311	56179.06
595.67	56190.81
596.029	56381.99
596.387	56415.21
596.746	56389
597.104	56263.13
597.463	56268.1
597.822	56474.65
598.18	56375.89
598.538	56384.48
598.897	56514.42
599.255	56259.74
599.613	56634.87
599.972	56463.57
600.33	56514.87
600.688	56570.24
601.046	56586.05
601.404	56754.41
601.762	56709.22
602.12	56777.24
602.478	56791.47
602.836	56830.79
603.194	56588.99
603.552	56754.41
603.91	56681.65
604.268	56820.17
604.625	56720.29
604.983	56915.31
605.341	56755.54
605.698	56932.26
606.056	57014.07
606.413	56994.63
606.771	57111.92
607.128	57129.09
607.485	57097.45
607.843	57021.3
608.2	57197.56
608.557	57271.46
608.914	57219.03
609.272	57371.34
609.629	57442.08
609.986	57535.86
610.343	57432.81
610.7	57595.07
611.057	57628.29
611.414	57520.95
611.771	57653.82
612.127	57721.39
612.484	57821.73
612.841	57864.44
613.198	57773.59
613.554	57705.8
613.911	57988.05
614.267	57974.27
614.624	57955.51
614.98	58055.85
615.337	58182.85
615.693	58129.52
616.05	58145.79
616.406	58259.91
616.762	58268.27
617.118	58272.34
617.475	58307.14
617.831	58304.2
618.187	58458.77
618.543	58442.73
618.899	58522.27
619.255	58453.8
619.611	58470.52
619.967	58641.82
620.323	58675.04
620.678	58573.12
621.034	58605.89
621.39	58629.84
621.746	58670.52
622.101	58884.98
622.457	58711.2
622.812	58886.78
623.168	58852.21
623.523	58867.8
623.879	58947.8
624.234	58870.74
624.589	58914.81
624.945	58908.03
625.3	58993.67
625.655	58998.19
626.01	58976.5
626.365	58986.67
626.72	58922.26
627.075	58920.68
627.43	58929.95
627.785	58996.84
628.14	58858.99
628.495	58939.66
628.85	58996.39
629.205	58918.87
629.559	58995.03
629.914	58876.16
630.269	58913
630.623	58808.82
630.978	58729.27
631.332	58894.69
631.687	58876.84
632.041	58860.12
632.396	58907.58
632.75	58810.85
633.104	58848.37
633.459	58726.11
633.813	58728.37
634.167	58785.32
634.521	58797.75
634.875	58744.64
635.229	58703.51
635.583	58530.64
635.937	58604.98
636.291	58573.35
636.645	58577.19
636.999	58569.73
637.352	58530.41
637.706	58429.4
638.06	58514.37
638.413	58504.87
638.767	58348.95
639.121	58411.54
639.474	58277.31
639.828	58349.17
640.181	58265.56
640.534	58314.6
640.888	58194.83
641.241	58156.18
641.594	58181.94
641.947	58210.87
642.301	58098.33
642.654	58136.97
643.007	58093.13
643.36	58210.64
643.713	58009.97
644.066	58146.47
644.419	57971.55
644.771	57677.78
645.124	57456.77
645.477	57419.25
645.83	57325.47
646.182	57277.56
646.535	57236.21
646.888	57350.78
647.24	57219.71
647.593	57352.14
647.945	57256.09
648.298	57123.44
648.65	57052.48
649.002	56942.43
649.355	56885.71
649.707	56747.41
650.059	56837.57
650.411	57168.64
650.763	57260.39
651.115	57646.37
651.467	57500.61
651.819	57517.78
652.171	57389.88
652.523	57335.64
652.875	57393.94
653.227	57287.73
653.578	57506.71
653.93	57364.34
654.282	57267.84
654.633	57192.37
654.985	57177.9
655.337	57311.01
655.688	57221.07
656.039	57236.21
656.391	56999.83
656.742	57103.78
657.094	57055.42
657.445	57152.14
657.796	57123.67
658.147	57055.42
658.498	57060.84
658.849	57122.99
659.2	57020.85
659.551	56899.27
659.902	57089.54
660.253	56948.3
660.604	57007.06
660.955	56906.27
661.306	57067.4
661.656	56870.79
662.007	56877.35
662.358	56938.14
662.708	56896.55
663.059	56877.12
663.409	56681.42
663.76	56844.35
664.11	56805.26
664.461	56872.15
664.811	56831.7
665.161	56758.03
665.511	56721.42
665.862	56754.86
666.212	56764.81
666.562	56834.18
666.912	56767.74
667.262	56650.69
667.612	56659.95
667.962	56654.75
668.312	56641.19
668.662	56825.14
669.011	56653.85
669.361	56747.41
669.711	56734.98
670.06	56698.82
670.41	56588.99
670.76	56593.29
671.109	56654.53
671.459	56627.64
671.808	56580.4
672.157	56681.19
672.507	56566.85
672.856	56447.3
673.205	56598.71
673.554	56661.31
673.904	56491.82
674.253	56746.05
674.602	56535.89
674.951	56172.96
675.3	56115.56
675.649	56501.31
675.998	56508.09
676.346	56531.37
676.695	56592.16
677.044	56390.13
677.393	56509.22
677.741	56451.82
678.09	56419.28
678.438	56349.22
678.787	56438.04
679.135	56448.66
679.484	56289.57
679.832	56355.78
680.181	56279.62
680.529	56362.78
680.877	56223.58
681.225	56179.06
681.573	56355.55
681.922	56226.06
682.27	56084.37
682.618	56170.7
682.966	56113.52
683.314	56157.14
683.661	56180.64
684.009	55979.29
684.357	55959.4
684.705	55929.57
685.053	55991.04
685.4	55829.01
685.748	55817.26
686.095	55822.46
686.443	55690.71
686.79	55692.29
687.138	55733.42
687.485	55711.73
687.832	55636.25
688.18	55690.48
688.527	55499.98
688.874	55569.58
689.221	55615.01
689.568	55421.34
689.915	55348.12
690.262	55376.37
690.609	55342.47
690.956	55204.62
691.303	55202.81
691.65	55052.76
691.997	55060.67
692.344	54881.69
692.69	54872.43
693.037	54910.17
693.383	54699.55
693.73	54763.5
694.077	54597.18
694.423	54688.7
694.769	54472.89
695.116	54572.55
695.462	54354.93
695.808	54335.49
696.155	54441.48
696.501	54102.5
696.847	54243.74
697.193	54044.88
697.539	54027.25
697.885	53889.4
698.231	53862.51
698.577	53886.01
698.923	53789.07
699.269	53653.02
699.614	53571.9
699.96	53539.35
700.306	53466.36
700.651	53411.67
700.997	53272.92
701.342	53193.38
701.688	53219.36
702.033	53024.34
702.379	53035.64
702.724	52923.33
703.069	53053.94
703.415	52698.93
703.76	52721.07
704.105	52691.02
704.45	52570.57
704.795	52492.6
705.14	52341.19
705.485	52396.56
705.83	52231.82
706.175	52259.39
706.52	52246.51
706.865	51995.89
707.209	51984.82
707.554	51910.92
707.899	51922.45
708.243	51703.92
708.588	51729.23
708.932	51569.01
709.277	51607.65
709.621	51396.81
709.966	51280.21
710.31	51404.5
710.654	51157.95
710.998	51269.81
711.342	51204.05
711.687	51125.18
712.031	50844.96
712.375	50797.73
712.719	50807.9
713.063	50658.75
713.407	50870.27
713.75	50543.05
714.094	50611.3
714.438	50542.15
714.782	50496.72
715.125	50296.05
715.469	50414.47
715.812	50046.11
716.156	50034.59
716.499	50036.85
716.843	50153.91
717.186	49903.29
717.53	50024.19
717.873	49952.56
718.216	49902.39
718.559	49884.54
718.902	49516.86
719.246	49565.22
719.589	49457.88
719.932	49350.31
720.275	49320.48
720.617	49340.82
720.96	49257.89
721.303	49280.26
721.646	49368.84
721.989	48998.68
722.331	49109.19
722.674	49020.6
723.016	48946.03
723.359	48739.71
723.701	48859.7
724.044	48820.83
724.386	48654.96
724.729	48824.45
725.071	48698.58
725.413	48669.88
725.755	48452.26
726.097	48522.31
726.439	48386.27
726.782	48322.99
727.124	48553.5
727.465	48331.36
727.807	48066.96
728.149	48227.18
728.491	47938.15
728.833	48024.7
729.175	47908.99
729.516	47935.89
729.858	47773.63
730.199	47880.29
730.541	47780.86
730.882	47660.19
731.224	47656.8
731.565	47492.73
731.906	47530.93
732.248	47650.47
732.589	47293.64
732.93	47256.36
733.271	47248.9
733.612	47311.5
733.953	47366.86
734.294	47167.77
734.635	47069.69
734.976	47290.48
735.317	47038.73
735.658	47028.11
735.999	46870.83
736.339	47012.52
736.68	46939.98
737.021	46802.58
737.361	46701.12
737.702	46979.53
738.042	46596.94
738.383	46660.67
738.723	46681.68
739.063	46567.33
739.404	46552.65
739.744	46555.81
740.084	46299.77
740.424	46437.62
740.764	46371.63
741.104	46508.58
741.444	46221.58
741.784	46136.16
742.124	46250.28
742.464	46128.25
742.804	45978.88
743.143	45929.39
743.483	46117.63
743.823	45815.49
744.162	45706.11
744.502	45767.58
744.841	45768.03
745.181	45892.1
745.52	45669.96
745.86	45714.02
746.199	45608.94
746.538	45583.41
746.877	45700.69
747.216	45517.42
747.556	45433.13
747.895	45413.01
748.234	45321.72
748.573	45282.17
748.911	45213.92
749.25	45243.75
749.589	44928.06
749.928	45028.84
750.267	45071.56
750.605	44976.64
750.944	44839.47
751.283	44894.16
751.621	44711.34
751.96	44679.93
752.298	44517.45
752.636	44623.43
752.975	44370.56
753.313	44111.35
753.651	44530.33
753.989	44168.75
754.327	44289.43
