Data from 100_FLMS001491_004.txt Node
Date: Thu Apr 12 17:09:37 BST 2018
User: hsy
Spectrometer: FLMS00149
Trigger mode: 0
Integration Time (sec): 1.000000E-2
Scans to average: 10
Electric dark correction enabled: true
Nonlinearity correction enabled: false
Boxcar width: 0
XAxis mode: Wavelengths
Number of Pixels in Spectrum: 2048
>>>>>Begin Spectral Data<<<<<
341.393	-2.78
341.776	-2.78
342.16	-2.78
342.543	-63.8
342.927	-64.93
343.31	-78.26
343.693	-58.37
344.077	-61.54
344.46	-57.02
344.843	-72.16
345.226	-9.11
345.61	-45.27
345.993	-17.02
346.376	-17.7
346.759	14.62
347.142	19.36
347.525	33.83
347.908	48.52
348.291	78.57
348.674	98.46
349.057	123.09
349.44	133.03
349.823	144.33
350.206	173.94
350.588	213.71
350.971	252.58
351.354	273.14
351.737	259.81
352.119	294.16
352.502	300.71
352.884	300.94
353.267	325.12
353.65	326.7
354.032	358.34
354.414	361.95
354.797	351.56
355.179	349.52
355.562	376.19
355.944	377.77
356.326	385
356.709	380.03
357.091	399.92
357.473	395.85
357.855	377.09
358.238	356.3
358.62	395.17
359.002	379.35
359.384	366.7
359.766	394.72
360.148	379.13
360.53	418
360.912	374.61
361.294	385.46
361.676	378
362.057	386.13
362.439	394.95
362.821	400.14
363.203	389.52
363.584	383.87
363.966	391.56
364.348	366.47
364.729	375.29
365.111	394.27
365.493	385.91
365.874	364.21
366.256	372.57
366.637	365.34
367.019	362.63
367.4	380.48
367.781	356.08
368.163	369.64
368.544	384.78
368.925	375.74
369.306	379.81
369.688	376.42
370.069	377.55
370.45	373.93
370.831	365.57
371.212	366.93
371.593	388.39
371.974	370.32
372.355	388.17
372.736	379.58
373.117	379.58
373.498	384.1
373.879	387.72
374.26	379.35
374.641	364.21
375.021	357.66
375.402	387.04
375.783	423.2
376.163	413.7
376.544	420.03
376.925	389.3
377.305	407.83
377.686	408.28
378.066	401.05
378.447	395.85
378.827	396.3
379.208	423.87
379.588	411.44
379.968	407.15
380.349	407.38
380.729	410.77
381.109	422.29
381.489	430.43
381.87	417.55
382.25	437.88
382.63	431.78
383.01	416.19
383.39	439.92
383.77	451.89
384.15	429.97
384.53	436.53
384.91	438.79
385.29	445.57
385.67	453.7
386.049	455.96
386.429	473.14
386.809	472.91
387.189	464.78
387.568	468.39
387.948	457.09
388.328	460.93
388.707	473.36
389.087	475.17
389.466	466.58
389.846	483.08
390.225	473.14
390.605	496.41
390.984	491.67
391.363	484.89
391.743	512.68
392.122	491.44
392.501	512.68
392.881	499.58
393.26	478.11
393.639	511.78
394.018	506.58
394.397	517.88
394.776	522.4
395.155	519.01
395.534	522.18
395.913	525.34
396.292	525.11
396.671	544.32
397.05	554.04
397.429	524.21
397.808	570.08
398.186	551.55
398.565	548.39
398.944	539.58
399.323	560.37
399.701	565.79
400.08	584.77
400.458	580.48
400.837	595.85
401.215	580.71
401.594	561.95
401.972	591.1
402.351	603.08
402.729	596.52
403.107	618.44
403.486	610.76
403.864	604.89
404.242	626.58
404.62	624.77
404.999	628.16
405.377	649.18
405.755	627.26
406.133	655.73
406.511	662.74
406.889	675.39
407.267	668.16
407.645	701.61
408.023	670.87
408.401	684.66
408.779	698.44
409.156	726.92
409.534	722.62
409.912	753.36
410.29	749.51
410.667	735.96
411.045	772.11
411.422	761.27
411.8	777.76
412.178	794.71
412.555	807.59
412.933	815.28
413.31	841.26
413.687	841.49
414.065	836.74
414.442	862.73
414.819	864.99
415.197	862.51
415.574	872.9
415.951	884.43
416.328	889.85
416.705	922.17
417.082	922.39
417.46	917.87
417.837	912.45
418.214	925.78
418.591	977.53
418.967	957.42
419.344	951.99
419.721	980.24
420.098	960.13
420.475	996.06
420.852	987.7
421.228	1017.3
421.605	1016.85
421.982	1026.34
422.358	1034.7
422.735	1047.36
423.111	1047.13
423.488	1039.45
423.864	1069.51
424.241	1056.17
424.617	1101.14
424.994	1073.35
425.37	1092.33
425.746	1117.19
426.123	1108.37
426.499	1081.71
426.875	1141.14
427.251	1158.99
427.627	1173.68
428.003	1188.15
428.379	1210.75
428.756	1221.82
429.132	1224.98
429.507	1215.94
429.883	1235.15
430.259	1283.29
430.635	1257.52
431.011	1276.96
431.387	1321.93
431.763	1324.41
432.138	1336.84
432.514	1360.8
432.89	1373.23
433.265	1387.24
433.641	1403.28
434.016	1382.27
434.392	1455.48
434.767	1470.85
435.143	1435.82
435.518	1474.24
435.894	1473.11
436.269	1478.31
436.644	1486.67
437.02	1549.95
437.395	1546.78
437.77	1533.22
438.145	1572.09
438.52	1556.95
438.895	1618.42
439.271	1610.06
439.646	1641.69
440.021	1639.66
440.395	1641.24
440.77	1616.16
441.145	1644.18
441.52	1667.46
441.895	1694.8
442.27	1688.47
442.645	1674.46
443.019	1700
443.394	1713.56
443.769	1741.13
444.143	1752.65
444.518	1749.04
444.892	1751.97
445.267	1757.17
445.641	1747.45
446.016	1787.9
446.39	1794.23
446.764	1789.94
447.139	1808.92
447.513	1841.69
447.887	1839.66
448.262	1840.78
448.636	1848.47
449.01	1892.08
449.384	1922.14
449.758	1917.62
450.132	1920.78
450.506	1938.86
450.88	1938.64
451.254	1952.65
451.628	2009.59
452.002	2043.04
452.376	1998.29
452.75	2057.95
453.123	2088.91
453.497	2102.47
453.871	2068.8
454.244	2153.32
454.618	2151.29
454.992	2225.86
455.365	2232.87
455.739	2288.23
456.112	2284.16
456.486	2305.63
456.859	2302.24
457.232	2394.44
457.606	2399.87
457.979	2426.98
458.352	2468.34
458.725	2499.3
459.099	2505.85
459.472	2534.78
459.845	2619.3
460.218	2587.88
460.591	2635.79
460.964	2641.22
461.337	2702.91
461.71	2739.97
462.083	2791.72
462.456	2795.56
462.829	2812.06
463.201	2869.23
463.574	2854.54
463.947	2895.67
464.32	2927.31
464.692	2947.2
465.065	2973.41
465.438	3008.21
465.81	3078.04
466.183	3038.95
466.555	3175.21
466.928	3177.25
467.3	3190.58
467.672	3228.77
468.045	3294.98
468.417	3287.3
468.789	3318.94
469.161	3392.16
469.534	3445.49
469.906	3516.9
470.278	3531.14
470.65	3557.8
471.022	3659.27
471.394	3666.95
471.766	3712.6
472.138	3791.92
472.51	3845.48
472.882	3873.27
473.253	3937.9
473.625	4006.15
473.997	4075.53
474.369	4112.36
474.74	4192.59
475.112	4190.78
475.484	4342.19
475.855	4399.14
476.227	4448.85
476.598	4595.51
476.97	4599.81
477.341	4689.07
477.713	4812.46
478.084	4841.38
478.455	4956.41
478.827	5026.46
479.198	5174.48
479.569	5224.42
479.94	5334.7
480.311	5403.86
480.682	5550.97
481.053	5654.24
481.424	5778.76
481.795	5810.62
482.166	5936.27
482.537	6060.34
482.908	6195.25
483.279	6229.37
483.65	6405.86
484.021	6592.75
484.391	6658.74
484.762	6748.45
485.133	6879.75
485.503	7023.25
485.874	7267.08
486.244	7301.66
486.615	7512.27
486.985	7622.55
487.356	7775.09
487.726	7931.02
488.097	8159.71
488.467	8225.02
488.837	8427.96
489.207	8603.09
489.578	8785.91
489.948	8937.32
490.318	9172.57
490.688	9185.22
491.058	9502.05
491.428	9687.58
491.798	9815.49
492.168	10146.78
492.538	10236.5
492.908	10469.71
493.278	10713.77
493.648	10855.01
494.017	11109.47
494.387	11297.49
494.757	11439.18
495.126	11750.35
495.496	11896.79
495.866	12110.57
496.235	12308.53
496.605	12630.33
496.974	12747.39
497.344	12958.23
497.713	13151.67
498.082	13377.2
498.452	13722.96
498.821	13964.99
499.19	14057.19
499.559	14378.53
499.928	14495.59
500.298	14899.65
500.667	15054.22
501.036	15284.27
501.405	15528.33
501.774	15774.66
502.143	16059.39
502.512	16283.57
502.88	16632.03
503.249	16694.18
503.618	17104.11
503.987	17219.59
504.356	17522.63
504.724	17806.92
505.093	18024.31
505.462	18243.74
505.83	18580.46
506.199	18873.78
506.567	19173.21
506.936	19443.26
507.304	19775.91
507.672	20075.56
508.041	20221.77
508.409	20524.59
508.777	20738.37
509.145	21151.01
509.514	21341.74
509.882	21640.49
510.25	21982.18
510.618	22174.26
510.986	22393.46
511.354	22666.23
511.722	22965.88
512.09	23365.64
512.458	23371.97
512.826	23657.16
513.193	23919.07
513.561	24206.98
513.929	24459.17
514.297	24869.56
514.664	25133.05
515.032	25381.86
515.4	25630.44
515.767	25898.68
516.135	26109.75
516.502	26112.01
516.869	26708.61
517.237	26865.66
517.604	26890.97
517.972	27495.7
518.339	27547.23
518.706	27808.46
519.073	27956.26
519.44	28383.59
519.808	28719.4
520.175	28880.98
520.542	29343.56
520.909	29464.24
521.276	29681.63
521.643	30143.09
522.009	30242.98
522.376	30647.71
522.743	30778.78
523.11	31280.69
523.477	31565.88
523.843	31803.39
524.21	32245.64
524.577	32505.52
524.943	32638.62
525.31	32803.81
525.676	33386.85
526.043	33634.98
526.409	33741.87
526.776	34202.87
527.142	34308.63
527.508	34678.11
527.874	35055.05
528.241	35170.53
528.607	35390.64
528.973	35848.93
529.339	35905.2
529.705	36462.7
530.071	36743.82
530.437	36796.93
530.803	37099.74
531.169	37399.17
531.535	37422.9
531.901	37791.03
532.267	37777.02
532.632	38194.18
532.998	38392.59
533.364	38694.51
533.73	38653.38
534.095	39136.75
534.461	39202.29
534.826	39484.77
535.192	39598.21
535.557	39976.96
535.923	39929.95
536.288	40083.4
536.653	40300.11
537.019	40472.76
537.384	40500.33
537.749	40698.52
538.114	40782.59
538.479	40936.71
538.845	41131.28
539.21	41145.97
539.575	41362.91
539.94	41591.83
540.305	41876.79
540.67	41865.72
541.034	41967.64
541.399	41985.27
541.764	42193.62
542.129	42318.14
542.494	42440.62
542.858	42724.91
543.223	42564.69
543.587	43015.3
543.952	43034.73
544.316	43199.47
544.681	43181.62
545.045	43619.12
545.41	43673.13
545.774	43658.67
546.138	43726.92
546.503	43987.25
546.867	44136.85
547.231	44283.51
547.595	44450.29
547.959	44496.39
548.324	44636.5
548.688	44808.47
549.052	45089.14
549.416	44984.96
549.779	45132.08
550.143	45289.36
550.507	45530.71
550.871	45763.92
551.235	45630.59
551.599	46150.35
551.962	46178.83
552.326	46309.9
552.689	46512.15
553.053	46238.71
553.417	46600.29
553.78	47047.51
554.143	47028.07
554.507	47246.14
554.87	47289.53
555.234	47740.82
555.597	47501.28
555.96	47771.1
556.323	47900.59
556.686	48041.38
557.05	48444.53
557.413	48426.23
557.776	48531.53
558.139	48763.39
558.502	48957.96
558.865	48958.64
559.228	49272.76
559.59	49381.68
559.953	49591.39
560.316	50026.18
560.679	49997.48
561.041	50223.92
561.404	50409.68
561.767	50639.73
562.129	50640.18
562.492	50952.71
562.854	51042.88
563.217	51079.72
563.579	51266.6
563.941	51526.48
564.304	51549.08
564.666	51843.99
565.028	51958.34
565.39	52048.73
565.753	52337.31
566.115	52351.32
566.477	52430.87
566.839	52614.59
567.201	52897.07
567.563	52874.25
567.925	53062.49
568.287	53035.37
568.648	53296.83
569.01	53489.37
569.372	53714.45
569.734	53717.84
570.095	53808.23
570.457	54082.35
570.819	54074.44
571.18	54221.1
571.542	54436.24
571.903	54389.01
572.265	54648.66
572.626	54703.35
572.987	54703.35
573.349	54874.19
573.71	55020.63
574.071	55061.31
574.432	55191.47
574.794	55373.16
575.155	55359.6
575.516	55415.42
575.877	55489.09
576.238	55568.19
576.599	55697
576.96	55672.82
577.32	55826.94
577.681	55937.67
578.042	56009.08
578.403	56002.52
578.763	56010.21
579.124	56138.34
579.485	56190.99
579.845	56288.17
580.206	56277.32
580.566	56240.71
580.927	56262.63
581.287	56448.61
581.648	56412.91
582.008	56566.13
582.368	56554.83
582.728	56460.82
583.089	56437.77
583.449	56497.65
583.809	56490.42
584.169	56618.33
584.529	56597.76
584.889	56694.71
585.249	56554.15
585.609	56464.66
585.969	56640.25
586.329	56492.23
586.688	56632.79
587.048	56587.82
587.408	56618.1
587.768	56532.68
588.127	56624.66
588.487	56596.41
588.846	56803.63
589.206	56519.12
589.565	56579.23
589.925	56725.44
590.284	56679.57
590.643	56636.18
591.003	56710.3
591.362	56821.26
591.721	56737.65
592.08	56727.25
592.44	56835.72
592.799	56792.56
593.158	56807.93
593.517	56760.7
593.876	56820.81
594.235	56790.75
594.593	56792.56
594.952	56770.41
595.311	56758.44
595.67	56749.4
596.029	56983.97
596.387	57012.67
596.746	57040.92
597.104	56902.61
597.463	56849.51
597.822	57018.09
598.18	56924.08
598.538	56992.33
598.897	57130.86
599.255	56969.96
599.613	57260.57
599.972	57079.33
600.33	57148.26
600.688	57097.41
601.046	57141.25
601.404	57255.83
601.762	57179.22
602.12	57309.16
602.478	57313
602.836	57289.04
603.194	57178.76
603.552	57249.27
603.91	57237.97
604.268	57379.89
604.625	57397.29
604.983	57462.83
605.341	57310.51
605.698	57565.65
606.056	57632.09
606.413	57459.66
606.771	57679.99
607.128	57668.24
607.485	57661.46
607.843	57659.88
608.2	57774
608.557	57889.03
608.914	57704.17
609.272	57904.4
609.629	58045.41
609.986	58086.31
610.343	58030.72
610.7	58249.7
611.057	58149.59
611.414	58106.88
611.771	58283.14
612.127	58314.78
612.484	58333.54
612.841	58360.2
613.198	58305.51
613.554	58296.93
613.911	58505.28
614.267	58494.21
614.624	58473.42
614.98	58598.16
615.337	58757.48
615.693	58676.13
616.05	58750.02
616.406	58853.75
616.762	58769.46
617.118	58818.04
617.475	58775.33
617.831	58883.13
618.187	58979.85
618.543	59023.01
618.899	59161.76
619.255	59098.26
619.611	59098.49
619.967	59137.13
620.323	59286.28
620.678	59167.87
621.034	59166.06
621.39	59184.36
621.746	59147.3
622.101	59451.7
622.457	59245.15
622.812	59440.4
623.168	59398.82
623.523	59356.33
623.879	59397.69
624.234	59341.19
624.589	59430.46
624.945	59489.21
625.3	59506.84
625.655	59539.38
626.01	59506.61
626.365	59510.68
626.72	59496.9
627.075	59475.43
627.43	59447.86
627.785	59540.28
628.14	59494.86
628.495	59547.97
628.85	59587.97
629.205	59468.87
629.559	59585.48
629.914	59522.88
630.269	59497.8
630.623	59433.17
630.978	59423
631.332	59537.8
631.687	59538.48
632.041	59505.94
632.396	59486.27
632.75	59414.19
633.104	59494.18
633.459	59334.87
633.813	59350.01
634.167	59277.24
634.521	59345.71
634.875	59355.2
635.229	59312.27
635.583	59200.63
635.937	59253.51
636.291	59232.5
636.645	59231.14
636.999	59058.49
637.352	59160.86
637.706	59035.21
638.06	59179.84
638.413	58999.96
638.767	58904.14
639.121	59058.04
639.474	58896.91
639.828	58956.8
640.181	58882.9
640.534	58939.85
640.888	58887.87
641.241	58724.26
641.594	58846.74
641.947	58857.59
642.301	58715.67
642.654	58761.1
643.007	58719.52
643.36	58780.3
643.713	58649.23
644.066	58794.54
644.419	58563.59
644.771	58295.57
645.124	58062.81
645.477	58033.88
645.83	57931.74
646.182	57960.89
646.535	57855.58
646.888	57916.82
647.24	57809.03
647.593	58006.31
647.945	57816.49
648.298	57737.17
648.65	57670.96
649.002	57592.99
649.355	57577.17
649.707	57477.74
650.059	57505.31
650.411	57868.92
650.763	57871.63
651.115	58260.54
651.467	58141.45
651.819	58147.1
652.171	58052.87
652.523	57978.74
652.875	58039.53
653.227	57889.93
653.578	58107.33
653.93	58048.35
654.282	57881.12
654.633	57893.1
654.985	57911.63
655.337	57923.15
655.688	57857.39
656.039	57908.92
656.391	57729.48
656.742	57769.03
657.094	57822.14
657.445	57767.68
657.796	57760.22
658.147	57665.53
658.498	57679.99
658.849	57785.53
659.2	57688.81
659.551	57619.43
659.902	57767.22
660.253	57588.47
660.604	57608.81
660.955	57534.46
661.306	57620.34
661.656	57560.22
662.007	57557.06
662.358	57549.15
662.708	57491.53
663.059	57446.55
663.409	57334.02
663.76	57515.25
664.11	57492.43
664.461	57520.45
664.811	57468.25
665.161	57486.1
665.511	57404.3
665.862	57443.62
666.212	57429.83
666.562	57466.44
666.912	57303.06
667.262	57268.93
667.612	57378.99
667.962	57358.42
668.312	57308.93
668.662	57404.07
669.011	57416.95
669.361	57333.79
669.711	57387.35
670.06	57278.65
670.41	57230.06
670.76	57270.51
671.109	57356.61
671.459	57256.95
671.808	57292.66
672.157	57285.43
672.507	57219.67
672.856	57164.53
673.205	57232.77
673.554	57241.59
673.904	57167.47
674.253	57421.92
674.602	57170.4
674.951	56880.69
675.3	56735.39
675.649	57157.97
675.998	57139.9
676.346	57120.46
676.695	57184.64
677.044	56990.52
677.393	57083.63
677.741	57085.89
678.09	57049.5
678.438	56965.44
678.787	57038.2
679.135	57038.66
679.484	56866.23
679.832	57016.51
680.181	56971.31
680.529	56919.79
680.877	56832.56
681.225	56833.01
681.573	57011.54
681.922	56883.18
682.27	56830.3
682.618	56802.73
682.966	56735.61
683.314	56721.83
683.661	56705.56
684.009	56718.44
684.357	56566.13
684.705	56550.98
685.053	56581.72
685.4	56519.35
685.748	56483.19
686.095	56442.06
686.443	56354.38
686.79	56395.73
687.138	56366.58
687.485	56378.56
687.832	56299.47
688.18	56259.47
688.527	56213.59
688.874	56251.11
689.221	56153.93
689.568	56086.14
689.915	55985.35
690.262	56085.69
690.609	56010.43
690.956	55877.78
691.303	55860.16
691.65	55812.25
691.997	55734.74
692.344	55598.92
692.69	55565.25
693.037	55700.84
693.383	55406.38
693.73	55526.15
694.077	55303.33
694.423	55329.32
694.769	55248.19
695.116	55308.08
695.462	55132.94
695.808	55040.29
696.155	55121.64
696.501	54878.49
696.847	54970.91
697.193	54762.78
697.539	54832.39
697.885	54610.92
698.231	54611.15
698.577	54607.31
698.923	54485.28
699.269	54338.16
699.614	54345.85
699.96	54128.68
700.306	54189.46
700.651	54139.52
700.997	53985.4
701.342	53962.13
701.688	53952.64
702.033	53801.23
702.379	53750.83
702.724	53702.25
703.069	53774.56
703.415	53470.61
703.76	53511.97
704.105	53403.72
704.45	53429.26
704.795	53280.79
705.14	53125.31
705.485	53199.66
705.83	52929.84
706.175	53082.38
706.52	52941.81
706.865	52883.96
707.209	52822.27
707.554	52763.74
707.899	52733.01
708.243	52630.18
708.588	52605.55
708.932	52448.72
709.277	52458.44
709.621	52321.94
709.966	52168.73
710.31	52196.07
710.654	51976.42
710.998	52033.82
711.342	52174.38
711.687	51911.11
712.031	51768.29
712.375	51743.88
712.719	51665.46
713.063	51655.52
713.407	51818.91
713.75	51627.05
714.094	51478.12
714.438	51294.17
714.782	51415.75
715.125	51207.62
715.469	51410.56
715.812	51025.03
716.156	51064.35
716.499	51008.76
716.843	51008.31
717.186	50796.11
717.53	50959.27
717.873	50895.99
718.216	50786.62
718.559	50784.81
718.902	50459.62
719.246	50499.17
719.589	50482.9
719.932	50369.45
720.275	50355.44
720.617	50440.86
720.96	50183.47
721.303	50291.49
721.646	50364.03
721.989	50031.16
722.331	50144.83
722.674	50062.12
723.016	49965.4
723.359	49837.94
723.701	49919.97
724.044	49790.26
724.386	49516.37
724.729	49710.03
725.071	49582.13
725.413	49650.83
725.755	49572.41
726.097	49353.21
726.439	49272.08
726.782	49239.76
727.124	49441.79
727.465	49211.97
727.807	49091.52
728.149	49127.23
728.491	48976.49
728.833	49047.45
729.175	48880.45
729.516	48860.57
729.858	48774.92
730.199	48953.67
730.541	48832.77
730.882	48630.52
731.224	48731.53
731.565	48609.05
731.906	48689.04
732.248	48627.58
732.589	48272.33
732.93	48301.71
733.271	48479.33
733.612	48352.78
733.953	48475.49
734.294	48227.81
734.635	48199.79
734.976	48404.98
735.317	48117.08
735.658	48086.35
735.999	47962.96
736.339	47906.69
736.68	47938.56
737.021	47919.8
737.361	47664.66
737.702	48056.07
738.042	47702.86
738.383	47711.44
738.723	47779.24
739.063	47486.59
739.404	47719.13
739.744	47609.98
740.084	47297.22
740.424	47512.35
740.764	47415.63
741.104	47553.03
741.444	47290.21
741.784	47216.54
742.124	47305.58
742.464	47355.97
742.804	47168.86
743.143	47091.57
743.483	47153.04
743.823	46850.9
744.162	46831.69
744.502	46826.95
744.841	46766.38
745.181	46966.83
745.52	46662.21
745.86	46822.88
746.199	46708.98
746.538	46716.22
746.877	46617.46
747.216	46638.93
747.556	46508.09
747.895	46546.73
748.234	46371.14
748.573	46300.18
748.911	46387.64
749.25	46345.15
749.589	46094.76
749.928	46224.02
750.267	46123.69
750.605	45932.51
750.944	45935.9
751.283	45804.15
751.621	45937.25
751.96	45724.6
752.298	45605.51
752.636	45632.18
752.975	45526.19
753.313	45276.03
753.651	45662.68
753.989	45282.58
