Data from 108_FLMS001491_006.txt Node
Date: Thu Apr 12 17:07:48 BST 2018
User: hsy
Spectrometer: FLMS00149
Trigger mode: 0
Integration Time (sec): 1.000000E-2
Scans to average: 10
Electric dark correction enabled: true
Nonlinearity correction enabled: false
Boxcar width: 0
XAxis mode: Wavelengths
Number of Pixels in Spectrum: 2048
>>>>>Begin Spectral Data<<<<<
341.393	-2.09
341.776	-2.09
342.16	-2.09
342.543	-44.12
342.927	-60.17
343.31	-69.43
343.693	-74.18
344.077	-73.27
344.46	-53.84
344.843	-56.33
345.226	-52.03
345.61	-37.57
345.993	-10.68
346.376	-7.06
346.759	13.5
347.142	16.89
347.525	41.75
347.908	61.86
348.291	86.04
348.674	92.82
349.057	121.52
349.44	135.31
349.823	162.2
350.206	157.91
350.588	241.97
350.971	284
351.354	263.89
351.737	291.69
352.119	281.52
352.502	280.39
352.884	314.96
353.267	303.66
353.65	334.62
354.032	346.83
354.414	373.49
354.797	344.79
355.179	374.85
355.562	380.27
355.944	378.46
356.326	381.18
356.709	386.15
357.091	380.27
357.473	390.22
357.855	378.46
358.238	394.51
358.62	390.44
359.002	385.24
359.384	395.87
359.766	392.25
360.148	375.75
360.53	389.09
360.912	387.73
361.294	399.48
361.676	387.96
362.057	393.83
362.439	375.07
362.821	388.18
363.203	394.06
363.584	373.94
363.966	388.86
364.348	399.03
364.729	389.76
365.111	389.31
365.493	402.42
365.874	373.49
366.256	378.01
366.637	364.68
367.019	341.63
367.4	388.86
367.781	369.88
368.163	395.19
368.544	385.7
368.925	377.11
369.306	367.62
369.688	380.5
370.069	380.05
370.45	381.4
370.831	371.69
371.212	389.54
371.593	376.43
371.974	399.48
372.355	405.36
372.736	401.51
373.117	371.69
373.498	384.34
373.879	389.99
374.26	368.97
374.641	384.79
375.021	375.98
375.402	393.15
375.783	411.01
376.163	413.94
376.544	413.94
376.925	400.16
377.305	387.5
377.686	399.26
378.066	385.92
378.447	397.67
378.827	409.42
379.208	420.72
379.588	385.7
379.968	405.13
380.349	421.63
380.729	424.11
381.109	428.41
381.489	407.62
381.87	418.01
382.25	426.15
382.63	416.88
383.01	413.27
383.39	432.7
383.77	437.45
384.15	450.33
384.53	416.88
384.91	454.85
385.29	452.59
385.67	455.52
386.049	454.17
386.429	414.4
386.809	450.1
387.189	438.8
387.568	447.62
387.948	470.44
388.328	464.56
388.707	467.95
389.087	462.53
389.466	478.12
389.846	451.23
390.225	478.12
390.605	464.34
390.984	470.44
391.363	470.44
391.743	496.65
392.122	492.59
392.501	486.48
392.881	485.58
393.26	512.02
393.639	498.24
394.018	500.72
394.397	503.89
394.776	508.86
395.155	514.05
395.534	515.86
395.913	501.17
396.292	518.12
396.671	523.55
397.05	547.95
397.429	531.91
397.808	508.18
398.186	498.69
398.565	554.96
398.944	540.04
399.323	535.07
399.701	543.88
400.08	532.36
400.458	563.77
400.837	549.53
401.215	559.48
401.594	551.57
401.972	547.05
402.351	563.09
402.729	567.39
403.107	592.02
403.486	579.36
403.864	580.72
404.242	576.43
404.62	559.25
404.999	582.3
405.377	575.75
405.755	599.7
406.133	610.77
406.511	593.6
406.889	597.67
407.267	595.63
407.645	613.26
408.023	619.59
408.401	627.05
408.779	638.12
409.156	632.24
409.534	632.92
409.912	660.94
410.29	652.13
410.667	670.89
411.045	691.22
411.422	646.25
411.8	687.16
412.178	679.25
412.555	695.52
412.933	671.11
413.31	738.91
413.687	701.39
414.065	716.31
414.442	724.22
414.819	733.03
415.197	705.46
415.574	741.17
415.951	743.43
416.328	741.62
416.705	765.12
417.082	763.54
417.46	759.92
417.837	759.02
418.214	762.86
418.591	770.77
418.967	779.81
419.344	781.62
419.721	800.6
420.098	790.21
420.475	801.73
420.852	777.1
421.228	806.25
421.605	804.67
421.982	804.67
422.358	827.27
422.735	832.46
423.111	811.45
423.488	852.58
423.864	856.87
424.241	848.96
424.617	868.85
424.994	859.81
425.37	866.81
425.746	874.5
426.123	877.66
426.499	888.51
426.875	881.95
427.251	896.87
427.627	931.9
428.003	922.18
428.379	931.67
428.756	949.07
429.132	919.92
429.507	961.73
429.883	997.43
430.259	961.95
430.635	1005.57
431.011	986.58
431.387	997.21
431.763	1020.71
432.138	1010.76
432.514	1034.27
432.89	1023.87
433.265	1085.11
433.641	1072.91
434.016	1069.75
434.392	1068.39
434.767	1115.62
435.143	1102.29
435.518	1124.89
435.894	1129.18
436.269	1130.54
436.644	1131.44
437.02	1120.14
437.395	1129.63
437.77	1142.96
438.145	1169.4
438.52	1197.43
438.895	1210.08
439.271	1177.54
439.646	1216.86
440.021	1244.66
440.395	1232.91
440.77	1236.3
441.145	1212.79
441.52	1232
441.895	1230.65
442.27	1265.45
442.645	1228.61
443.019	1283.98
443.394	1253.02
443.769	1262.96
444.143	1277.88
444.518	1294.37
444.892	1297.99
445.267	1292.79
445.641	1296.86
446.016	1313.81
446.39	1332.56
446.764	1325.33
447.139	1331.43
447.513	1343.41
447.887	1341.15
448.262	1357.2
448.636	1372.56
449.01	1383.18
449.384	1387.48
449.758	1396.74
450.132	1417.76
450.506	1437.65
450.88	1425.44
451.254	1465.44
451.628	1446.23
452.002	1461.83
452.376	1470.64
452.75	1492.33
453.123	1519
453.497	1512.9
453.871	1561.03
454.244	1563.52
454.618	1615.04
454.992	1608.71
455.365	1592.44
455.739	1631.31
456.112	1661.14
456.486	1668.37
456.859	1681.71
457.232	1753.8
457.606	1742.04
457.979	1769.84
458.352	1763.96
458.725	1789.95
459.099	1792.89
459.472	1828.14
459.845	1864.08
460.218	1889.61
460.591	1886
460.964	1892.1
461.337	1954.24
461.71	1956.5
462.083	1977.97
462.456	2019.78
462.829	2003.28
463.201	2037.86
463.574	2078.76
463.947	2050.29
464.32	2071.53
464.692	2126.22
465.065	2130.06
465.438	2138.42
465.81	2164.63
466.183	2212.09
466.555	2220
466.928	2251.86
467.3	2272.2
467.672	2316.49
468.045	2298.41
468.417	2303.84
468.789	2356.27
469.161	2387
469.534	2445.75
469.906	2416.83
470.278	2488.24
470.65	2530.27
471.022	2582.47
471.394	2608.24
471.766	2639.87
472.138	2675.81
472.51	2661.57
472.882	2749.02
473.253	2752.87
473.625	2827.67
473.997	2877.38
474.369	2878.06
474.74	2921.9
475.112	2967.78
475.484	3047.77
475.855	3097.72
476.227	3117.83
476.598	3140.43
476.97	3281.44
477.341	3283.7
477.713	3332.96
478.084	3383.13
478.455	3451.38
478.827	3549.45
479.198	3563.24
479.569	3628.77
479.94	3733.63
480.311	3752.61
480.682	3850.92
481.053	3936.56
481.424	4007.52
481.795	4076.67
482.166	4153.28
482.537	4240.96
482.908	4339.72
483.279	4424.91
483.65	4489.77
484.021	4644.57
484.391	4699.25
484.762	4773.83
485.133	4813.83
485.503	4932.02
485.874	5073.48
486.244	5224.44
486.615	5278.67
486.985	5392.57
487.356	5525.22
487.726	5663.52
488.097	5758.44
488.467	5901.48
488.837	6042.27
489.207	6111.65
489.578	6286.11
489.948	6415.59
490.318	6584.18
490.688	6644.74
491.058	6823.49
491.428	7053.54
491.798	7147.78
492.168	7284.27
492.538	7478.39
492.908	7595.68
493.278	7872.73
493.648	7989.11
494.017	8224.13
494.387	8318.82
494.757	8502.54
495.126	8697.79
495.496	8856.66
495.866	9104.79
496.235	9280.15
496.605	9494.84
496.974	9695.73
497.344	9918.33
497.713	10074.48
498.082	10306.34
498.452	10575.03
498.821	10739.1
499.19	10933.44
499.559	11221.8
499.928	11457.04
500.298	11692.29
500.667	11938.39
501.036	12134.09
501.405	12439.62
501.774	12646.62
502.143	12891.36
502.512	13142.42
502.88	13461.51
503.249	13560.94
503.618	14041.83
503.987	14197.08
504.356	14438.89
504.724	14725.21
505.093	15005.2
505.462	15258.53
505.83	15503.72
506.199	15776.03
506.567	16213.08
506.936	16317.71
507.304	16841.53
507.672	17039.72
508.041	17230.22
508.409	17592.48
508.777	17859.81
509.145	18235.17
509.514	18464.54
509.882	18683.97
510.25	18913.34
510.618	19288.25
510.986	19377.29
511.354	19732.76
511.722	20104.95
512.09	20392.18
512.458	20570.25
512.826	20910.35
513.193	21050.01
513.561	21366.16
513.929	21612.48
514.297	22116.88
514.664	22243.65
515.032	22493.14
515.4	22763.19
515.767	23014.25
516.135	23286.34
516.502	23311.87
516.869	23795.93
517.237	23950.05
517.604	24108.24
517.972	24568.79
518.339	24788.9
518.706	25018.04
519.073	25215.33
519.44	25466.62
519.808	25814.18
520.175	25960.39
520.542	26308.18
520.909	26612.8
521.276	26858.9
521.643	27091.89
522.009	27416.62
522.376	27652.1
522.743	27863.62
523.11	28429.93
523.477	28484.39
523.843	28821.11
524.21	29221.55
524.577	29420.41
524.943	29784.92
525.31	29830.57
525.676	30304.91
526.043	30574.73
526.409	30735.63
526.776	31156.86
527.142	31304.88
527.508	31408.38
527.874	31813.8
528.241	32009.05
528.607	32242.94
528.973	32652.42
529.339	32686.32
529.705	33242.69
530.071	33454.43
530.437	33630.02
530.803	33958.82
531.169	34207.18
531.535	34201.53
531.901	34470
532.267	34692.36
532.632	34883.77
532.998	34997.89
533.364	35203.99
533.73	35542.29
534.095	35798.78
534.461	35811.43
534.826	36061.59
535.192	36270.18
535.557	36576.61
535.923	36609.6
536.288	36877.39
536.653	37203.94
537.019	37011.4
537.384	37153.77
537.749	37299.53
538.114	37617.03
538.479	37597.82
538.845	37814.54
539.21	37875.56
539.575	38010.7
539.94	38140.18
540.305	38451.81
540.67	38372.27
541.034	38557.8
541.399	38758.92
541.764	38932.03
542.129	39035.08
542.494	39240.27
542.858	39397.55
543.223	39223.09
543.587	39621.27
543.952	39654.04
544.316	39800.93
544.681	39708.05
545.045	40151.88
545.41	40242.05
545.774	40176.51
546.138	40466.9
546.503	40459.44
546.867	40644.75
547.231	40878.19
547.595	41048.36
547.959	41202.93
548.324	41255.58
548.688	41416.48
549.052	41520.89
549.416	41585.29
549.779	41690.15
550.143	41783.03
550.507	42145.05
550.871	42346.17
551.235	42324.93
551.599	42553.17
551.962	42742.32
552.326	42924.92
552.689	42921.98
553.053	42862.09
553.417	43061.18
553.78	43459.59
554.143	43493.26
554.507	43754.95
554.87	43879.69
555.234	44249.85
555.597	44081.72
555.96	44416.63
556.323	44551.31
556.686	44623.4
557.05	44862.49
557.413	44926.22
557.776	45033.79
558.139	45326.89
558.502	45619.08
558.865	45527.79
559.228	46021.56
559.59	46057.26
559.953	46261.33
560.316	46684.37
560.679	46635.33
561.041	46826.96
561.404	47161.19
561.767	47384.91
562.129	47363.67
562.492	47725.47
562.854	47739.25
563.217	47776.99
563.579	48016.08
563.941	48134.95
564.304	48464.43
564.666	48767.02
565.028	48693.8
565.39	48835.27
565.753	49083.17
566.115	49161.14
566.477	49398.64
566.839	49599.32
567.201	50009.25
567.563	49892.42
567.925	50204.5
568.287	50240.43
568.648	50371.27
569.01	50550.03
569.372	50952.5
569.734	50835.22
570.095	51072.5
570.457	51382.55
570.819	51403.11
571.18	51443.11
571.542	51690.56
571.903	51735.98
572.265	51858.69
572.626	51928.52
572.987	51979.14
573.349	52257.1
573.71	52411.67
574.071	52507.72
574.432	52672
574.794	52884.65
575.155	52886.24
575.516	52963.97
575.877	53078.55
576.238	53106.34
576.599	53270.41
576.96	53328.26
577.32	53414.58
577.681	53519.89
578.042	53663.39
578.403	53618.87
578.763	53691.64
579.124	53756.5
579.485	53971.86
579.845	54114.68
580.206	54172.98
580.566	54216.37
580.927	54154.23
581.287	54346.09
581.648	54287.1
582.008	54502.92
582.368	54465.18
582.728	54549.92
583.089	54641.67
583.449	54629.69
583.809	54687.09
584.169	54810.93
584.529	54726.87
584.889	55062.9
585.249	54913.08
585.609	54862
585.969	55058.38
586.329	54991.72
586.688	55212.73
587.048	55133.18
587.408	55257.02
587.768	55216.8
588.127	55358.49
588.487	55329.79
588.846	55563.68
589.206	55347.41
589.565	55428.09
589.925	55650.01
590.284	55603.45
590.643	55677.58
591.003	55719.38
591.362	55914.18
591.721	55849.77
592.08	55910.79
592.44	56032.14
592.799	55999.83
593.158	56059.26
593.517	56013.16
593.876	56241.4
594.235	56176.32
594.593	56196.21
594.952	56271.01
595.311	56342.19
595.67	56467.39
596.029	56611.79
596.387	56603.88
596.746	56749.19
597.104	56572.47
597.463	56675.97
597.822	56863.31
598.18	56731.11
598.538	56764.33
598.897	57047.94
599.255	56830.09
599.613	57210.42
599.972	57083.19
600.33	57135.39
600.688	57161.15
601.046	57220.59
601.404	57410.19
601.762	57330.87
602.12	57500.58
602.478	57558.43
602.836	57602.5
603.194	57456.74
603.552	57597.3
603.91	57640.69
604.268	57763.17
604.625	57682.04
604.983	57878.87
605.341	57748.93
605.698	57991.64
606.056	58065.54
606.413	57956.39
606.771	58153.44
607.128	58129.71
607.485	58114.35
607.843	58191.63
608.2	58308.01
608.557	58405.87
608.914	58329.94
609.272	58519.76
609.629	58642.47
609.986	58670.04
610.343	58685.18
610.7	58821.22
611.057	58833.88
611.414	58776.03
611.771	58937.6
612.127	58957.26
612.484	59013.08
612.841	59086.53
613.198	59018.5
613.554	59054.44
613.911	59242
614.267	59242.91
614.624	59265.96
614.98	59341.43
615.337	59495.33
615.693	59460.53
616.05	59574.42
616.406	59649.67
616.762	59572.39
617.118	59615.55
617.475	59631.37
617.831	59746.62
618.187	59819.16
618.543	59841.08
618.899	59946.84
619.255	59904.58
619.611	59911.59
619.967	60082.21
620.323	60125.37
620.678	60028.2
621.034	60016.9
621.39	60039.49
621.746	60032.94
622.101	60335.98
622.457	60114.75
622.812	60239.49
623.168	60285.82
623.523	60278.13
623.879	60319.26
624.234	60317
624.589	60325.14
624.945	60295.99
625.3	60345.48
625.655	60431.35
626.01	60436.32
626.365	60467.73
626.72	60371.46
627.075	60365.14
627.43	60435.19
627.785	60438.13
628.14	60433.16
628.495	60411.24
628.85	60500.5
629.205	60401.29
629.559	60514.51
629.914	60422.99
630.269	60491.46
630.623	60385.02
630.978	60258.92
631.332	60460.73
631.687	60471.12
632.041	60366.49
632.396	60373.72
632.75	60320.62
633.104	60382.76
633.459	60283.78
633.813	60282.2
634.167	60262.77
634.521	60258.7
634.875	60230.68
635.229	60233.16
635.583	60165.59
635.937	60141.64
636.291	60152.26
636.645	60133.73
636.999	60066.61
637.352	60122.66
637.706	59987.52
638.06	60068.42
638.413	59910.68
638.767	59916.33
639.121	59932.15
639.474	59867.75
639.828	59829.1
640.181	59870.91
640.534	59844.47
640.888	59805.15
641.241	59682.22
641.594	59750.01
641.947	59800.86
642.301	59713.63
642.654	59664.14
643.007	59634.08
643.36	59665.04
643.713	59597.25
644.066	59703.46
644.419	59559.96
644.771	59205.39
645.124	59116.13
645.477	59009.92
645.83	58921.11
646.182	58881.33
646.535	58890.15
646.888	58862.58
647.24	58776.93
647.593	58924.27
647.945	58830.94
648.298	58722.47
648.65	58616.93
649.002	58506.43
649.355	58485.41
649.707	58391.18
650.059	58456.26
650.411	58790.49
650.763	58901.67
651.115	59254.43
651.467	59099.63
651.819	59112.97
652.171	59025.28
652.523	58985.29
652.875	59034.32
653.227	58925.63
653.578	59082.01
653.93	59009.01
654.282	58904.84
654.633	58770.83
654.985	58856.02
655.337	58829.13
655.688	58809.47
656.039	58860.77
656.391	58639.53
656.742	58679.76
657.094	58679.08
657.445	58666.42
657.796	58714.56
658.147	58608.8
658.498	58701.22
658.849	58720.43
659.2	58616.48
659.551	58526.77
659.902	58720.43
660.253	58562.25
660.604	58569.02
660.955	58508.24
661.306	58571.28
661.656	58425.75
662.007	58414.9
662.358	58471.17
662.708	58514.11
663.059	58415.58
663.409	58315.25
663.76	58461.23
664.11	58465.3
664.461	58464.17
664.811	58536.94
665.161	58468.91
665.511	58380.1
665.862	58403.38
666.212	58397.28
666.562	58421.68
666.912	58362.02
667.262	58295.13
667.612	58255.81
667.962	58345.75
668.312	58245.64
668.662	58407.45
669.011	58301.46
669.361	58235.93
669.711	58317.51
670.06	58197.74
670.41	58198.64
670.76	58216.27
671.109	58302.82
671.459	58209.26
671.808	58217.4
672.157	58219.88
672.507	58094.69
672.856	58109.38
673.205	58110.73
673.554	58134.91
673.904	58098.75
674.253	58216.04
674.602	58099.21
674.951	57765.43
675.3	57624.87
675.649	58069.15
675.998	58059.43
676.346	58141.24
676.695	58157.28
677.044	57977.18
677.393	58042.94
677.741	58064.41
678.09	58034.12
678.438	58003.62
678.787	58021.92
679.135	58052.2
679.484	57903.51
679.832	57977.18
680.181	57901.25
680.529	57961.13
680.877	57823.06
681.225	57826.45
681.573	58001.58
681.922	57864.86
682.27	57733.79
682.618	57795.49
682.966	57685.43
683.314	57731.31
683.661	57663.06
684.009	57581.25
684.357	57534.48
684.705	57474.36
685.053	57520.24
685.4	57427.59
685.748	57414.71
686.095	57362.73
686.443	57217.2
686.79	57271.88
687.138	57321.37
687.485	57250.19
687.832	57219
688.18	57239.57
688.527	57098.78
688.874	57131.1
689.221	57092.23
689.568	56931.33
689.915	56898.11
690.262	56985.79
690.609	56870.54
690.956	56870.31
691.303	56868.73
691.65	56739.24
691.997	56637.1
692.344	56568.85
692.69	56557.33
693.037	56590.09
693.383	56367.5
693.73	56435.52
694.077	56331.57
694.423	56361.17
694.769	56256.54
695.116	56278.92
695.462	56078.24
695.808	56008.19
696.155	56055.64
696.501	55900.39
696.847	55952.14
697.193	55759.38
697.539	55803.67
697.885	55616.56
698.231	55568.2
698.577	55578.14
698.923	55527.75
699.269	55368.43
699.614	55275.1
699.96	55254.08
700.306	55253.63
700.651	55231.71
700.997	55059.74
701.342	54978.38
701.688	54952.85
702.033	54888.67
702.379	54780.2
702.724	54726.64
703.069	54833.98
703.415	54518.28
703.76	54494.56
704.105	54534.55
704.45	54384.28
704.795	54356.93
705.14	54158.29
705.485	54173.43
705.83	54013.21
706.175	54109.03
706.52	54015.7
706.865	53881.69
707.209	53833.1
707.554	53728.25
707.899	53836.95
708.243	53638.99
708.588	53633.11
708.932	53433.34
709.277	53497.07
709.621	53430.85
709.966	53142.95
710.31	53238.77
710.654	52985.44
710.998	53086.46
711.342	53164.2
711.687	52991.54
712.031	52943.64
712.375	52785.9
712.719	52744.77
713.063	52683.3
713.407	52871.77
713.75	52640.59
714.094	52641.95
714.438	52500.03
714.782	52453.71
715.125	52281.28
715.469	52415.97
715.812	52171.68
716.156	52159.93
716.499	52047.16
716.843	52190.44
717.186	51974.17
717.53	52164
717.873	52041.06
718.216	51970.55
718.559	51803.1
718.902	51620.51
719.246	51614.86
719.589	51568.08
719.932	51351.14
720.275	51427.97
720.617	51500.28
720.96	51477.69
721.303	51446.73
721.646	51415.54
721.989	51188.65
722.331	51241.99
722.674	51071.82
723.016	51103.91
723.359	50971.03
723.701	51038.6
724.044	50795.67
724.386	50755.22
724.729	50819.62
725.071	50800.42
725.413	50740.76
725.755	50707.08
726.097	50690.14
726.439	50524.26
726.782	50330.6
727.124	50610.82
727.465	50446.3
727.807	50269.81
728.149	50291.73
728.491	50195.91
728.833	50309.13
729.175	50170.83
729.516	50051.06
729.858	50064.39
730.199	50107.1
730.541	49967.44
730.882	49891.06
731.224	49969.25
731.565	49812.19
731.906	49721.57
732.248	49839.54
732.589	49500.56
732.93	49545.08
733.271	49542.37
733.612	49481.81
733.953	49535.59
734.294	49372.43
734.635	49152.1
734.976	49530.84
735.317	49299.89
735.658	49094.92
735.999	49086.79
736.339	49047.47
736.68	49085.66
737.021	49012.89
737.361	49010.63
737.702	49144.19
738.042	48884.31
738.383	49021.48
738.723	48993.68
739.063	48729.51
739.404	48910.97
739.744	48697.19
740.084	48557.76
740.424	48686.57
740.764	48564.99
741.104	48723.18
741.444	48446.35
741.784	48276.87
742.124	48546.01
742.464	48434.83
742.804	48296.98
743.143	48195.29
743.483	48350.31
743.823	48065.57
744.162	48061.05
744.502	48127.94
744.841	48017.66
745.181	48206.59
745.52	47934.95
745.86	48082.07
746.199	47933.82
746.538	47889.31
746.877	47945.8
747.216	47990.32
747.556	47680.27
747.895	47787.16
748.234	47602.76
748.573	47561.4
748.911	47496.1
749.25	47467.17
749.589	47413.61
749.928	47414.29
750.267	47405.25
750.605	47141.08
750.944	47115.77
751.283	47066.5
751.621	47146.5
751.96	46848.66
752.298	46970.23
752.636	46906.96
752.975	46643.91
753.313	46720.52
753.651	46650.92
753.989	46588.78
754.327	46552.84
754.666	46168.9
755.004	46447.54
