Data from 108_FLMS001491_010.txt Node
Date: Thu Apr 12 17:07:57 BST 2018
User: hsy
Spectrometer: FLMS00149
Trigger mode: 0
Integration Time (sec): 1.000000E-2
Scans to average: 10
Electric dark correction enabled: true
Nonlinearity correction enabled: false
Boxcar width: 0
XAxis mode: Wavelengths
Number of Pixels in Spectrum: 2048
>>>>>Begin Spectral Data<<<<<
341.393	-31.93
341.776	-31.93
342.16	-31.93
342.543	-58.15
342.927	-55.66
343.31	-89.11
343.693	-76.45
344.077	-61.99
344.46	-61.99
344.843	-51.59
345.226	-31.03
345.61	-29.45
345.993	-31.71
346.376	-19.28
346.759	25.47
347.142	21.62
347.525	41.74
347.908	64.79
348.291	77.44
348.674	100.94
349.057	120.6
349.44	113.15
349.823	142.3
350.206	154.28
350.588	233.14
350.971	262.07
351.354	280.83
351.737	281.5
352.119	288.06
352.502	306.81
352.884	292.8
353.267	328.96
353.65	319.24
354.032	343.42
354.414	347.04
354.797	358.79
355.179	347.72
355.562	368.73
355.944	375.51
356.326	375.96
356.709	387.49
357.091	390.88
357.473	389.75
357.855	380.94
358.238	395.17
358.62	383.87
359.002	401.95
359.384	389.52
359.766	373.7
360.148	389.07
360.53	389.3
360.912	377.55
361.294	375.51
361.676	378.45
362.057	375.74
362.439	370.09
362.821	380.03
363.203	349.98
363.584	395.17
363.966	377.32
364.348	359.24
364.729	362.18
365.111	382.52
365.493	395.85
365.874	368.96
366.256	363.99
366.637	379.35
367.019	365.12
367.4	371.67
367.781	377.55
368.163	367.15
368.544	361.73
368.925	371.67
369.306	387.04
369.688	363.76
370.069	373.7
370.45	375.51
370.831	378.68
371.212	337.32
371.593	369.19
371.974	396.53
372.355	364.21
372.736	375.74
373.117	381.84
373.498	390.2
373.879	370.54
374.26	392.69
374.641	367.83
375.021	360.82
375.402	388.85
375.783	385
376.163	395.4
376.544	398.79
376.925	361.95
377.305	400.82
377.686	390.43
378.066	417.77
378.447	398.79
378.827	401.5
379.208	405.79
379.588	397.89
379.968	419.81
380.349	412.8
380.729	396.98
381.109	427.71
381.489	421.84
381.87	420.03
382.25	419.58
382.63	438.34
383.01	415.51
383.39	451.67
383.77	455.74
384.15	426.13
384.53	435.4
384.91	434.72
385.29	448.73
385.67	441.5
386.049	450.31
386.429	445.34
386.809	458.9
387.189	454.38
387.568	443.99
387.948	444.66
388.328	450.31
388.707	455.74
389.087	467.26
389.466	463.87
389.846	479.01
390.225	485.79
390.605	460.93
390.984	486.47
391.363	474.95
391.743	470.43
392.122	482.4
392.501	494.15
392.881	501.61
393.26	486.02
393.639	512.46
394.018	514.94
394.397	502.74
394.776	512.23
395.155	501.39
395.534	490.76
395.913	516.53
396.292	519.92
396.671	520.59
397.05	525.57
397.429	520.59
397.808	520.59
398.186	540.25
398.565	538.67
398.944	537.99
399.323	527.6
399.701	535.06
400.08	533.25
400.458	545
400.837	541.16
401.215	552.23
401.594	547.71
401.972	555.17
402.351	567.37
402.729	543.64
403.107	560.59
403.486	568.95
403.864	570.08
404.242	574.6
404.62	588.39
404.999	592.91
405.377	601.95
405.755	587.26
406.133	610.53
406.511	623.42
406.889	610.08
407.267	604.43
407.645	629.07
408.023	639.46
408.401	637.88
408.779	633.36
409.156	643.75
409.534	651.21
409.912	659.35
410.29	663.87
410.667	671.78
411.045	670.19
411.422	697.31
411.8	681.72
412.178	691.66
412.555	698.67
412.933	685.11
413.31	726.01
413.687	746.8
414.065	705.67
414.442	727.59
414.819	739.57
415.197	752.68
415.574	764.43
415.951	749.51
416.328	756.52
416.705	759.23
417.082	760.36
417.46	775.28
417.837	780.7
418.214	775.28
418.591	771.66
418.967	816.41
419.344	804.43
419.721	821.15
420.098	811.66
420.475	809.63
420.852	835.16
421.228	817.31
421.605	815.28
421.982	825.9
422.358	865.22
422.735	843.97
423.111	867.7
423.488	874.48
423.864	855.27
424.241	890.3
424.617	891.88
424.994	887.82
425.37	905.22
425.746	898.21
426.123	912.67
426.499	897.08
426.875	924.65
427.251	919.68
427.627	926.68
428.003	934.82
428.379	951.54
428.756	969.62
429.132	977.08
429.507	995.38
429.883	1010.75
430.259	1002.16
430.635	1020.92
431.011	1017.53
431.387	1009.85
431.763	1077.19
432.138	1053.01
432.514	1039.45
432.89	1076.74
433.265	1090.52
433.641	1101.82
434.016	1097.3
434.392	1113.57
434.767	1129.84
435.143	1119.22
435.518	1129.62
435.894	1155.83
436.269	1163.51
436.644	1169.84
437.02	1184.53
437.395	1205.55
437.77	1194.02
438.145	1219.78
438.52	1213.68
438.895	1236.73
439.271	1257.3
439.646	1241.48
440.021	1262.04
440.395	1252.1
440.77	1259.33
441.145	1278.09
441.52	1318.31
441.895	1274.02
442.27	1295.04
442.645	1294.81
443.019	1318.76
443.394	1350.18
443.769	1322.61
444.143	1277.41
444.518	1321.93
444.892	1307.01
445.267	1359.67
445.641	1377.52
446.016	1361.48
446.39	1390.18
446.764	1383.4
447.139	1384.07
447.513	1402.83
447.887	1411.19
448.262	1406.45
448.636	1450.51
449.01	1453.22
449.384	1464.98
449.758	1449.16
450.132	1487.57
450.506	1506.1
450.88	1533
451.254	1505.88
451.628	1503.62
452.002	1538.19
452.376	1547.23
452.75	1548.14
453.123	1574.35
453.497	1602.6
453.871	1637.85
454.244	1602.83
454.618	1634.91
454.992	1651.86
455.365	1670.39
455.739	1706.55
456.112	1708.59
456.486	1724.86
456.859	1762.82
457.232	1815.93
457.606	1822.93
457.979	1831.75
458.352	1876.49
458.725	1856.6
459.099	1900.67
459.472	1924.17
459.845	1918.75
460.218	1924.17
460.591	1968.47
460.964	1972.08
461.337	1993.1
461.71	2045.3
462.083	2047.11
462.456	2069.93
462.829	2070.61
463.201	2122.81
463.574	2145.64
463.947	2170.95
464.32	2193.54
464.692	2209.36
465.065	2249.14
465.438	2260.43
465.81	2320.77
466.183	2278.51
466.555	2329.36
466.928	2363.94
467.3	2367.55
467.672	2385.63
468.045	2473.31
468.417	2438.28
468.789	2436.48
469.161	2552.18
469.534	2558.73
469.906	2552.63
470.278	2605.51
470.65	2627.2
471.022	2672.85
471.394	2685.73
471.766	2742.68
472.138	2806.18
472.51	2880.08
472.882	2848.22
473.253	2898.38
473.625	2939.51
473.997	3004.82
474.369	3023.58
474.74	3035.1
475.112	3144.48
475.484	3188.55
475.855	3227.19
476.227	3232.84
476.598	3366.39
476.97	3359.62
477.341	3446.39
477.713	3514.19
478.084	3506.73
478.455	3626.05
478.827	3666.05
479.198	3724.13
479.569	3788.53
479.94	3885.25
480.311	3971.8
480.682	4028.75
481.053	4177.22
481.424	4197.33
481.795	4273.94
482.166	4329.99
482.537	4412.92
482.908	4558.68
483.279	4614.5
483.65	4692.69
484.021	4818.33
484.391	4904.43
484.762	4969.06
485.133	5001.83
485.503	5153.92
485.874	5290.19
486.244	5357.75
486.615	5473.91
486.985	5602.95
487.356	5719.55
487.726	5791.19
488.097	5969.49
488.467	6022.82
488.837	6245.87
489.207	6344.17
489.578	6503.71
489.948	6630.49
490.318	6776.25
490.688	6866.19
491.058	7077.26
491.428	7246.52
491.798	7356.12
492.168	7608.54
492.538	7689.44
492.908	7923.56
493.278	8072.03
493.648	8227.51
494.017	8433.38
494.387	8576.2
494.757	8774.39
495.126	8942.52
495.496	9212.12
495.866	9321.72
496.235	9563.52
496.605	9742.5
496.974	9896.62
497.344	10146.56
497.713	10376.15
498.082	10566.88
498.452	10767.1
498.821	11011.17
499.19	11212.52
499.559	11383.36
499.928	11677.81
500.298	11952.84
500.667	12167.29
501.036	12334.29
501.405	12598.24
501.774	12840.95
502.143	13057.67
502.512	13302.4
502.88	13616.29
503.249	13791.88
503.618	14127.02
503.987	14376.95
504.356	14655.36
504.724	14903.72
505.093	15127.67
505.462	15336.93
505.83	15605.85
506.199	15961.09
506.567	16394.98
506.936	16568.53
507.304	16929.88
507.672	17179.82
508.041	17458
508.409	17720.14
508.777	18056.63
509.145	18345.89
509.514	18494.81
509.882	18859.32
510.25	19027.45
510.618	19328.23
510.986	19616.81
511.354	19896.13
511.722	20227.87
512.09	20580.63
512.458	20592.61
512.826	20877.35
513.193	21221.52
513.561	21395.07
513.929	21722.97
514.297	22161.15
514.664	22311.21
515.032	22545.33
515.4	22948.25
515.767	23112.32
516.135	23283.84
516.502	23396.6
516.869	23865.97
517.237	24117.49
517.604	24109.13
517.972	24664.14
518.339	24848.09
518.706	25120.17
519.073	25264.35
519.44	25369.21
519.808	25924.45
520.175	26122.41
520.542	26401.95
520.909	26608.04
521.276	26905.89
521.643	27149.72
522.009	27310.4
522.376	27662.93
522.743	27989.7
523.11	28326.64
523.477	28552.62
523.843	28730.25
524.21	29248.88
524.577	29516.44
524.943	29642.31
525.31	29898.13
525.676	30308.96
526.043	30487.72
526.409	30686.35
526.776	31109.17
527.142	31162.5
527.508	31526.33
527.874	31804.52
528.241	31957.28
528.607	32269.82
528.973	32618.51
529.339	32753.19
529.705	33065.95
530.071	33355.89
530.437	33660.97
530.803	33759.72
531.169	34074.29
531.535	34291.23
531.901	34454.39
532.267	34706.14
532.632	34947.94
532.998	35106.35
533.364	35283.3
533.73	35281.04
534.095	35839.21
534.461	35832.21
534.826	35968.02
535.192	36204.63
535.557	36464.28
535.923	36521.68
536.288	36843.03
536.653	36868.11
537.019	37003.25
537.384	37122.12
537.749	37336.57
538.114	37384.03
538.479	37517.81
538.845	37645.49
539.21	37723.91
539.575	38046.61
539.94	38081.64
540.305	38313.95
540.67	38387.17
541.034	38532.48
541.399	38538.58
541.764	38779.02
542.129	38990.32
542.494	39096.53
542.858	39220.14
543.223	39175.62
543.587	39439.12
543.952	39482.73
544.316	39699.45
544.681	39576.06
545.045	40092.66
545.41	40039.78
545.774	39969.27
546.138	40177.63
546.503	40522.03
546.867	40513.44
547.231	40701.68
547.595	40877.5
547.959	41159.53
548.324	41101.9
548.688	41228.45
549.052	41349.58
549.416	41508.44
549.779	41587.08
550.143	41833.86
550.507	41968.77
550.871	41978.03
551.235	42035.89
551.599	42542.99
551.962	42582.31
552.326	42714.29
552.689	42895.07
553.053	42653.05
553.417	42872.02
553.78	43379.13
554.143	43456.41
554.507	43608.73
554.87	43775.05
555.234	44049.17
555.597	43819.57
555.96	44185.21
556.323	44313.11
556.686	44290.52
557.05	44700.9
557.413	44826.55
557.776	44883.04
558.139	45150.15
558.502	45377.49
558.865	45440.54
559.228	45698.16
559.59	45787.43
559.953	45928.21
560.316	46444.81
560.679	46382.89
561.041	46647.52
561.404	46901.3
561.767	47150.33
562.129	47015.42
562.492	47377.21
562.854	47423.77
563.217	47591.22
563.579	47725.45
563.941	47965
564.304	48152.79
564.666	48522.95
565.028	48596.17
565.39	48635.03
565.753	48877.29
566.115	48967.68
566.477	49172.87
566.839	49460.1
567.201	49756.59
567.563	49673.65
567.925	50024.38
568.287	50093.98
568.648	50063.92
569.01	50386.18
569.372	50641.31
569.734	50659.39
570.095	50887.63
570.457	51209.88
570.819	51124.91
571.18	51181.41
571.542	51505.69
571.903	51423.44
572.265	51596.54
572.626	51785.46
572.987	51879.02
573.349	52038.34
573.71	52149.07
574.071	52326.24
574.432	52450.08
574.794	52651.88
575.155	52758.54
575.516	52709.5
575.877	52920.8
576.238	52902.72
576.599	53082.6
576.96	53167.57
577.32	53200.34
577.681	53289.6
578.042	53475.36
578.403	53490.05
578.763	53521.69
579.124	53690.27
579.485	53885.29
579.845	53934.1
580.206	53957.15
580.566	53965.52
580.927	53979.53
581.287	54171.84
581.648	54193.98
582.008	54326.41
582.368	54331.16
582.728	54412.28
583.089	54377.03
583.449	54514.2
583.809	54450.02
584.169	54626.74
584.529	54540.19
584.889	54848.66
585.249	54724.59
585.609	54641.66
585.969	54845.49
586.329	54844.59
586.688	55003
587.048	54916.68
587.408	54983.57
587.768	55048.65
588.127	55124.58
588.487	55092.04
588.846	55423.78
589.206	55171.36
589.565	55303.11
589.925	55511.92
590.284	55436.89
590.643	55525.25
591.003	55586.72
591.362	55732.25
591.721	55685.02
592.08	55769.08
592.44	55962.98
592.799	55865.13
593.158	55890.66
593.517	55871.68
593.876	56062.18
594.235	56071.9
594.593	56041.17
594.952	56109.41
595.311	56116.65
595.67	56206.81
596.029	56425.11
596.387	56454.94
596.746	56547.6
597.104	56441.61
597.463	56475.28
597.822	56695.39
598.18	56600.7
598.538	56602.06
598.897	56791.88
599.255	56668.95
599.613	57024.64
599.972	56939.68
600.33	57087.47
600.688	57042.27
601.046	57121.59
601.404	57313.22
601.762	57208.82
602.12	57408.14
602.478	57418.53
602.836	57397.06
603.194	57300.12
603.552	57483.39
603.91	57426.89
604.268	57600
604.625	57535.14
604.983	57761.35
605.341	57688.36
605.698	57813.1
606.056	57947.78
606.413	57875.24
606.771	58065.52
607.128	58067.1
607.485	58028.69
607.843	58114.56
608.2	58210.38
608.557	58321.56
608.914	58275.23
609.272	58500.76
609.629	58585.73
609.986	58665.05
610.343	58595.45
610.7	58744.83
611.057	58720.19
611.414	58688.33
611.771	58832.73
612.127	58914.31
612.484	58871.38
612.841	58981.43
613.198	58995.21
613.554	59048.32
613.911	59209.45
614.267	59186.4
614.624	59172.84
614.98	59301.87
615.337	59463
615.693	59445.37
616.05	59458.25
616.406	59594.75
616.762	59566.05
617.118	59577.35
617.475	59541.64
617.831	59713.39
618.187	59686.27
618.543	59795.42
618.899	59955.87
619.255	59879.71
619.611	59854.85
619.967	59957
620.323	60067.95
620.678	59987.96
621.034	59959.03
621.39	59986.83
621.746	60020.27
622.101	60321.51
622.457	60087.61
622.812	60242.19
623.168	60213.04
623.523	60224.79
623.879	60355.86
624.234	60168.06
624.589	60293.49
624.945	60277.44
625.3	60354.73
625.655	60325.57
626.01	60332.81
626.365	60392.24
626.72	60321.73
627.075	60290.77
627.43	60338.91
627.785	60346.59
628.14	60302.75
628.495	60421.17
628.85	60362.86
629.205	60347.5
629.559	60399.02
629.914	60274.05
630.269	60301.62
630.623	60197.67
630.978	60218.91
631.332	60308.63
631.687	60315.86
632.041	60271.11
632.396	60236.09
632.75	60164
633.104	60249.19
633.459	60147.95
633.813	60151.34
634.167	60107.73
634.521	60115.18
634.875	60119.03
635.229	60124
635.583	59971.69
635.937	60027.96
636.291	60002.42
636.645	59999.26
636.999	59900.28
637.352	59951.35
637.706	59821.41
638.06	59944.79
638.413	59898.69
638.767	59762.88
639.121	59855.3
639.474	59719.72
639.828	59747.74
640.181	59714.29
640.534	59740.28
640.888	59660.96
641.241	59555.88
641.594	59587.52
641.947	59655.31
642.301	59519.04
642.654	59615.76
643.007	59482.66
643.36	59532.15
643.713	59519.49
644.066	59600.17
644.419	59370.57
644.771	59152.5
645.124	58891.49
645.477	58800.87
645.83	58808.55
646.182	58785.5
646.535	58786.41
646.888	58726.97
647.24	58617.15
647.593	58811.26
647.945	58628.44
648.298	58569.46
648.65	58537.15
649.002	58383.25
649.355	58430.48
649.707	58338.96
650.059	58322.69
650.411	58724.04
650.763	58739.63
651.115	59137.81
651.467	59021.2
651.819	58990.47
652.171	58939.62
652.523	58825.05
652.875	58853.98
653.227	58785.5
653.578	58917.7
653.93	58820.3
654.282	58712.96
654.633	58633.19
654.985	58707.31
655.337	58701.21
655.688	58726.52
656.039	58737.59
656.391	58497.6
656.742	58570.37
657.094	58573.53
657.445	58583.47
657.796	58496.47
658.147	58493.08
658.498	58491.27
658.849	58544.15
659.2	58470.93
659.551	58367.66
659.902	58602
660.253	58342.8
660.604	58506.41
660.955	58362.24
661.306	58465.28
661.656	58348
662.007	58387.32
662.358	58370.15
662.708	58424.16
663.059	58293.09
663.409	58195.24
663.76	58316.59
664.11	58345.74
664.461	58291.96
664.811	58383.03
665.161	58336.02
665.511	58188
665.862	58373.54
666.212	58328.79
666.562	58345.29
666.912	58296.25
667.262	58239.53
667.612	58271.39
667.962	58213.77
668.312	58153.43
668.662	58358.85
669.011	58313.42
669.361	58195.69
669.711	58164.05
670.06	58115.24
670.41	58058.29
670.76	58103.94
671.109	58179.19
671.459	58134.9
671.808	58079.98
672.157	58106.42
672.507	58006.54
672.856	57969.25
673.205	58061.23
673.554	58041.34
673.904	57957.28
674.253	58202.69
674.602	58035.92
674.951	57716.6
675.3	57585.53
675.649	58061.91
675.998	58020.32
676.346	58018.06
676.695	57989.59
677.044	57850.39
677.393	57956.82
677.741	58049.7
678.09	57916.15
678.438	57823.04
678.787	57890.61
679.135	57978.74
679.484	57735.81
679.832	57875.92
680.181	57795.02
680.529	57856.49
680.877	57772.42
681.225	57695.14
681.573	57920.89
681.922	57665.31
682.27	57649.04
682.618	57694.01
682.966	57666.44
683.314	57600.9
683.661	57612.88
684.009	57556.83
684.357	57504.41
684.705	57411.75
685.053	57488.81
685.4	57335.37
685.748	57374.47
686.095	57283.85
686.443	57250.85
686.79	57241.59
687.138	57276.16
687.485	57220.35
687.832	57132.66
688.18	57100.8
688.527	56999.11
688.874	57087.69
689.221	57017.87
689.568	56917.75
689.915	56863.07
690.262	56925.44
690.609	56906.23
690.956	56707.82
691.303	56759.79
691.65	56593.92
691.997	56614.71
692.344	56527.26
692.69	56461.95
693.037	56561.15
693.383	56212.01
693.73	56406.81
694.077	56256.53
694.423	56217.66
694.769	56092.01
695.116	56122.97
695.462	56094.73
695.808	55928.85
696.155	56030.77
696.501	55776.32
696.847	55805.24
697.193	55748.97
697.539	55715.07
697.885	55463.1
698.231	55499.71
698.577	55503.78
698.923	55428.75
699.269	55214.3
699.614	55182.21
699.96	55146.28
700.306	55120.29
700.651	55003.45
700.997	54934.76
701.342	54848.2
701.688	54816.12
702.033	54661.32
702.379	54692.05
702.724	54639.62
703.069	54732.95
703.415	54393.53
703.76	54357.82
704.105	54388.78
704.45	54217.49
704.795	54218.84
705.14	54062.01
705.485	54109.24
705.83	53856.37
706.175	54008.68
706.52	53860.21
706.865	53810.27
707.209	53726.2
707.554	53688.91
707.899	53677.16
708.243	53512.42
708.588	53473.33
708.932	53346.32
709.277	53405.3
709.621	53316.49
709.966	53135.93
710.31	53139.55
710.654	52970.06
710.998	52991.76
711.342	53043.28
711.687	52827.69
712.031	52782.04
712.375	52715.15
712.719	52682.39
713.063	52581.82
713.407	52705.44
713.75	52538.66
714.094	52379.12
714.438	52422.05
714.782	52361.94
715.125	52120.14
715.469	52302.51
715.812	52106.58
716.156	51994.95
716.499	51918.56
716.843	52099.35
717.186	51833.59
717.53	52006.02
717.873	51996.3
718.216	51853.71
718.559	51699.81
718.902	51414.17
719.246	51537.11
719.589	51451.23
719.932	51339.6
720.275	51333.95
720.617	51380.73
720.96	51196.55
721.303	51262.31
721.646	51297.34
721.989	51070.22
722.331	51055.31
722.674	50902.09
723.016	50974.63
723.359	50761.98
723.701	50928.31
724.044	50727.41
724.386	50579.39
724.729	50741.19
725.071	50627.98
725.413	50625.49
725.755	50552.5
726.097	50290.81
726.439	50258.49
726.782	50232.96
727.124	50397.25
727.465	50230.47
727.807	50013.76
728.149	50069.57
728.491	49821.67
728.833	50099.63
729.175	49956.36
729.516	49877.26
729.858	49722.92
730.199	49938.28
730.541	49937.83
730.882	49679.98
731.224	49689.92
731.565	49590.49
731.906	49544.84
732.248	49565.18
732.589	49329.25
732.93	49328.35
733.271	49449.7
733.612	49270.95
733.953	49390.72
734.294	49256.49
734.635	49123.38
734.976	49419.65
735.317	49100.56
735.658	49157.05
735.999	48907.8
736.339	49016.04
736.68	48911.41
737.021	48830.28
737.361	48681.81
737.702	48938.76
738.042	48827.12
738.383	48794.58
738.723	48753.22
739.063	48557.52
739.404	48694.24
739.744	48539.67
740.084	48506.22
740.424	48520.24
740.764	48316.63
741.104	48484.08
741.444	48257.19
741.784	48201.83
742.124	48313.01
742.464	48143.3
742.804	48090.42
743.143	47951.89
743.483	48133.58
743.823	47865.79
744.162	47876.41
744.502	47927.48
744.841	47734.49
745.181	47872.34
745.52	47658.79
745.86	47789.63
746.199	47805.45
746.538	47626.93
746.877	47733.36
747.216	47644.55
747.556	47560.03
747.895	47528.62
748.234	47376.99
748.573	47350.1
748.911	47247.5
749.25	47351.9
749.589	47151.91
749.928	47173.83
750.267	47247.27
750.605	47085.25
750.944	46999.6
751.283	46928.41
751.621	46957.34
751.96	46512.6
752.298	46818.36
752.636	46754.86
752.975	46644.8
753.313	46403.23
753.651	46649.55
753.989	46288.66
754.327	46395.77
754.666	45991.49
755.004	46225.61
