Data from 108_FLMS001491_009.txt Node
Date: Thu Apr 12 17:07:55 BST 2018
User: hsy
Spectrometer: FLMS00149
Trigger mode: 0
Integration Time (sec): 1.000000E-2
Scans to average: 10
Electric dark correction enabled: true
Nonlinearity correction enabled: false
Boxcar width: 0
XAxis mode: Wavelengths
Number of Pixels in Spectrum: 2048
>>>>>Begin Spectral Data<<<<<
341.393	-9.67
341.776	-9.67
342.16	-9.67
342.543	-87.86
342.927	-80.41
343.31	-81.99
343.693	-75.21
344.077	-54.19
344.46	-51.48
344.843	-52.39
345.226	-42.67
345.61	-46.51
345.993	-28.88
346.376	-18.71
346.759	21.51
347.142	28.97
347.525	40.95
347.908	68.29
348.291	71.9
348.674	111
349.057	109.42
349.44	106.48
349.823	144.9
350.206	182.18
350.588	251.79
350.971	254.5
351.354	271.45
351.737	275.29
352.119	286.59
352.502	315.51
352.884	308.06
353.267	327.94
353.65	344.21
354.032	351.22
354.414	341.28
354.797	367.94
355.179	375.85
355.562	372.46
355.944	367.94
356.326	372.69
356.709	383.76
357.091	406.81
357.473	400.94
357.855	397.09
358.238	374.72
358.62	404.55
359.002	374.04
359.384	407.04
359.766	371.33
360.148	409.98
360.53	404.1
360.912	404.78
361.294	407.04
361.676	401.16
362.057	384.44
362.439	414.27
362.821	367.26
363.203	372.24
363.584	374.5
363.966	390.54
364.348	387.83
364.729	377.43
365.111	393.7
365.493	379.24
365.874	367.26
366.256	356.87
366.637	381.95
367.019	394.61
367.4	373.82
367.781	367.72
368.163	388.96
368.544	378.11
368.925	411.11
369.306	366.59
369.688	391.22
370.069	385.79
370.45	393.25
370.831	381.05
371.212	366.59
371.593	379.69
371.974	392.8
372.355	377.21
372.736	390.31
373.117	373.59
373.498	398.22
373.879	402.74
374.26	382.18
374.641	400.71
375.021	378.34
375.402	396.19
375.783	414.72
376.163	412.91
376.544	393.93
376.925	418.79
377.305	418.56
377.686	398.45
378.066	396.87
378.447	415.4
378.827	419.01
379.208	435.06
379.588	402.07
379.968	427.15
380.349	422.18
380.729	421.95
381.109	421.05
381.489	422.4
381.87	442.74
382.25	428.73
382.63	436.64
383.01	440.93
383.39	426.25
383.77	466.47
384.15	447.49
384.53	459.01
384.91	456.08
385.29	426.7
385.67	450.43
386.049	468.28
386.429	468.05
386.809	467.37
387.189	474.38
387.568	472.12
387.948	461.27
388.328	461.05
388.707	470.31
389.087	487.71
389.466	455.4
389.846	492.46
390.225	481.84
390.605	485.91
390.984	491.55
391.363	488.17
391.743	480.71
392.122	494.04
392.501	519.58
392.881	518.67
393.26	504.89
393.639	515.28
394.018	532.91
394.397	520.25
394.776	527.26
395.155	515.96
395.534	524.1
395.913	538.33
396.292	512.35
396.671	530.88
397.05	573.13
397.429	545.34
397.808	549.41
398.186	542.4
398.565	570.42
398.944	561.61
399.323	554.6
399.701	578.11
400.08	585.11
400.458	575.17
400.837	566.13
401.215	572.68
401.594	565.9
401.972	577.88
402.351	578.78
402.729	583.98
403.107	595.96
403.486	595.96
403.864	606.35
404.242	601.38
404.62	623.3
404.999	610.65
405.377	629.18
405.755	610.65
406.133	649.97
406.511	649.52
406.889	666.01
407.267	670.31
407.645	660.36
408.023	656.75
408.401	675.73
408.779	679.12
409.156	684.54
409.534	701.72
409.912	695.84
410.29	690.19
410.667	685
411.045	707.37
411.422	716.41
411.8	731.77
412.178	728.38
412.555	737.65
412.933	743.75
413.31	747.37
413.687	771.77
414.065	759.8
414.442	767.93
414.819	794.6
415.197	778.55
415.574	807.25
415.951	790.08
416.328	819.68
416.705	802.73
417.082	841.83
417.46	816.52
417.837	805.22
418.214	834.82
418.591	819.23
418.967	812.22
419.344	853.58
419.721	868.27
420.098	843.64
420.475	842.28
420.852	866.46
421.228	852.22
421.605	890.41
421.982	872.11
422.358	907.36
422.735	909.17
423.111	933.13
423.488	913.24
423.864	923.41
424.241	926.57
424.617	930.64
424.994	948.72
425.37	942.16
425.746	932.9
426.123	948.94
426.499	968.38
426.875	976.74
427.251	988.72
427.627	1006.34
428.003	1016.74
428.379	992.78
428.756	1021.94
429.132	1030.07
429.507	1036.85
429.883	1039.34
430.259	1059.22
430.635	1064.87
431.011	1067.81
431.387	1096.96
431.763	1095.15
432.138	1101.26
432.514	1108.94
432.89	1096.74
433.265	1160.69
433.641	1144.65
434.016	1165.21
434.392	1175.83
434.767	1217.19
435.143	1219.9
435.518	1232.1
435.894	1232.1
436.269	1258.54
436.644	1263.29
437.02	1268.03
437.395	1261.25
437.77	1275.26
438.145	1299.67
438.52	1310.06
438.895	1297.64
439.271	1299.44
439.646	1349.39
440.021	1344.64
440.395	1344.19
440.77	1368.37
441.145	1359.33
441.52	1398.2
441.895	1373.57
442.27	1391.42
442.645	1365.66
443.019	1409.95
443.394	1397.52
443.769	1414.92
444.143	1425.09
444.518	1442.94
444.892	1430.06
445.267	1442.04
445.641	1428.71
446.016	1469.61
446.39	1482.04
446.764	1477.52
447.139	1485.88
447.513	1507.57
447.887	1497.4
448.262	1490.17
448.636	1522.26
449.01	1529.95
449.384	1554.13
449.758	1579.89
450.132	1558.65
450.506	1587.8
450.88	1608.14
451.254	1592.99
451.628	1641.36
452.002	1640.23
452.376	1653.56
452.75	1689.26
453.123	1710.96
453.497	1709.15
453.871	1725.42
454.244	1750.28
454.618	1772.88
454.992	1814.68
455.365	1810.16
455.739	1838.86
456.112	1831.41
456.486	1873.21
456.859	1889.48
457.232	1951.63
457.606	1946.43
457.979	1961.35
458.352	2012.42
458.725	1978.52
459.099	2015.58
459.472	2056.49
459.845	2099.2
460.218	2067.78
460.591	2121.12
460.964	2153.21
461.337	2143.04
461.71	2233.66
462.083	2227.33
462.456	2248.12
462.829	2260.32
463.201	2330.6
463.574	2317.04
463.947	2351.17
464.32	2363.82
464.692	2387.1
465.065	2403.59
465.438	2412.63
465.81	2438.4
466.183	2483.59
466.555	2529.92
466.928	2549.58
467.3	2549.13
467.672	2556.59
468.045	2630.03
468.417	2652.4
468.789	2716.36
469.161	2717.94
469.534	2772.17
469.906	2807.65
470.278	2790.48
470.65	2844.49
471.022	2905.73
471.394	2910.02
471.766	3011.71
472.138	3014.2
472.51	3056.91
472.882	3088.32
473.253	3152.95
473.625	3201.31
473.997	3256.68
474.369	3246.96
474.74	3271.59
475.112	3339.62
475.484	3409.22
475.855	3517.24
476.227	3504.13
476.598	3605.6
476.97	3695.99
477.341	3679.27
477.713	3819.6
478.084	3839.49
478.455	3953.61
478.827	3980.95
479.198	4115.64
479.569	4102.76
479.94	4193.38
480.311	4251.23
480.682	4371.45
481.053	4491
481.424	4554.95
481.795	4687.15
482.166	4708.85
482.537	4781.39
482.908	4917.65
483.279	4982.74
483.65	5128.95
484.021	5180.7
484.391	5311.54
484.762	5418.88
485.133	5429.73
485.503	5592.44
485.874	5671.08
486.244	5807.57
486.615	6000.79
486.985	6101.12
487.356	6187.45
487.726	6289.59
488.097	6469.48
488.467	6562.58
488.837	6701.11
489.207	6858.85
489.578	7062.91
489.948	7187.88
490.318	7389.68
490.688	7408.21
491.058	7619.28
491.428	7867.86
491.798	7997.57
492.168	8214.97
492.538	8349.88
492.908	8481.4
493.278	8703.54
493.648	8892.24
494.017	9058.34
494.387	9234.6
494.757	9418.78
495.126	9635.72
495.496	9826.9
495.866	10055.82
496.235	10205.88
496.605	10432.31
496.974	10626.88
497.344	10860.55
497.713	11060.54
498.082	11298.73
498.452	11517.25
498.821	11771.03
499.19	11881.54
499.559	12231.13
499.928	12462.54
500.298	12709.31
500.667	12932.36
501.036	13166.93
501.405	13425.68
501.774	13580.25
502.143	13907.25
502.512	14116.28
502.88	14465.2
503.249	14699.54
503.618	14973.43
503.987	15169.59
504.356	15490.93
504.724	15812.73
505.093	16038.72
505.462	16196.9
505.83	16557.8
506.199	16885.25
506.567	17207.73
506.936	17392.13
507.304	17721.84
507.672	18084.31
508.041	18184.87
508.409	18581.93
508.777	18955.25
509.145	19300.1
509.514	19366.76
509.882	19691.05
510.25	19999.06
510.618	20326.74
510.986	20503.91
511.354	20904.8
511.722	21208.3
512.09	21602.41
512.458	21628.4
512.826	21977.32
513.193	22282.85
513.561	22523.29
513.929	22756.28
514.297	23122.6
514.664	23376.38
515.032	23570.04
515.4	23899.98
515.767	24184.49
516.135	24364.6
516.502	24360.08
516.869	24899.27
517.237	25229.44
517.604	25137.69
517.972	25754.85
518.339	25838.23
518.706	26132.24
519.073	26372.46
519.44	26516.86
519.808	27069.84
520.175	27095.15
520.542	27608.36
520.909	27837.73
521.276	27953.43
521.643	28320.65
522.009	28711.38
522.376	28968.77
522.743	29158.37
523.11	29375.77
523.477	29804.46
523.843	29969.42
524.21	30318.79
524.577	30641.5
524.943	30918.78
525.31	31120.81
525.676	31453.9
526.043	31916.94
526.409	32052.98
526.776	32317.16
527.142	32606.87
527.508	32821.55
527.874	33045.73
528.241	33432.38
528.607	33571.59
528.973	34014.06
529.339	34111.69
529.705	34502.19
530.071	34728.17
530.437	34925.45
530.803	35228.72
531.169	35351.88
531.535	35562.05
531.901	35765.2
532.267	35953.22
532.632	36385.53
532.998	36472.98
533.364	36687.67
533.73	36812.41
534.095	37178.5
534.461	37269.34
534.826	37542.11
535.192	37686.96
535.557	37993.39
535.923	37882.44
536.288	38138.93
536.653	38362.65
537.019	38407.85
537.384	38643.09
537.749	38721.28
538.114	38858.23
538.479	38829.53
538.845	39126.02
539.21	39094.61
539.575	39341.61
539.94	39549.28
540.305	39785.89
540.67	39861.59
541.034	40017.07
541.399	40213.67
541.764	40289.38
542.129	40385.42
542.494	40510.62
542.858	40729.59
543.223	40784.51
543.587	40859.53
543.952	40869.93
544.316	41168.23
544.681	41141.56
545.045	41471.72
545.41	41530.02
545.774	41514.21
546.138	41668.33
546.503	41860.86
546.867	41902.9
547.231	42298.59
547.595	42393.05
547.959	42525.7
548.324	42581.75
548.688	42789.65
549.052	42802.53
549.416	42872.36
549.779	42959.59
550.143	43080.49
550.507	43358.9
550.871	43534.26
551.235	43528.39
551.599	43904.88
551.962	43892
552.326	44175.15
552.689	44277.3
553.053	44173.12
553.417	44526.56
553.78	44899.88
554.143	44994.57
554.507	45102.59
554.87	45285.63
555.234	45659.18
555.597	45399.3
555.96	45564.04
556.323	45919.06
556.686	45849.46
557.05	46119.28
557.413	46386.62
557.776	46420.52
558.139	46631.58
558.502	46922.42
558.865	46926.49
559.228	47139.14
559.59	47188.86
559.953	47464.33
560.316	47805.34
560.679	47807.6
561.041	48073.35
561.404	48255.27
561.767	48544.53
562.129	48503.85
562.492	48805.76
562.854	48908.81
563.217	48977.96
563.579	49129.37
563.941	49461.34
564.304	49534.11
564.666	49946.75
565.028	49844.83
565.39	49963.25
565.753	50238.04
566.115	50360.07
566.477	50530.92
566.839	50582.89
567.201	50996.67
567.563	50990.57
567.925	51325.7
568.287	51266.49
568.648	51366.83
569.01	51643.66
569.372	51853.82
569.734	51796.42
570.095	51962.29
570.457	52284.77
570.819	52273.47
571.18	52259.46
571.542	52605.21
571.903	52563.41
572.265	52727.92
572.626	52939.89
572.987	52891.98
573.349	53140.11
573.71	53299.66
574.071	53353.22
574.432	53560.67
574.794	53797.95
575.155	53809.93
575.516	53674.11
575.877	53856.93
576.238	53951.17
576.599	54023.25
576.96	54179.63
577.32	54194.1
577.681	54342.34
578.042	54559.96
578.403	54483.81
578.763	54549.34
579.124	54642
579.485	54857.81
579.845	54930.8
580.206	54946.62
580.566	54998.6
580.927	54989.33
581.287	55199.49
581.648	55127.63
582.008	55320.4
582.368	55368.76
582.728	55405.82
583.089	55400.39
583.449	55486.04
583.809	55527.4
584.169	55689.65
584.529	55628.64
584.889	55838.57
585.249	55686.04
585.609	55682.19
585.969	55836.99
586.329	55790.67
586.688	56024.78
587.048	56033.6
587.408	56022.3
587.768	55987.72
588.127	56126.93
588.487	56100.94
588.846	56378
589.206	56180.94
589.565	56334.15
589.925	56444.89
590.284	56464.77
590.643	56500.48
591.003	56566.24
591.362	56669.51
591.721	56693.24
592.08	56702.28
592.44	56929.84
592.799	56799.23
593.158	56834.71
593.517	56872.9
593.876	57037.41
594.235	57002.16
594.593	57053.01
594.952	57138.88
595.311	57172.55
595.67	57238.76
596.029	57394.47
596.387	57431.3
596.746	57481.69
597.104	57414.8
597.463	57431.75
597.822	57618.87
598.18	57556.04
598.538	57612.99
598.897	57781.8
599.255	57660
599.613	58032.64
599.972	57906.32
600.33	57978.18
600.688	57900.67
601.046	58048.23
601.404	58256.59
601.762	58159.42
602.12	58361.22
602.478	58261.79
602.836	58370.71
603.194	58231.73
603.552	58358.28
603.91	58283.48
604.268	58529.8
604.625	58481.89
604.983	58618.16
605.341	58553.53
605.698	58725.96
606.056	58904.93
606.413	58685.5
606.771	58940.19
607.128	58918.72
607.485	58904.93
607.843	58910.81
608.2	59069.68
608.557	59174.53
608.914	59114.42
609.272	59291.14
609.629	59374.53
609.986	59459.04
610.343	59391.25
610.7	59566.16
611.057	59538.14
611.414	59450.91
611.771	59612.49
612.127	59708.98
612.484	59657.91
612.841	59802.99
613.198	59730.22
613.554	59810.9
613.911	59970.67
614.267	59987.17
614.624	59974.06
614.98	60022.19
615.337	60216.09
615.693	60186.93
616.05	60262.41
616.406	60338.57
616.762	60291.56
617.118	60319.81
617.475	60380.15
617.831	60480.94
618.187	60504.44
618.543	60528.17
618.899	60703.08
619.255	60565.23
619.611	60636.41
619.967	60736.07
620.323	60817.88
620.678	60732.23
621.034	60722.97
621.39	60780.14
621.746	60752.8
622.101	60960.47
622.457	60825.11
622.812	60946.24
623.168	61016.97
623.523	61012.68
623.879	61094.71
624.234	60986.91
624.589	61040.02
624.945	61111.66
625.3	61136.06
625.655	61129.28
626.01	61143.97
626.365	61169.28
626.72	61129.06
627.075	61108.27
627.43	61112.33
627.785	61158.66
628.14	61158.66
628.495	61153.69
628.85	61154.59
629.205	61150.75
629.559	61237.53
629.914	61095.61
630.269	61160.24
630.623	61073.24
630.978	61051.54
631.332	61162.73
631.687	61162.5
632.041	61152.56
632.396	61116.4
632.75	61096.52
633.104	61168.15
633.459	61008.83
633.813	61029.17
634.167	60991.66
634.521	61046.35
634.875	60963.41
635.229	60929.06
635.583	60843.41
635.937	60877.31
636.291	60818.1
636.645	60903.3
636.999	60770.2
637.352	60826.69
637.706	60676.19
638.06	60786.24
638.413	60712.34
638.767	60632.35
639.121	60740.37
639.474	60565.91
639.828	60570.88
640.181	60593.03
640.534	60628.96
640.888	60493.14
641.241	60421.05
641.594	60467.6
641.947	60498.11
642.301	60408.4
642.654	60446.59
643.007	60272.58
643.36	60385.35
643.713	60347.61
644.066	60385.12
644.419	60231.9
644.771	60010.67
645.124	59812.71
645.477	59751.01
645.83	59622.2
646.182	59600.28
646.535	59556.89
646.888	59587.85
647.24	59534.3
647.593	59718.7
647.945	59551.02
648.298	59492.94
648.65	59414.07
649.002	59276
649.355	59251.37
649.707	59203.91
650.059	59183.57
650.411	59592.83
650.763	59623.33
651.115	59928.41
651.467	59805.93
651.819	59847.06
652.171	59758.7
652.523	59674.63
652.875	59698.59
653.227	59589.89
653.578	59765.02
653.93	59677.57
654.282	59584.69
654.633	59555.99
654.985	59590.34
655.337	59586.27
655.688	59550.79
656.039	59570.23
656.391	59337.69
656.742	59396.22
657.094	59444.13
657.445	59395.99
657.796	59377.69
658.147	59352.83
658.498	59373.85
658.849	59466.95
659.2	59329.78
659.551	59279.84
659.902	59442.77
660.253	59253.4
660.604	59327.07
660.955	59260.18
661.306	59337.69
661.656	59185.15
662.007	59232.16
662.358	59180.18
662.708	59221.54
663.059	59163.46
663.409	59084.82
663.76	59230.35
664.11	59217.92
664.461	59259.95
664.811	59212.04
665.161	59197.13
665.511	59101.77
665.862	59148.77
666.212	59120.3
666.562	59166.17
666.912	59144.25
667.262	59030.81
667.612	59074.87
667.962	59027.19
668.312	59034.2
668.662	59127.98
669.011	59052.73
669.361	59029
669.711	59029.45
670.06	59004.82
670.41	58950.13
670.76	58990.13
671.109	59083.69
671.459	59021.54
671.808	59001.65
672.157	59077.59
672.507	58843.92
672.856	58838.72
673.205	58964.37
673.554	58957.14
673.904	58973.86
674.253	59019.73
674.602	58915.1
674.951	58579.75
675.3	58431.05
675.649	58920.98
675.998	58881.43
676.346	58889.57
676.695	58952.39
677.044	58739.51
677.393	58756.92
677.741	58864.03
678.09	58791.04
678.438	58770.93
678.787	58817.7
679.135	58774.54
679.484	58691.61
679.832	58805.95
680.181	58679.63
680.529	58659.06
680.877	58601.21
681.225	58668.1
681.573	58795.78
681.922	58570.03
682.27	58508.79
682.618	58513.76
682.966	58452.06
683.314	58470.82
683.661	58494.55
684.009	58352.63
684.357	58424.04
684.705	58266.98
685.053	58362.58
685.4	58288
685.748	58151.73
686.095	58170.72
686.443	58033.54
686.79	58090.04
687.138	58133.43
687.485	58073.09
687.832	57980.89
688.18	58021.12
688.527	57887.79
688.874	57878.07
689.221	57853.66
689.568	57770.73
689.915	57762.82
690.262	57757.62
690.609	57724.17
690.956	57640.11
691.303	57615.02
691.65	57560.11
691.997	57472.66
692.344	57322.15
692.69	57277.63
693.037	57412.32
693.383	57114.02
693.73	57222.27
694.077	57038.54
694.423	57115.15
694.769	57063.63
695.116	57016.62
695.462	56895.95
695.808	56842.62
696.155	56927.81
696.501	56644.65
696.847	56760.36
697.193	56604.66
697.539	56604.66
697.885	56481.04
698.231	56413.02
698.577	56431.33
698.923	56430.42
699.269	56206.47
699.614	56171.45
699.96	56043.77
700.306	56115.63
700.651	56024.11
700.997	55897.56
701.342	55892.13
701.688	55847.16
702.033	55687.39
702.379	55778.01
702.724	55633.16
703.069	55765.81
703.415	55358.13
703.76	55385.93
704.105	55412.37
704.45	55254.63
704.795	55126.73
705.14	55087.18
705.485	55100.06
705.83	54912.04
706.175	55082.21
706.52	54887.64
706.865	54729.9
707.209	54704.14
707.554	54712.5
707.899	54675.67
708.243	54589.79
708.588	54496.01
708.932	54311.16
709.277	54455.79
709.621	54378.73
709.966	54166.53
710.31	54127.21
710.654	54028.23
710.998	54001.79
711.342	54100.31
711.687	53910.49
712.031	53822.36
712.375	53661.68
712.719	53663.94
713.063	53586.43
713.407	53778.97
713.75	53542.59
714.094	53529.93
714.438	53395.25
714.782	53411.75
715.125	53290.62
715.469	53422.37
715.812	53218.08
716.156	53211.3
716.499	53094.01
716.843	53167.68
717.186	52960.23
717.53	53148.48
717.873	53046.33
718.216	52912.32
718.559	52861.7
718.902	52615.38
719.246	52668.26
719.589	52561.37
719.932	52441.83
720.275	52586.91
720.617	52473.24
720.96	52403.86
721.303	52369.96
721.646	52388.27
721.989	52215.17
722.331	52333.81
722.674	52210.42
723.016	52215.17
723.359	52068.5
723.701	52075.28
724.044	51925.23
724.386	51821.28
724.729	51982.63
725.071	51844.33
725.413	51834.39
725.755	51755.52
726.097	51616.99
726.439	51536.99
726.782	51440.5
727.124	51664.9
727.465	51541.29
727.807	51352.82
728.149	51462.64
728.491	51397.11
728.833	51321.63
729.175	51279.6
729.516	51159.15
729.858	51138.58
730.199	51306.49
730.541	51166.15
730.882	51065.37
731.224	51023.33
731.565	50841.87
731.906	50960.51
732.248	51003
732.589	50744.02
732.93	50631.93
733.271	50638.03
733.612	50655.43
733.953	50701.53
734.294	50477.81
734.635	50554.19
734.976	50595.1
735.317	50452.5
735.658	50289.12
735.999	50367.08
736.339	50265.84
736.68	50270.81
737.021	50259.29
737.361	50224.71
737.702	50435.55
738.042	50191.94
738.383	50137.93
738.723	50135.45
739.063	49916.24
739.404	50003.25
739.744	49952.18
740.084	49922.12
740.424	49960.31
740.764	49886.41
741.104	49983.36
741.444	49687.32
741.784	49537.5
742.124	49779.98
742.464	49611.62
742.804	49512.86
743.143	49495.92
743.483	49424.51
743.823	49401.23
744.162	49330.95
744.502	49307.9
744.841	49205.08
745.181	49364.85
745.52	49154.91
745.86	49171.63
746.199	49173.89
746.538	49017.06
746.877	49184.74
747.216	48954.91
747.556	48996.72
747.895	48883.28
748.234	48836.5
748.573	48849.61
748.911	48846.22
749.25	48822.26
749.589	48587.69
749.928	48660.68
750.267	48586.56
750.605	48400.8
750.944	48425.44
751.283	48362.61
751.621	48448.49
751.96	48148.38
752.298	48138.89
752.636	48182.73
752.975	48022.51
753.313	47964.88
753.651	48040.59
753.989	47780.03
754.327	47865
754.666	47462.07
755.004	47676.53
