Data from 108_FLMS001491_002.txt Node
Date: Thu Apr 12 17:07:40 BST 2018
User: hsy
Spectrometer: FLMS00149
Trigger mode: 0
Integration Time (sec): 1.000000E-2
Scans to average: 10
Electric dark correction enabled: true
Nonlinearity correction enabled: false
Boxcar width: 0
XAxis mode: Wavelengths
Number of Pixels in Spectrum: 2048
>>>>>Begin Spectral Data<<<<<
341.393	-4.89
341.776	-4.89
342.16	-4.89
342.543	-76.98
342.927	-36.52
343.31	-65.45
343.693	-66.81
344.077	-57.77
344.46	-72.91
344.843	-61.38
345.226	-37.43
345.61	-28.39
345.993	-25.45
346.376	19.07
346.759	-0.37
347.142	27.43
347.525	45.73
347.908	57.71
348.291	64.49
348.674	91.38
349.057	110.14
349.44	133.41
349.823	152.85
350.206	178.84
350.588	232.62
350.971	255.22
351.354	260.87
351.737	281.21
352.119	293.64
352.502	306.07
352.884	335.22
353.267	322.34
353.65	334.09
354.032	342.45
354.414	354.2
354.797	355.33
355.179	350.36
355.562	377.93
355.944	384.26
356.326	377.7
356.709	377.02
357.091	376.57
357.473	390.13
357.855	403.92
358.238	391.03
358.62	391.94
359.002	381.32
359.384	410.7
359.766	382.67
360.148	394.88
360.53	401.43
360.912	386.52
361.294	405.72
361.676	374.54
362.057	390.58
362.439	388.78
362.821	376.8
363.203	383.35
363.584	393.07
363.966	376.35
364.348	386.52
364.729	380.87
365.111	386.52
365.493	395.55
365.874	365.05
366.256	388.55
366.637	385.16
367.019	364.37
367.4	376.57
367.781	359.17
368.163	378.15
368.544	374.31
368.925	357.82
369.306	377.7
369.688	393.29
370.069	379.96
370.45	379.28
370.831	357.82
371.212	386.97
371.593	383.8
371.974	363.69
372.355	355.33
372.736	372.05
373.117	410.47
373.498	365.95
373.879	372.05
374.26	387.42
374.641	397.14
375.021	380.19
375.402	412.05
375.783	396.23
376.163	405.72
376.544	393.52
376.925	408.66
377.305	412.73
377.686	398.27
378.066	407.76
378.447	387.87
378.827	401.2
379.208	419.73
379.588	428.32
379.968	405.05
380.349	396.46
380.729	419.51
381.109	418.6
381.489	419.73
381.87	426.97
382.25	435.78
382.63	398.72
383.01	422.22
383.39	435.33
383.77	442.78
384.15	439.85
384.53	442.78
384.91	430.81
385.29	431.03
385.67	463.58
386.049	468.1
386.429	445.27
386.809	457.02
387.189	473.07
387.568	454.54
387.948	450.47
388.328	477.59
388.707	481.65
389.087	464.03
389.466	466.97
389.846	466.74
390.225	466.74
390.605	473.74
390.984	483.46
391.363	492.95
391.743	476.91
392.122	496.12
392.501	510.35
392.881	517.81
393.26	505.16
393.639	496.57
394.018	506.74
394.397	502.44
394.776	522.78
395.155	516.46
395.534	523.46
395.913	498.83
396.292	517.81
396.671	528.43
397.05	547.87
397.429	511.71
397.808	515.55
398.186	547.41
398.565	562.33
398.944	537.92
399.323	532.95
399.701	541.54
400.08	549.67
400.458	538.83
400.837	568.43
401.215	554.87
401.594	560.52
401.972	566.17
402.351	575.21
402.729	565.95
403.107	582.22
403.486	570.24
403.864	581.99
404.242	591.26
404.62	592.61
404.999	593.97
405.377	604.59
405.755	610.92
406.133	617.24
406.511	627.41
406.889	643.23
407.267	631.71
407.645	664.93
408.023	630.58
408.401	648.66
408.779	640.07
409.156	671.93
409.534	644.36
409.912	642.33
410.29	683.91
410.667	685.72
411.045	712.38
411.422	672.38
411.8	689.33
412.178	705.83
412.555	706.05
412.933	709.9
413.31	721.2
413.687	729.78
414.065	730.69
414.442	777.69
414.819	756.9
415.197	734.75
415.574	772.95
415.951	790.12
416.328	776.56
416.705	765.04
417.082	767.52
417.46	781.76
417.837	787.18
418.214	790.12
418.591	778.14
418.967	780.86
419.344	817.24
419.721	830.12
420.098	838.93
420.475	820.63
420.852	836.45
421.228	822.44
421.605	833.51
421.982	825.15
422.358	857.01
422.735	821.76
423.111	839.38
423.488	864.24
423.864	887.52
424.241	873.06
424.617	881.19
424.994	874.86
425.37	885.49
425.746	892.49
426.123	907.18
426.499	918.93
426.875	927.97
427.251	951.92
427.627	968.65
428.003	946.05
428.379	958.93
428.756	960.29
429.132	972.26
429.507	1012.71
429.883	1003.22
430.259	1005.26
430.635	1018.59
431.011	1014.75
431.387	1028.98
431.763	1048.19
432.138	1063.33
432.514	1083.22
432.89	1072.37
433.265	1085.71
433.641	1112.6
434.016	1098.36
434.392	1132.48
434.767	1159.83
435.143	1138.81
435.518	1117.8
435.894	1146.72
436.269	1143.56
436.644	1184.46
437.02	1184.91
437.395	1180.17
437.77	1190.56
438.145	1213.61
438.52	1214.97
438.895	1227.17
439.271	1221.97
439.646	1245.93
440.021	1262.2
440.395	1281.18
440.77	1231.69
441.145	1260.39
441.52	1305.14
441.895	1277.34
442.27	1298.81
442.645	1301.07
443.019	1324.12
443.394	1320.95
443.769	1339.03
444.143	1334.74
444.518	1331.8
444.892	1322.31
445.267	1353.04
445.641	1338.35
446.016	1375.19
446.39	1391.91
446.764	1399.37
447.139	1373.16
447.513	1379.71
447.887	1419.93
448.262	1402.76
448.636	1411.57
449.01	1466.49
449.384	1438.24
449.758	1413.83
450.132	1466.71
450.506	1473.94
450.88	1499.71
451.254	1492.7
451.628	1512.81
452.002	1523.66
452.376	1536.09
452.75	1534.06
453.123	1549.87
453.497	1586.71
453.871	1602.53
454.244	1626.26
454.618	1624.9
454.992	1661.51
455.365	1654.05
455.739	1720.27
456.112	1701.51
456.486	1734.5
456.859	1746.71
457.232	1770.89
457.606	1804.56
457.979	1820.6
458.352	1858.79
458.725	1860.37
459.099	1861.28
459.472	1900.37
459.845	1923.2
460.218	1922.75
460.591	1950.32
460.964	1993.7
461.337	1999.13
461.71	2018.56
462.083	2083.42
462.456	2056.08
462.829	2076.19
463.201	2123.64
463.574	2141.72
463.947	2150.08
464.32	2178.33
464.692	2183.98
465.065	2206.81
465.438	2232.57
465.81	2287.93
466.183	2257.88
466.555	2346.46
466.928	2379.01
467.3	2380.14
467.672	2417.2
468.045	2434.37
468.417	2430.3
468.789	2460.81
469.161	2517.53
469.534	2511.66
469.906	2556.4
470.278	2590.98
470.65	2618.32
471.022	2690.41
471.394	2695.61
471.766	2709.39
472.138	2762.72
472.51	2805.43
472.882	2832.78
473.253	2907.35
473.625	2901.7
473.997	2984.41
474.369	3043.62
474.74	3016.95
475.112	3065.99
475.484	3125.2
475.855	3198.42
476.227	3244.07
476.598	3278.19
476.97	3357.51
477.341	3431.86
477.713	3440.9
478.084	3533.33
478.455	3588.01
478.827	3658.29
479.198	3769.25
479.569	3776.93
479.94	3859.19
480.311	3978.29
480.682	3999.98
481.053	4105.74
481.424	4202.91
481.795	4237.26
482.166	4320.65
482.537	4424.6
482.908	4490.81
483.279	4588.66
483.65	4691.26
484.021	4808.32
484.391	4811.71
484.762	4900.97
485.133	5032.27
485.503	5121.53
485.874	5278.14
486.244	5326.05
486.615	5451.01
486.985	5566.94
487.356	5708.86
487.726	5799.25
488.097	5968.06
488.467	6058
488.837	6206.7
489.207	6355.85
489.578	6568.5
489.948	6625
490.318	6789.28
490.688	6878.77
491.058	7077.86
491.428	7233.34
491.798	7332.77
492.168	7556.72
492.538	7750.62
492.908	7913.1
493.278	8157.38
493.648	8228.79
494.017	8385.63
494.387	8625.39
494.757	8742.45
495.126	8980.19
495.496	9213.85
495.866	9389.89
496.235	9544.01
496.605	9816.1
496.974	9957.11
497.344	10221.28
497.713	10423.09
498.082	10556.42
498.452	10841.83
498.821	11082.05
499.19	11202.05
499.559	11441.37
499.928	11715.26
500.298	11920
500.667	12224.62
501.036	12387.56
501.405	12694.89
501.774	12914.1
502.143	13208.55
502.512	13443.57
502.88	13817.8
503.249	13859.83
503.618	14171.46
503.987	14460.5
504.356	14788.17
504.724	15003.31
505.093	15237.65
505.462	15501.37
505.83	15784.98
506.199	16135.25
506.567	16453.44
506.936	16660.89
507.304	17031.28
507.672	17226.52
508.041	17498.83
508.409	17806.4
508.777	18168.65
509.145	18441.41
509.514	18603.21
509.882	18947.61
510.25	19160.03
510.618	19410.42
510.986	19705.1
511.354	20027.13
511.722	20253.79
512.09	20667.56
512.458	20774.23
512.826	21024.39
513.193	21267.1
513.561	21705.73
513.929	21870.02
514.297	22274.75
514.664	22387.07
515.032	22631.35
515.4	22976.88
515.767	23273.82
516.135	23403.76
516.502	23494.61
516.869	23935.95
517.237	24179.11
517.604	24309.95
517.972	24799.66
518.339	24948.13
518.706	25076.04
519.073	25427.21
519.44	25650.71
519.808	25930.7
520.175	26132.5
520.542	26581.53
520.909	26733.39
521.276	26897.68
521.643	27328.18
522.009	27464.67
522.376	27794.83
522.743	28093.58
523.11	28494.93
523.477	28800.91
523.843	28830.97
524.21	29367.45
524.577	29632.07
524.943	29920.2
525.31	30023.02
525.676	30421.88
526.043	30658.26
526.409	30857.8
526.776	31228.19
527.142	31414.63
527.508	31618.91
527.874	32030.43
528.241	32261.61
528.607	32466.8
528.973	32766.23
529.339	32884.64
529.705	33218.19
530.071	33532.76
530.437	33837.39
530.803	34017.04
531.169	34260.65
531.535	34337.71
531.901	34581.55
532.267	34790.36
532.632	35060.41
532.998	35286.84
533.364	35479.15
533.73	35639.6
534.095	35931.34
534.461	36156.87
534.826	36251.79
535.192	36482.52
535.557	36734.94
535.923	36769.29
536.288	36811.77
536.653	37140.35
537.019	37111.88
537.384	37292.44
537.749	37437.52
538.114	37656.04
538.479	37708.02
538.845	38000.67
539.21	37974
539.575	38109.82
539.94	38358.85
540.305	38504.38
540.67	38561.78
541.034	38713.42
541.399	38790.03
541.764	38957.03
542.129	39056.68
542.494	39343.91
542.858	39389.56
543.223	39395.89
543.587	39723.79
543.952	39649.21
544.316	39903.44
544.681	39851.24
545.045	40233.15
545.41	40272.7
545.774	40234.73
546.138	40417.1
546.503	40414.16
546.867	40636.3
547.231	40970.53
547.595	40963.08
547.959	41019.8
548.324	41170.3
548.688	41275.84
549.052	41441.48
549.416	41510.41
549.779	41650.74
550.143	41774.58
550.507	42103.16
550.871	42390.83
551.235	42137.96
551.599	42717.38
551.962	42650.49
552.326	42821.11
552.689	42951.27
553.053	42895.23
553.417	43121.66
553.78	43450.92
554.143	43466.06
554.507	43656.79
554.87	43802.55
555.234	44271.69
555.597	43971.13
555.96	44174.52
556.323	44434.17
556.686	44492.93
557.05	44869.87
557.413	45005.68
557.776	45012.46
558.139	45395.05
558.502	45492
558.865	45522.73
559.228	45898.99
559.59	46093.34
559.953	46114.35
560.316	46632.76
560.679	46554.11
561.041	46769.7
561.404	47027.1
561.767	47341.89
562.129	47260.76
562.492	47710.92
562.854	47662.11
563.217	47801.09
563.579	47949.33
563.941	48200.85
564.304	48340.28
564.666	48724.91
565.028	48574.85
565.39	48744.79
565.753	49025.01
566.115	49147.72
566.477	49248.51
566.839	49522.4
567.201	49794.03
567.563	49812.79
567.925	50132.1
568.287	50170.74
568.648	50285.54
569.01	50442.6
569.372	50737.96
569.734	50662.26
570.095	50962.13
570.457	51127.78
570.819	51199.87
571.18	51216.59
571.542	51532.52
571.903	51533.64
572.265	51734.32
572.626	51803.02
572.987	51944.71
573.349	52085.49
573.71	52245.94
574.071	52358.26
574.432	52574.75
574.794	52749.66
575.155	52711.92
575.516	52760.51
575.877	52946.04
576.238	53015.87
576.599	53126.37
576.96	53231.68
577.32	53361.39
577.681	53259.02
578.042	53546.02
578.403	53607.94
578.763	53659.92
579.124	53736.98
579.485	53872.34
579.845	53941.94
580.206	53971.77
580.566	53983.52
580.927	54040.02
581.287	54228.72
581.648	54084.99
582.008	54362.5
582.368	54382.61
582.728	54482.04
583.089	54544.41
583.449	54583.06
583.809	54699.89
584.169	54728.36
584.529	54725.2
584.889	54864.63
585.249	54719.32
585.609	54734.69
585.969	54930.39
586.329	54863.05
586.688	55058.52
587.048	55051.52
587.408	55090.61
587.768	55156.15
588.127	55272.53
588.487	55247.9
588.846	55490.15
589.206	55339.87
589.565	55386.43
589.925	55597.49
590.284	55519.3
590.643	55630.94
591.003	55610.6
591.362	55828.9
591.721	55796.58
592.08	55841.78
592.44	55978.95
592.799	55863.7
593.158	55986.86
593.517	55963.81
593.876	56192.73
594.235	56212.84
594.593	56207.65
594.952	56285.61
595.311	56233.86
595.67	56323.58
596.029	56530.58
596.387	56602.89
596.746	56673.4
597.104	56548.2
597.463	56531.71
597.822	56789.78
598.18	56669.33
598.538	56757.46
598.897	56927.85
599.255	56805.82
599.613	57140.5
599.972	57029.32
600.33	57174.17
600.688	57116.55
601.046	57205.36
601.404	57396.77
601.762	57392.02
602.12	57484.67
602.478	57485.35
602.836	57551.79
603.194	57449.2
603.552	57563.99
603.91	57560.61
604.268	57703.65
604.625	57660.94
604.983	57853.93
605.341	57751.11
605.698	57959.92
606.056	57995.4
606.413	58011.44
606.771	58169.18
607.128	58144.54
607.485	58109.97
607.843	58148.84
608.2	58304.54
608.557	58444.65
608.914	58382.05
609.272	58521.71
609.629	58607.58
609.986	58723.06
610.343	58624.53
610.7	58906.78
611.057	58775.71
611.414	58808.48
611.771	58992.21
612.127	58971.19
612.484	58985.43
612.841	59115.37
613.198	59058.42
613.554	59117.4
613.911	59306.1
614.267	59241.92
614.624	59223.84
614.98	59373.89
615.337	59542.93
615.693	59488.24
616.05	59510.38
616.406	59644.39
616.762	59576.37
617.118	59586.09
617.475	59595.58
617.831	59759.19
618.187	59771.85
618.543	59841.68
618.899	59935.01
619.255	59902.24
619.611	59952.86
619.967	60043.93
620.323	60134.77
620.678	60038.51
621.034	59996.25
621.39	60108.33
621.746	60025.63
622.101	60303.58
622.457	60120.31
622.812	60231.27
623.168	60332.51
623.523	60237.14
623.879	60355.11
624.234	60246.41
624.589	60267.88
624.945	60317.37
625.3	60431.04
625.655	60424.94
626.01	60398.5
626.365	60441.66
626.72	60365.96
627.075	60403.69
627.43	60355.56
627.785	60409.34
628.14	60348.55
628.495	60418.16
628.85	60408.67
629.205	60348.1
629.559	60578.15
629.914	60425.16
630.269	60461.09
630.623	60331.15
630.978	60267.43
631.332	60451.6
631.687	60454.54
632.041	60391.94
632.396	60350.59
632.75	60332.28
633.104	60369.8
633.459	60253.19
633.813	60303.36
634.167	60203.47
634.521	60221.1
634.875	60271.72
635.229	60194.43
635.583	60094.32
635.937	60085.28
636.291	60052.52
636.645	60123.02
636.999	59943.82
637.352	60083.48
637.706	59904.72
638.06	60028.79
638.413	59942.24
638.767	59868.34
639.121	59910.37
639.474	59823.14
639.828	59846.87
640.181	59773.65
640.534	59850.94
640.888	59736.82
641.241	59633.55
641.594	59645.52
641.947	59740.89
642.301	59629.7
642.654	59678.52
643.007	59561
643.36	59614.56
643.713	59563.49
644.066	59637.84
644.419	59499.76
644.771	59194.01
645.124	59022.49
645.477	58975.26
645.83	58881.7
646.182	58863.85
646.535	58821.81
646.888	58871.31
647.24	58786.56
647.593	58843.96
647.945	58819.56
648.298	58707.92
648.65	58565.1
649.002	58551.31
649.355	58539.79
649.707	58429.28
650.059	58461.15
650.411	58740.24
650.763	58821.59
651.115	59155.37
651.467	58989.95
651.819	59005.09
652.171	59046.22
652.523	58943.39
652.875	58961.47
653.227	58855.26
653.578	58999.66
653.93	58977.97
654.282	58813.68
654.633	58883.96
654.985	58848.71
655.337	58825.2
655.688	58757.18
656.039	58906.11
656.391	58607.81
656.742	58761.7
657.094	58781.36
657.445	58716.96
657.796	58726.9
658.147	58608.94
658.498	58685.1
658.849	58713.12
659.2	58618.43
659.551	58524.2
659.902	58665.43
660.253	58544.99
660.604	58630.63
660.955	58485.1
661.306	58567.81
661.656	58437.64
662.007	58508.38
662.358	58467.7
662.708	58455.04
663.059	58463.86
663.409	58302.51
663.76	58455.04
664.11	58372.79
664.461	58467.25
664.811	58428.38
665.161	58424.54
665.511	58338.89
665.862	58322.85
666.212	58418.66
666.562	58389.28
666.912	58318.55
667.262	58271.55
667.612	58286.69
667.962	58259.12
668.312	58195.39
668.662	58372.79
669.011	58315.16
669.361	58305.44
669.711	58254.15
670.06	58288.5
670.41	58202.62
670.76	58219.34
671.109	58319.23
671.459	58245.78
671.808	58165.56
672.157	58241.49
672.507	58112.91
672.856	58112.68
673.205	58120.59
673.554	58177.31
673.904	58140.93
674.253	58299.34
674.602	58144.32
674.951	57771
675.3	57664.11
675.649	58172.34
675.998	58128.5
676.346	58147.48
676.695	58163.98
677.044	57957.66
677.393	58062.51
677.741	58121.49
678.09	58126.69
678.438	57923.08
678.787	58051.89
679.135	58072
679.484	57837.21
679.832	58007.15
680.181	57905
680.529	57954.27
680.877	57813.48
681.225	57748.4
681.573	58010.54
681.922	57826.59
682.27	57749.53
682.618	57761.05
682.966	57693.71
683.314	57761.28
683.661	57698
684.009	57620.04
684.357	57580.27
684.705	57495.07
685.053	57570.55
685.4	57456.65
685.748	57404.68
686.095	57417.11
686.443	57230.67
686.79	57291.69
687.138	57381.63
687.485	57352.7
687.832	57295.53
688.18	57291.23
688.527	57098.47
688.874	57074.97
689.221	57187.06
689.568	57025.03
689.915	56983.67
690.262	57017.79
690.609	56988.87
690.956	56840.17
691.303	56861.64
691.65	56743.45
691.997	56693.51
692.344	56468.66
692.69	56613.06
693.037	56574.64
693.383	56373.29
693.73	56499.62
694.077	56298.72
694.423	56353.86
694.769	56245.61
695.116	56177.59
695.462	56077.93
695.808	55971.95
696.155	56080.19
696.501	55863.47
696.847	55967.2
697.193	55807.2
697.539	55792.06
697.885	55635.91
698.231	55650.6
698.577	55635.01
698.923	55597.04
699.269	55410.61
699.614	55379.65
699.96	55263.04
700.306	55390.04
700.651	55153.44
700.997	55144.4
701.342	55059.43
701.688	54989.15
702.033	54853.78
702.379	54883.16
702.724	54711.87
703.069	54866.66
703.415	54554.81
703.76	54525.88
704.105	54590.06
704.45	54440.46
704.795	54328.6
705.14	54266.68
705.485	54286.57
705.83	54070.75
706.175	54179.23
706.52	53990.98
706.865	53973.81
707.209	53812
707.554	53827.82
707.899	53793.7
708.243	53700.59
708.588	53657.66
708.932	53490.43
709.277	53489.07
709.621	53445.46
709.966	53226.71
710.31	53398.23
710.654	53080.5
710.998	53174.51
711.342	53181.29
711.687	52941.07
712.031	52904.91
712.375	52802.09
712.719	52867.62
713.063	52788.08
713.407	52906.49
713.75	52711.69
714.094	52630.57
714.438	52533.62
714.782	52458.14
715.125	52335.88
715.469	52464.92
715.812	52160.75
716.156	52180.18
716.499	52060.18
716.843	52143.35
717.186	51940.19
717.53	52173.85
717.873	52135.66
718.216	51980.86
718.559	51810.93
718.902	51669.23
719.246	51643.7
719.589	51648.22
719.932	51546.3
720.275	51490.93
720.617	51416.81
720.96	51301.33
721.303	51433.31
721.646	51335.01
721.989	51213.65
722.331	51361.9
722.674	51139.53
723.016	51277.38
723.359	51052.3
723.701	51112.19
724.044	50924.17
724.386	50773.21
724.729	50831.29
725.071	50890.72
725.413	50796.04
725.755	50748.13
726.097	50643.27
726.439	50390.17
726.782	50492.32
727.124	50605.76
727.465	50565.53
727.807	50363.96
728.149	50347.24
728.491	50262.72
728.833	50270.63
729.175	50253.68
729.516	50081.93
729.858	50056.17
730.199	50046.9
730.541	50104.53
730.882	49949.51
731.224	49928.04
731.565	49896.85
731.906	49891.88
732.248	49780.24
732.589	49549.52
732.93	49578.22
733.271	49649.4
733.612	49630.19
733.953	49695.5
734.294	49591.55
734.635	49315.4
734.976	49446.47
735.317	49344.78
735.658	49285.12
735.999	49192.01
736.339	49138
736.68	49168.06
737.021	48979.59
737.361	48950.44
737.702	49251.45
738.042	48986.82
738.383	48960.15
738.723	48949.31
739.063	48778.69
739.404	49071.56
739.744	48814.17
740.084	48749.76
740.424	48719.26
740.764	48653.49
741.104	48892.58
741.444	48532.37
741.784	48427.74
742.124	48567.17
742.464	48479.26
742.804	48310.23
743.143	48420.05
743.483	48350.9
743.823	48103
744.162	48218.03
744.502	48313.84
744.841	48072.04
745.181	48398.13
745.52	48169.67
745.86	48010.8
746.199	48066.39
746.538	47936.68
746.877	48115.2
747.216	47899.84
747.556	47777.36
747.895	47839.96
748.234	47669.11
748.573	47625.5
748.911	47510.47
749.25	47551.6
749.589	47434.77
749.928	47566.97
750.267	47493.98
750.605	47300.31
750.944	47329.91
751.283	47133.99
751.621	47204.27
751.96	47000.88
752.298	47083.82
752.636	46977.15
752.975	46814.67
753.313	46695.13
753.651	46904.16
753.989	46644.96
754.327	46629.37
754.666	46406.77
755.004	46484.51
755.342	46419.2
