Data from 108_FLMS001491_003.txt Node
Date: Thu Apr 12 17:07:42 BST 2018
User: hsy
Spectrometer: FLMS00149
Trigger mode: 0
Integration Time (sec): 1.000000E-2
Scans to average: 10
Electric dark correction enabled: true
Nonlinearity correction enabled: false
Boxcar width: 0
XAxis mode: Wavelengths
Number of Pixels in Spectrum: 2048
>>>>>Begin Spectral Data<<<<<
341.393	0.73
341.776	0.73
342.16	0.73
342.543	-63.44
342.927	-73.84
343.31	-64.35
343.693	-75.2
344.077	-65.03
344.46	-70.9
344.843	-50.11
345.226	-35.2
345.61	-19.15
345.993	-16.67
346.376	-18.7
346.759	16.55
347.142	17.91
347.525	71.92
347.908	55.65
348.291	58.59
348.674	94.07
349.057	100.62
349.44	126.61
349.823	155.76
350.206	184.23
350.588	228.98
350.971	241.41
351.354	279.82
351.737	296.09
352.119	301.07
352.502	318.92
352.884	312.14
353.267	334.74
353.65	345.36
354.032	337.9
354.414	358.01
354.797	362.31
355.179	364.34
355.562	370.44
355.944	388.52
356.326	399.82
356.709	403.66
357.091	373.38
357.473	389.88
357.855	385.81
358.238	384.45
358.62	395.98
359.002	369.09
359.384	382.65
359.766	401.63
360.148	402.08
360.53	393.72
360.912	404.79
361.294	389.88
361.676	394.85
362.057	379.03
362.439	384.23
362.821	370.44
363.203	392.59
363.584	377.22
363.966	393.04
364.348	364.34
364.729	405.24
365.111	381.74
365.493	359.14
365.874	387.39
366.256	373.61
366.637	391.68
367.019	360.95
367.4	372.93
367.781	365.24
368.163	379.03
368.544	358.92
368.925	376.32
369.306	362.08
369.688	389.2
370.069	350.1
370.45	392.81
370.831	375.87
371.212	384.68
371.593	369.76
371.974	383.55
372.355	382.42
372.736	368.18
373.117	395.53
373.498	368.41
373.879	372.7
374.26	395.3
374.641	370.22
375.021	417.67
375.402	403.44
375.783	394.85
376.163	405.24
376.544	411.35
376.925	400.05
377.305	428.29
377.686	419.71
378.066	396.88
378.447	424
378.827	399.14
379.208	401.63
379.588	423.32
379.968	428.07
380.349	403.66
380.729	414.96
381.109	428.29
381.489	410.67
381.87	433.49
382.25	441.63
382.63	419.25
383.01	434.85
383.39	446.82
383.77	451.12
384.15	441.85
384.53	445.02
384.91	462.19
385.29	436.43
385.67	476.43
386.049	459.93
386.429	445.24
386.809	467.61
387.189	473.04
387.568	454.96
387.948	465.81
388.328	478.24
388.707	457.67
389.087	471.68
389.466	480.72
389.846	467.16
390.225	477.78
390.605	472.13
390.984	495.86
391.363	512.13
391.743	501.06
392.122	501.51
392.501	502.42
392.881	517.56
393.26	525.01
393.639	502.19
394.018	498.35
394.397	508.97
394.776	511.46
395.155	524.56
395.534	524.34
395.913	553.94
396.292	538.8
396.671	544.45
397.05	539.25
397.429	536.99
397.808	560.27
398.186	531.12
398.565	532.25
398.944	538.8
399.323	556.2
399.701	555.07
400.08	562.3
400.458	548.06
400.837	567.5
401.215	569.31
401.594	567.73
401.972	570.66
402.351	567.95
402.729	563.88
403.107	586.93
403.486	569.08
403.864	624.67
404.242	585.8
404.62	593.71
404.999	611.79
405.377	619.93
405.755	632.36
406.133	617.44
406.511	633.71
406.889	647.05
407.267	630.77
407.645	645.69
408.023	641.62
408.401	673.03
408.779	655.86
409.156	638.91
409.534	671.9
409.912	671.9
410.29	686.59
410.667	683.43
411.045	691.34
411.422	689.3
411.8	698.12
412.178	731.56
412.555	701.73
412.933	729.75
413.31	766.82
413.687	755.97
414.065	751.45
414.442	759.13
414.819	761.84
415.197	751
415.574	794.84
415.951	770.43
416.328	784.22
416.705	796.19
417.082	800.71
417.46	802.75
417.837	802.07
418.214	801.17
418.591	835.51
418.967	812.92
419.344	828.51
419.721	816.76
420.098	822.86
420.475	830.32
420.852	853.59
421.228	847.04
421.605	831.67
421.982	873.71
422.358	863.31
422.735	867.38
423.111	866.47
423.488	868.28
423.864	877.32
424.241	913.93
424.617	887.49
424.994	924.78
425.37	925.68
425.746	906.7
426.123	903.54
426.499	923.87
426.875	948.05
427.251	967.26
427.627	955.29
428.003	973.36
428.379	982.18
428.756	989.86
429.132	996.41
429.507	991.44
429.883	1021.05
430.259	993.7
430.635	1052.23
431.011	1068.5
431.387	1056.3
431.763	1075.28
432.138	1095.17
432.514	1071.21
432.89	1099.91
433.265	1111.44
433.641	1126.35
434.016	1141.95
434.392	1158.9
434.767	1166.13
435.143	1176.75
435.518	1182.4
435.894	1170.87
436.269	1216.75
436.644	1170.65
437.02	1236.86
437.395	1211.78
437.77	1231.89
438.145	1249.29
438.52	1251.1
438.895	1248.16
439.271	1265.11
439.646	1305.11
440.021	1294.49
440.395	1320.7
440.77	1290.87
441.145	1308.27
441.52	1314.37
441.895	1319.34
442.27	1309.85
442.645	1327.48
443.019	1345.56
443.394	1340.13
443.769	1346.46
444.143	1353.02
444.518	1378.78
444.892	1377.65
445.267	1379
445.641	1394.37
446.016	1411.32
446.39	1406.35
446.764	1406.57
447.139	1424.2
447.513	1432.34
447.887	1441.15
448.262	1423.07
448.636	1473.46
449.01	1456.52
449.384	1470.53
449.758	1495.61
450.132	1496.97
450.506	1509.4
450.88	1500.13
451.254	1543.97
451.628	1550.3
452.002	1557.53
452.376	1570.86
452.75	1588.94
453.123	1593.69
453.497	1631.43
453.871	1648.6
454.244	1666.68
454.618	1688.83
454.992	1727.47
455.365	1743.97
455.739	1751.65
456.112	1755.26
456.486	1793.68
456.859	1808.37
457.232	1817.86
457.606	1849.05
457.979	1863.51
458.352	1890.4
458.725	1915.94
459.099	1954.81
459.472	1967.46
459.845	1986.22
460.218	1963.85
460.591	2016.05
460.964	2034.58
461.337	2052.88
461.71	2107.57
462.083	2128.81
462.456	2127.23
462.829	2146.89
463.201	2180.11
463.574	2156.38
463.947	2197.06
464.32	2244.29
464.692	2250.84
465.065	2288.13
465.438	2284.97
465.81	2324.74
466.183	2351.18
466.555	2386.21
466.928	2428.47
467.3	2417.17
467.672	2462.14
468.045	2517.73
468.417	2512.53
468.789	2525.41
469.161	2552.31
469.534	2573.55
469.906	2625.3
470.278	2661
470.65	2682.7
471.022	2741.68
471.394	2752.3
471.766	2803.37
472.138	2833.88
472.51	2867.78
472.882	2936.48
473.253	2982.35
473.625	3017.38
473.997	3067.77
474.369	3103.03
474.74	3132.18
475.112	3192.97
475.484	3263.25
475.855	3302.12
476.227	3307.31
476.598	3417.37
476.97	3477.93
477.341	3487.65
477.713	3547.08
478.084	3585.05
478.455	3687.42
478.827	3738.04
479.198	3836.11
479.569	3879.28
479.94	3959.27
480.311	4000.4
480.682	4136.67
481.053	4245.14
481.424	4300.73
481.795	4338.02
482.166	4457.11
482.537	4535.08
482.908	4615.53
483.279	4686.03
483.65	4813.72
484.021	4865.92
484.391	5019.13
484.762	5093.71
485.133	5128.51
485.503	5222.52
485.874	5431.33
486.244	5481.04
486.615	5601.72
486.985	5699.12
487.356	5865.44
487.726	5958.09
488.097	6142.04
488.467	6223.4
488.837	6396.05
489.207	6544.29
489.578	6684.85
489.948	6771.18
490.318	6984.28
490.688	7054.11
491.058	7264.5
491.428	7390.37
491.798	7605.96
492.168	7762.11
492.538	7917.59
492.908	8067.87
493.278	8280.06
493.648	8403.45
494.017	8558.48
494.387	8806.15
494.757	8959.37
495.126	9162.08
495.496	9365.91
495.866	9506.02
496.235	9756.64
496.605	10006.12
496.974	10148.94
497.344	10426
497.713	10612.66
498.082	10760.9
498.452	11114.57
498.821	11228.24
499.19	11419.19
499.559	11689.47
499.928	11948.22
500.298	12139.4
500.667	12431.59
501.036	12654.19
501.405	12961.98
501.774	13107.96
502.143	13460.27
502.512	13632.69
502.88	14060.7
503.249	14159.46
503.618	14384.54
503.987	14692.78
504.356	15046.21
504.724	15296.15
505.093	15590.38
505.462	15725.29
505.83	16104.49
506.199	16448.89
506.567	16769.56
506.936	17008.87
507.304	17413.16
507.672	17581.06
508.041	17849.08
508.409	18323.87
508.777	18545.11
509.145	18864.19
509.514	19035.04
509.882	19313.67
510.25	19604.74
510.618	19904.62
510.986	20159.98
511.354	20476.81
511.722	20829.11
512.09	21230.01
512.458	21263.68
512.826	21659.15
513.193	21954.28
513.561	22170.55
513.929	22422.29
514.297	22867.48
514.664	23111.99
515.032	23331.42
515.4	23635.37
515.767	23762.37
516.135	24128.69
516.502	24072.19
516.869	24665.17
517.237	24853.64
517.604	25012.96
517.972	25412.5
518.339	25574.75
518.706	25852.48
519.073	26097.22
519.44	26399.59
519.808	26667.6
520.175	26874.15
520.542	27220.13
520.909	27459
521.276	27712.55
521.643	28111.18
522.009	28348.92
522.376	28599.3
522.743	28830.03
523.11	29240.64
523.477	29543.23
523.843	29796.34
524.21	30233.84
524.577	30462.76
524.943	30733.49
525.31	30894.61
525.676	31241.04
526.043	31519
526.409	31857.98
526.776	32196.95
527.142	32297.96
527.508	32631.51
527.874	32939.08
528.241	33121.45
528.607	33338.61
528.973	33668.78
529.339	33856.34
529.705	34305.82
530.071	34655.87
530.437	34809.99
530.803	35008.63
531.169	35355.96
531.535	35339.92
531.901	35662.4
532.267	35757.99
532.632	36172.44
532.998	36128.6
533.364	36511.64
533.73	36657.17
534.095	36958.63
534.461	37075.47
534.826	37255.57
535.192	37398.62
535.557	37790.93
535.923	37761.32
536.288	38020.75
536.653	38124.93
537.019	38177.81
537.384	38363.34
537.749	38536.44
538.114	38738.02
538.479	38724.91
538.845	39013.27
539.21	39041.74
539.575	39311.34
539.94	39305.92
540.305	39604.66
540.67	39599.47
541.034	39907.93
541.399	39960.81
541.764	40114.93
542.129	40279.9
542.494	40467.47
542.858	40608.71
543.223	40448.03
543.587	40726.22
543.952	40756.05
544.316	41100.67
544.681	41117.17
545.045	41306.77
545.41	41463.37
545.774	41367.33
546.138	41465.41
546.503	41787.43
546.867	41640.09
547.231	42075.79
547.595	42122.56
547.959	42287.98
548.324	42480.52
548.688	42566.39
549.052	42736.56
549.416	42725.26
549.779	42982.2
550.143	43064.23
550.507	43316.88
550.871	43473.94
551.235	43448.41
551.599	43933.59
551.962	44042.29
552.326	44111.89
552.689	44306.69
553.053	44076.41
553.417	44360.25
553.78	44892.66
554.143	44888.37
554.507	45018.99
554.87	45222.14
555.234	45480.22
555.597	45202.71
555.96	45541.23
556.323	45804.28
556.686	45825.29
557.05	46190.71
557.413	46263.47
557.776	46383.47
558.139	46632.95
558.502	46751.82
558.865	46779.84
559.228	47246.27
559.59	47289.89
559.953	47390.22
560.316	47874.5
560.679	47792.92
561.041	48008.06
561.404	48227.26
561.767	48637.2
562.129	48493.92
562.492	48992.44
562.854	48806.46
563.217	49049.39
563.579	49194.92
563.941	49360.11
564.304	49632.65
564.666	49834.9
565.028	49782.25
565.39	49996.03
565.753	50262.24
566.115	50357.38
566.477	50507.88
566.839	50642.34
567.201	51057.7
567.563	50920.53
567.925	51227.41
568.287	51278.71
568.648	51379.95
569.01	51614.07
569.372	51743.55
569.734	51810.22
570.095	52033.94
570.457	52234.62
570.819	52284.56
571.18	52332.69
571.542	52556.87
571.903	52636.41
572.265	52763.19
572.626	52805
572.987	53014.71
573.349	53086.12
573.71	53278.88
574.071	53380.12
574.432	53569.04
574.794	53733.78
575.155	53748.93
575.516	53758.64
575.877	53931.97
576.238	54018.52
576.599	54112.31
576.96	54142.59
577.32	54276.37
577.681	54344.39
578.042	54518.85
578.403	54517.72
578.763	54664.16
579.124	54630.94
579.485	54889.46
579.845	54959.29
580.206	54942.11
580.566	55001.1
580.927	55025.05
581.287	55190.7
581.648	55167.65
582.008	55408.09
582.368	55322.67
582.728	55411.71
583.089	55401.99
583.449	55541.87
583.809	55573.51
584.169	55612.38
584.529	55625.03
584.889	55876.1
585.249	55760.62
585.609	55705.94
585.969	55943.67
586.329	55785.26
586.688	56016.89
587.048	56077.68
587.408	55976.66
587.768	56069.54
588.127	56141.18
588.487	56152.7
588.846	56374.39
589.206	56163.55
589.565	56277.22
589.925	56457.56
590.284	56382.3
590.643	56502.53
591.003	56556.08
591.362	56705.91
591.721	56675.63
592.08	56707.04
592.44	56868.62
592.799	56791.11
593.158	56827.04
593.517	56837.43
593.876	57028.84
594.235	56958.33
594.593	57036.75
594.952	57118.33
595.311	57126.92
595.67	57267.48
596.029	57384.99
596.387	57408.94
596.746	57526
597.104	57408.49
597.463	57503.4
597.822	57599.9
598.18	57500.01
598.538	57599.22
598.897	57809.16
599.255	57635.6
599.613	58035.59
599.972	57849.83
600.33	57923.05
600.688	57952.66
601.046	58041.24
601.404	58184.74
601.762	58174.35
602.12	58255.02
602.478	58291.86
602.836	58379.54
603.194	58255.7
603.552	58354
603.91	58345.64
604.268	58481.68
604.625	58488.01
604.983	58660.66
605.341	58524.62
605.698	58738.17
606.056	58864.27
606.413	58811.17
606.771	58935.91
607.128	58903.82
607.485	58910.82
607.843	58997.38
608.2	59153.3
608.557	59197.82
608.914	59185.62
609.272	59307.42
609.629	59436.46
609.986	59445.27
610.343	59462.9
610.7	59615.21
611.057	59555.78
611.414	59612.73
611.771	59694.76
612.127	59774.3
612.484	59760.07
612.841	59881.87
613.198	59803.68
613.554	59837.35
613.911	60007.29
614.267	60045.03
614.624	60043.45
614.98	60176.33
615.337	60302.88
615.693	60238.92
616.05	60266.04
616.406	60369.99
616.762	60311.92
617.118	60346.94
617.475	60341.97
617.831	60475.53
618.187	60495.19
618.543	60557.79
618.899	60636.43
619.255	60677.56
619.611	60631.68
619.967	60809.08
620.323	60805.24
620.678	60682.3
621.034	60702.19
621.39	60763.2
621.746	60775.18
622.101	61030.32
622.457	60831.45
622.812	60973.82
623.168	60954.61
623.523	60979.92
623.879	61043.2
624.234	60947.38
624.589	61043.2
624.945	60999.58
625.3	61058.34
625.655	61063.31
626.01	61077.32
626.365	61098.34
626.72	61014.95
627.075	61065.8
627.43	61028.28
627.785	61116.19
628.14	61042.75
628.495	61070.09
628.85	61165.68
629.205	61056.53
629.559	61137.66
629.914	61051.11
630.269	61096.3
630.623	60955.52
630.978	60976.76
631.332	61083.87
631.687	61115.96
632.041	61019.47
632.396	61094.5
632.75	61048.17
633.104	61054.95
633.459	60922.97
633.813	60974.27
634.167	60936.53
634.521	60959.36
634.875	60975.85
635.229	60890.66
635.583	60779.48
635.937	60794.39
636.291	60821.73
636.645	60847.5
636.999	60740.38
637.352	60785.12
637.706	60583.1
638.06	60743.77
638.413	60655.64
638.767	60545.58
639.121	60633.26
639.474	60455.87
639.828	60491.8
640.181	60511.23
640.534	60582.42
640.888	60490.9
641.241	60333.16
641.594	60379.71
641.947	60411.58
642.301	60319.6
642.654	60340.84
643.007	60334.06
643.36	60408.86
643.713	60325.02
644.066	60345.81
644.419	60234.18
644.771	59991.47
645.124	59734.53
645.477	59625.61
645.83	59537.25
646.182	59598.72
646.535	59565.95
646.888	59551.71
647.24	59462
647.593	59598.49
647.945	59480.53
648.298	59443.92
648.65	59378.83
649.002	59188.56
649.355	59156.69
649.707	59100.65
650.059	59118.95
650.411	59438.49
650.763	59516.91
651.115	59829.22
651.467	59746.28
651.819	59761.65
652.171	59699.96
652.523	59606.17
652.875	59628.55
653.227	59577.47
653.578	59721.42
653.93	59514.65
654.282	59526.17
654.633	59534.76
654.985	59523.69
655.337	59517.59
655.688	59481.2
656.039	59540.64
656.391	59326.41
656.742	59446.63
657.094	59386.74
657.445	59427.87
657.796	59410.02
658.147	59394.43
658.498	59349.91
658.849	59446.4
659.2	59279.85
659.551	59291.83
659.902	59375.22
660.253	59239.63
660.604	59334.77
660.955	59142.91
661.306	59292.51
661.656	59194.43
662.007	59162.12
662.358	59177.71
662.708	59188.56
663.059	59135.68
663.409	58999.41
663.76	59142.68
664.11	59106.3
664.461	59110.14
664.811	59206.41
665.161	59140.42
665.511	59099.52
665.862	59123.47
666.212	59150.37
666.562	59084.83
666.912	59078.5
667.262	59008.9
667.612	59040.09
667.962	59080.99
668.312	58969.81
668.662	59118.05
669.011	59055.23
669.361	59014.32
669.711	58967.77
670.06	58952.63
670.41	58922.35
670.76	58923.93
671.109	59008.9
671.459	58936.13
671.808	58991.95
672.157	59017.26
672.507	58878.06
672.856	58939.3
673.205	58956.47
673.554	58927.09
673.904	58923.7
674.253	59070.82
674.602	58811.84
674.951	58534.11
675.3	58494.79
675.649	58871.5
675.998	58860.66
676.346	58839.87
676.695	58831.96
677.044	58702.02
677.393	58715.12
677.741	58837.83
678.09	58745.86
678.438	58704.5
678.787	58720.55
679.135	58770.26
679.484	58617.5
679.832	58642.81
680.181	58628.8
680.529	58680.32
680.877	58502.7
681.225	58511.29
681.573	58705.63
681.922	58491.63
682.27	58439.2
682.618	58479.87
682.966	58426.77
683.314	58464.51
683.661	58388.8
684.009	58266.32
684.357	58249.6
684.705	58227.68
685.053	58287.79
685.4	58231.29
685.748	58075.82
686.095	58110.84
686.443	57979.77
686.79	57965.54
687.138	58032.65
687.485	58006.67
687.832	57947.46
688.18	57985.42
688.527	57846.22
688.874	57839.44
689.221	57829.5
689.568	57741.14
689.915	57612.33
690.262	57757.86
690.609	57685.09
690.956	57580.01
691.303	57570.29
691.65	57477.42
691.997	57413.46
692.344	57303.18
692.69	57234.48
693.037	57261.15
693.383	57014.6
693.73	57140.93
694.077	56937.99
694.423	57001.95
694.769	56941.38
695.116	56983.19
695.462	56812.12
695.808	56688.06
696.155	56807.15
696.501	56631.79
696.847	56636.31
697.193	56479.7
697.539	56641.51
697.885	56296.66
698.231	56335.75
698.577	56265.92
698.923	56286.03
699.269	56098.69
699.614	56060.28
699.96	55961.97
700.306	56049.88
700.651	55905.93
700.997	55802.21
701.342	55743.68
701.688	55745.48
702.033	55650.12
702.379	55686.5
702.724	55503.68
703.069	55552.95
703.415	55261.65
703.76	55178.04
704.105	55226.63
704.45	55220.98
704.795	55045.16
705.14	54929.01
705.485	54979.18
705.83	54800.2
706.175	54957.71
706.52	54809.69
706.865	54747.77
707.209	54582.12
707.554	54542.8
707.899	54576.25
708.243	54424.61
708.588	54448.57
708.932	54245.18
709.277	54317.72
709.621	54119.54
709.966	53928.81
710.31	53978.75
710.654	53858.53
710.998	53906.89
711.342	53961.35
711.687	53788.92
712.031	53675.93
712.375	53573.34
712.719	53498.99
713.063	53531.76
713.407	53657.85
713.75	53365.66
714.094	53449.05
714.438	53213.12
714.782	53262.38
715.125	53076.85
715.469	53282.05
715.812	52960.7
716.156	52921.83
716.499	52964.77
716.843	52917.76
717.186	52762.51
717.53	52880.93
717.873	52842.06
718.216	52807.93
718.559	52618.56
718.902	52466.25
719.246	52492.24
719.589	52473.71
719.932	52365.91
720.275	52318.45
720.617	52325.91
720.96	52168.18
721.303	52201.17
721.646	52274.39
721.989	52074.17
722.331	52162.53
722.674	52071.23
723.016	52043.21
723.359	51869.65
723.701	51864.91
724.044	51835.53
724.386	51633.5
724.729	51770.67
725.071	51677.57
725.413	51659.49
725.755	51606.61
726.097	51554.63
726.439	51463.34
726.782	51320.97
727.124	51511.24
727.465	51365.94
727.807	51174.08
728.149	51271.48
728.491	51144.25
728.833	51170.01
729.175	51089.33
729.516	50984.48
729.858	51081.88
730.199	50980.64
730.541	51046.62
730.882	50777.48
731.224	50805.73
731.565	50699.06
731.906	50681.89
732.248	50785.39
732.589	50543.13
732.93	50376.81
733.271	50444.38
733.612	50362.57
733.953	50453.87
734.294	50419.97
734.635	50257.27
734.976	50427.43
735.317	50236.48
735.658	50160.77
735.999	50047.78
736.339	50082.36
736.68	50062.92
737.021	50058.63
737.361	49866.32
737.702	50152.18
738.042	49766.66
738.383	49932.08
738.723	49902.93
739.063	49648.92
739.404	49819.09
739.744	49661.12
740.084	49553.56
740.424	49627.68
740.764	49605.76
741.104	49693.44
741.444	49533.9
741.784	49359.66
742.124	49472.2
742.464	49381.13
742.804	49377.74
743.143	49269.5
743.483	49266.56
743.823	49142.27
744.162	49031.76
744.502	49238.99
744.841	48827.7
745.181	48976.62
745.52	48919.45
745.86	48972.1
746.199	48861.82
746.538	48860.01
746.877	48910.41
747.216	48826.8
747.556	48640.59
747.895	48718.1
748.234	48592.9
748.573	48521.04
748.911	48462.74
749.25	48439.69
749.589	48332.12
749.928	48335.51
750.267	48472.91
750.605	48131.45
750.944	48207.83
751.283	48084.22
751.621	48218.45
751.96	47870.89
752.298	47912.47
752.636	48018.23
752.975	47768.74
753.313	47624.79
753.651	47716.32
753.989	47575.98
754.327	47596.77
754.666	47259.15
755.004	47333.73
755.342	47246.95
