Data from 108_FLMS001491_004.txt Node
Date: Thu Apr 12 17:07:44 BST 2018
User: hsy
Spectrometer: FLMS00149
Trigger mode: 0
Integration Time (sec): 1.000000E-2
Scans to average: 10
Electric dark correction enabled: true
Nonlinearity correction enabled: false
Boxcar width: 0
XAxis mode: Wavelengths
Number of Pixels in Spectrum: 2048
>>>>>Begin Spectral Data<<<<<
341.393	-32.85
341.776	-32.85
342.16	-32.85
342.543	-57.48
342.927	-83.47
343.31	-64.04
343.693	-75.11
344.077	-64.72
344.46	-50.7
344.843	-63.59
345.226	-60.42
345.61	-4.38
345.993	-18.62
346.376	-23.13
346.759	-4.6
347.142	9.86
347.525	52.34
347.908	61.16
348.291	81.95
348.674	121.27
349.057	102.74
349.44	123.08
349.823	149.74
350.206	179.8
350.588	224.99
350.971	226.8
351.354	264.32
351.737	267.93
352.119	270.42
352.502	288.72
352.884	330.75
353.267	310.42
353.65	342.05
354.032	336.63
354.414	361.49
354.797	368.27
355.179	370.08
355.562	364.88
355.944	377.08
356.326	375.95
356.709	378.21
357.091	389.96
357.473	383.86
357.855	387.02
358.238	399.68
358.62	367.36
359.002	392.22
359.384	394.48
359.766	388.38
360.148	392
360.53	384.99
360.912	368.95
361.294	388.83
361.676	381.37
362.057	371.66
362.439	379.34
362.821	347.25
363.203	379.79
363.584	377.08
363.966	364.2
364.348	369.17
364.729	359.45
365.111	362.84
365.493	380.47
365.874	349.74
366.256	387.7
366.637	373.24
367.019	368.72
367.4	369.17
367.781	384.99
368.163	369.62
368.544	384.99
368.925	380.7
369.306	380.7
369.688	363.07
370.069	373.01
370.45	396.51
370.831	395.61
371.212	354.71
371.593	402.39
371.974	377.53
372.355	376.85
372.736	380.92
373.117	395.61
373.498	369.4
373.879	391.54
374.26	393.13
374.641	380.7
375.021	412.33
375.402	391.09
375.783	391.09
376.163	409.62
376.544	397.42
376.925	404.2
377.305	393.58
377.686	403.07
378.066	412.11
378.447	411.88
378.827	417.31
379.208	420.92
379.588	413.46
379.968	416.85
380.349	413.24
380.729	427.25
381.109	402.62
381.489	402.39
381.87	427.02
382.25	438.77
382.63	417.53
383.01	431.77
383.39	438.1
383.77	431.09
384.15	432.67
384.53	425.44
384.91	453.91
385.29	426.8
385.67	438.77
386.049	455.5
386.429	440.58
386.809	461.37
387.189	456.85
387.568	465.44
387.948	468.6
388.328	479.22
388.707	476.06
389.087	467.7
389.466	474.48
389.846	459.34
390.225	465.44
390.605	478.32
390.984	487.13
391.363	482.16
391.743	475.83
392.122	492.33
392.501	501.82
392.881	485.1
393.26	490.75
393.639	508.15
394.018	514.25
394.397	504.76
394.776	511.54
395.155	530.3
395.534	522.16
395.913	538.43
396.292	520.35
396.671	539.56
397.05	561.26
397.429	528.49
397.808	529.62
398.186	523.97
398.565	521.26
398.944	534.59
399.323	559
399.701	544.31
400.08	556.28
400.458	565.32
400.837	538.66
401.215	562.16
401.594	547.25
401.972	564.19
402.351	575.27
402.729	591.76
403.107	596.51
403.486	593.8
403.864	571.2
404.242	584.76
404.62	586.79
404.999	573.46
405.377	596.06
405.755	598.54
406.133	591.76
406.511	594.25
406.889	623.85
407.267	635.15
407.645	636.73
408.023	657.3
408.401	648.71
408.779	657.3
409.156	662.5
409.534	664.53
409.912	670.41
410.29	677.86
410.667	665.43
411.045	707.69
411.422	714.47
411.8	675.83
412.178	702.27
412.555	713.34
412.933	717.18
413.31	722.38
413.687	742.72
414.065	762.61
414.442	740.23
414.819	751.76
415.197	744.98
415.574	763.51
415.951	766.67
416.328	776.62
416.705	786.11
417.082	789.95
417.46	802.61
417.837	775.26
418.214	794.7
418.591	790.18
418.967	812.78
419.344	808.48
419.721	827.69
420.098	847.58
420.475	817.75
420.852	822.94
421.228	848.71
421.605	875.37
421.982	847.58
422.358	860.46
422.735	867.69
423.111	872.43
423.488	876.05
423.864	892.1
424.241	906.33
424.617	874.69
424.994	906.33
425.37	903.39
425.746	907.01
426.123	902.26
426.499	927.8
426.875	929.16
427.251	963.28
427.627	960.34
428.003	963.73
428.379	980.45
428.756	990.17
429.132	1007.8
429.507	1000.11
429.883	1022.71
430.259	1026.78
430.635	1025.65
431.011	1026.55
431.387	1041.92
431.763	1068.81
432.138	1079.89
432.514	1109.26
432.89	1107
433.265	1133.44
433.641	1142.48
434.016	1114.91
434.392	1132.77
434.767	1173.9
435.143	1155.82
435.518	1169.83
435.894	1182.93
436.269	1216.15
436.644	1205.99
437.02	1225.87
437.395	1209.37
437.77	1235.14
438.145	1252.54
438.52	1274.68
438.895	1268.13
439.271	1270.84
439.646	1275.36
440.021	1273.55
440.395	1317.62
440.77	1282.82
441.145	1306.55
441.52	1308.36
441.895	1352.65
442.27	1320.11
442.645	1335.02
443.019	1333.67
443.394	1375.25
443.769	1358.75
444.143	1351.52
444.518	1386.55
444.892	1366.88
445.267	1396.26
445.641	1387.68
446.016	1434
446.39	1440.1
446.764	1436.26
447.139	1411.63
447.513	1454.34
447.887	1429.93
448.262	1451.85
448.636	1458.86
449.01	1455.24
449.384	1469.48
449.758	1487.33
450.132	1519.42
450.506	1523.27
450.88	1542.25
451.254	1557.16
451.628	1585.18
452.002	1580.89
452.376	1599.87
452.75	1613.66
453.123	1590.61
453.497	1601.91
453.871	1702.47
454.244	1692.07
454.618	1697.27
454.992	1744.5
455.365	1722.81
455.739	1763.03
456.112	1788.12
456.486	1808.46
456.859	1842.35
457.232	1836.93
457.606	1841.45
457.979	1878.06
458.352	1912.86
458.725	1911.5
459.099	1965.51
459.472	1951.5
459.845	2005.06
460.218	2019.3
460.591	2025.17
460.964	2045.29
461.337	2054.55
461.71	2135.45
462.083	2126.86
462.456	2139.07
462.829	2138.84
463.201	2203.47
463.574	2196.69
463.947	2252.06
464.32	2263.36
464.692	2273.3
465.065	2276.47
465.438	2326.41
465.81	2321.44
466.183	2375.67
466.555	2419.51
466.928	2439.85
467.3	2448.21
467.672	2507.87
468.045	2508.1
468.417	2560.07
468.789	2570.92
469.161	2574.54
469.534	2636.46
469.906	2658.15
470.278	2684.14
470.65	2706.06
471.022	2777.24
471.394	2812.5
471.766	2815.66
472.138	2871.7
472.51	2921.87
472.882	2992.38
473.253	2984.02
473.625	3071.02
473.997	3153.73
474.369	3164.13
474.74	3186.05
475.112	3197.8
475.484	3296.1
475.855	3336.78
476.227	3348.75
476.598	3471.01
476.97	3535.19
477.341	3581.06
477.713	3647.5
478.084	3662.87
478.455	3774.28
478.827	3797.1
479.198	3897.67
479.569	3923.65
479.94	4094.27
480.311	4091.33
480.682	4169.52
481.053	4326.36
481.424	4343.3
481.795	4445.67
482.166	4491.32
482.537	4587.82
482.908	4729.73
483.279	4783.97
483.65	4880.01
484.021	5009.05
484.391	5049.95
484.762	5147.58
485.133	5246.56
485.503	5366.33
485.874	5502.14
486.244	5517.96
486.615	5666.21
486.985	5780.78
487.356	5891.29
487.726	6019.19
488.097	6270.94
488.467	6267.32
488.837	6444.72
489.207	6591.83
489.578	6720.64
489.948	6901.65
490.318	7050.8
490.688	7120.41
491.058	7338.48
491.428	7441.53
491.798	7617.79
492.168	7907.73
492.538	7991.12
492.908	8190.66
493.278	8323.31
493.648	8477.21
494.017	8720.14
494.387	8776.63
494.757	9091.2
495.126	9259.33
495.496	9435.37
495.866	9598.98
496.235	9808.02
496.605	9985.87
496.974	10151.51
497.344	10492.07
497.713	10635.79
498.082	10850.03
498.452	11092.5
498.821	11272.84
499.19	11470.35
499.559	11746.5
499.928	12018.58
500.298	12132.03
500.667	12508.74
501.036	12611.56
501.405	12852.01
501.774	13159.34
502.143	13406.12
502.512	13650.4
502.88	13995.93
503.249	14105.08
503.618	14471.85
503.987	14629.59
504.356	15004.04
504.724	15206.07
505.093	15472.05
505.462	15711.14
505.83	16023.22
506.199	16312.71
506.567	16671.57
506.936	16739.81
507.304	17325.11
507.672	17486.69
508.041	17716.29
508.409	18020.46
508.777	18452.31
509.145	18666.32
509.514	18755.35
509.882	19141.11
510.25	19375.45
510.618	19631.49
510.986	19885.72
511.354	20164.81
511.722	20578.81
512.09	20781.52
512.458	20974.5
512.826	21319.13
513.193	21417.43
513.561	21923.86
513.929	22079.56
514.297	22388.71
514.664	22630.51
515.032	22922.7
515.4	23237.95
515.767	23366.98
516.135	23655.34
516.502	23683.81
516.869	24190.92
517.237	24439.72
517.604	24427.07
517.972	24881.75
518.339	25177.78
518.706	25465.91
519.073	25624.1
519.44	25787.26
519.808	26303.18
520.175	26304.08
520.542	26714.24
520.909	26940.9
521.276	27109.94
521.643	27609.13
522.009	27760.09
522.376	28060.87
522.743	28191.72
523.11	28594.42
523.477	29024.01
523.843	29215.42
524.21	29699.7
524.577	29760.94
524.943	30150.76
525.31	30261.27
525.676	30723.63
526.043	30939.21
526.409	31204.74
526.776	31415.13
527.142	31578.75
527.508	31912.3
527.874	32288.78
528.241	32467.76
528.607	32684.93
528.973	33169.89
529.339	33240.4
529.705	33625.47
530.071	33861.17
530.437	33954.05
530.803	34306.58
531.169	34381.61
531.535	34626.12
531.901	34881.94
532.267	35141.59
532.632	35283.96
532.998	35548.81
533.364	35781.12
533.73	35885.3
534.095	36279.19
534.461	36426.53
534.826	36515.34
535.192	36725.96
535.557	37117.13
535.923	36899.51
536.288	37270.57
536.653	37504.01
537.019	37454.75
537.384	37551.92
537.749	37801.18
538.114	37968.63
538.479	38098.57
538.845	38300.6
539.21	38345.57
539.575	38409.07
539.94	38639.58
540.305	38860.36
540.67	38950.76
541.034	39060.13
541.399	39293.12
541.764	39379.22
542.129	39493.34
542.494	39723.84
542.858	39802.94
543.223	39757.97
543.587	40188.46
543.952	40176.26
544.316	40352.98
544.681	40338.97
545.045	40558.4
545.41	40665.51
545.774	40678.62
546.138	40771.5
546.503	40979.18
546.867	41218.94
547.231	41389.34
547.595	41412.84
547.959	41661.87
548.324	41673.17
548.688	41688.31
549.052	42091.01
549.416	42122.2
549.779	42074.06
550.143	42387.5
550.507	42437.9
550.871	42750.43
551.235	42861.16
551.599	43129.4
551.962	43128.05
552.326	43351.54
552.689	43523.52
553.053	43392.67
553.417	43566.23
553.78	44037.18
554.143	44224.29
554.507	44316.72
554.87	44355.81
555.234	44718.97
555.597	44525.75
555.96	44747.89
556.323	45029.92
556.686	44992.63
557.05	45362.79
557.413	45357.82
557.776	45456.8
558.139	45905.37
558.502	45982.44
558.865	45948.09
559.228	46388.07
559.59	46575.64
559.953	46662.19
560.316	47014.5
560.679	47059.24
561.041	47244.32
561.404	47475.96
561.767	47634.37
562.129	47692.9
562.492	48018.09
562.854	48012.44
563.217	48096.73
563.579	48211.53
563.941	48595.25
564.304	48651.52
564.666	49045.18
565.028	49081.11
565.39	49275.91
565.753	49393.64
566.115	49524.04
566.477	49769.23
566.839	49869.11
567.201	50190.91
567.563	50126.51
567.925	50485.59
568.287	50510.45
568.648	50533.5
569.01	50853.04
569.372	51015.3
569.734	51034.05
570.095	51336.42
570.457	51507.71
570.819	51609.86
571.18	51632
571.542	51834.26
571.903	51883.75
572.265	52019.79
572.626	52272.44
572.987	52334.13
573.349	52531.87
573.71	52556.5
574.071	52743.61
574.432	52818.41
574.794	53033.32
575.155	53104.06
575.516	53105.41
575.877	53274.22
576.238	53291.4
576.599	53453.88
576.96	53550.37
577.32	53566.64
577.681	53731.38
578.042	53870.14
578.403	53878.27
578.763	53941.32
579.124	54038.04
579.485	54224.93
579.845	54368.43
580.206	54331.37
580.566	54385.83
580.927	54483
581.287	54623.79
581.648	54450.46
582.008	54752.6
582.368	54839.38
582.728	54828.08
583.089	54882.99
583.449	54865.59
583.809	54973.16
584.169	55107.17
584.529	54996.21
584.889	55317.1
585.249	55074.4
585.609	55124.57
585.969	55290.66
586.329	55279.37
586.688	55407.72
587.048	55423.54
587.408	55492.92
587.768	55478.46
588.127	55613.14
588.487	55632.12
588.846	55805.91
589.206	55663.76
589.565	55732.91
589.925	55928.39
590.284	55863.98
590.643	55930.65
591.003	55972.68
591.362	56115.73
591.721	56116.18
592.08	56172.22
592.44	56307.36
592.799	56258.1
593.158	56344.2
593.517	56322.73
593.876	56476.17
594.235	56461.26
594.593	56491.99
594.952	56672.1
595.311	56595.04
595.67	56687.24
596.029	56814.24
596.387	56821.7
596.746	56967.91
597.104	56863.28
597.463	56928.81
597.822	57143.05
598.18	57011.52
598.538	57059.21
598.897	57333.77
599.255	57169.26
599.613	57484.05
599.972	57355.7
600.33	57385.75
600.688	57459.87
601.046	57496.71
601.404	57708
601.762	57676.14
602.12	57899.64
602.478	57818.06
602.836	57874.55
603.194	57750.49
603.552	57937.15
603.91	57889.47
604.268	57991.16
604.625	57950.26
604.983	58140.31
605.341	58008.11
605.698	58280.87
606.056	58310.47
606.413	58264.15
606.771	58465.04
607.128	58479.06
607.485	58461.88
607.843	58448.55
608.2	58543.69
608.557	58671.37
608.914	58665.27
609.272	58823
609.629	58848.54
609.986	58922.21
610.343	58871.59
610.7	59128.98
611.057	59133.95
611.414	59088.08
611.771	59234.74
612.127	59297.34
612.484	59367.62
612.841	59396.55
613.198	59354.29
613.554	59381.4
613.911	59505.7
614.267	59564.45
614.624	59545.47
614.98	59636.99
615.337	59783.65
615.693	59745.69
616.05	59800.6
616.406	59954.95
616.762	59825.69
617.118	59903.2
617.475	59943.88
617.831	59985.68
618.187	60114.94
618.543	60138.45
618.899	60270.87
619.255	60258.44
619.611	60226.35
619.967	60319.23
620.323	60478.78
620.678	60311.32
621.034	60367.37
621.39	60380.7
621.746	60345.45
622.101	60640.35
622.457	60397.2
622.812	60593.58
623.168	60603.29
623.523	60572.56
623.879	60665.66
624.234	60533.24
624.589	60595.16
624.945	60647.13
625.3	60728.71
625.655	60691.43
626.01	60668.6
626.365	60746.79
626.72	60644.42
627.075	60627.47
627.43	60665.89
627.785	60647.59
628.14	60696.17
628.495	60668.83
628.85	60740.01
629.205	60719.9
629.559	60736.4
629.914	60717.19
630.269	60703.86
630.623	60606.46
630.978	60607.36
631.332	60709.51
631.687	60750.41
632.041	60618.21
632.396	60638.09
632.75	60644.42
633.104	60704.76
633.459	60516.06
633.813	60522.17
634.167	60465.44
634.521	60454.14
634.875	60526.46
635.229	60419.34
635.583	60334.37
635.937	60378.67
636.291	60407.37
636.645	60391.55
636.999	60232.91
637.352	60324.66
637.706	60183.64
638.06	60244.21
638.413	60259.57
638.767	60161.72
639.121	60181.84
639.474	60058.9
639.828	60102.97
640.181	60016.64
640.534	60177.77
640.888	59985.68
641.241	59963.76
641.594	60002.41
641.947	59971.22
642.301	59901.84
642.654	59902.07
643.007	59845.35
643.36	59942.07
643.713	59852.58
644.066	59962.63
644.419	59729.42
644.771	59512.93
645.124	59301.63
645.477	59203.56
645.83	59151.13
646.182	59153.39
646.535	59089.89
646.888	59143.44
647.24	59073.84
647.593	59184.12
647.945	59082.66
648.298	58998.36
648.65	58819.16
649.002	58794.08
649.355	58802.66
649.707	58724.02
650.059	58747.52
650.411	59016.44
650.763	59138.7
651.115	59461.63
651.467	59331.24
651.819	59388.64
652.171	59312.71
652.523	59192.03
652.875	59272.48
653.227	59182.54
653.578	59376.89
653.93	59257.34
654.282	59101.64
654.633	59092.37
654.985	59176.44
655.337	59089.44
655.688	59143.22
656.039	59140.28
656.391	58934.41
656.742	58989.55
657.094	58952.26
657.445	59074.07
657.796	59001.53
658.147	58864.13
658.498	59006.73
658.849	58951.36
659.2	58891.02
659.551	58813.51
659.902	58982.77
660.253	58845.6
660.604	58932.83
660.955	58776.9
661.306	58884.92
661.656	58756.79
662.007	58770.57
662.358	58733.29
662.708	58763.34
663.059	58711.37
663.409	58584.14
663.76	58717.24
664.11	58696.45
664.461	58765.15
664.811	58690.12
665.161	58605.15
665.511	58634.76
665.862	58613.29
666.212	58688.77
666.562	58671.14
666.912	58640.18
667.262	58608.09
667.612	58602.67
667.962	58618.49
668.312	58561.77
668.662	58700.74
669.011	58645.38
669.361	58620.29
669.711	58625.49
670.06	58524.93
670.41	58492.84
670.76	58499.85
671.109	58609.67
671.459	58568.09
671.808	58539.62
672.157	58554.31
672.507	58442.45
672.856	58450.13
673.205	58534.42
673.554	58552.73
673.904	58456.46
674.253	58616.23
674.602	58446.74
674.951	58140.76
675.3	58104.6
675.649	58377.82
675.998	58453.52
676.346	58421.2
676.695	58497.36
677.044	58298.95
677.393	58395.67
677.741	58440.86
678.09	58335.33
678.438	58266.18
678.787	58440.41
679.135	58343.24
679.484	58230.47
679.832	58365.39
680.181	58230.02
680.529	58260.76
680.877	58151.38
681.225	58123.36
681.573	58300.08
681.922	58178.05
682.27	58097.37
682.618	58073.87
682.966	58026.64
683.314	58101.89
683.661	58034.77
684.009	57991.16
684.357	57955
684.705	57816.47
685.053	57909.35
685.4	57833.65
685.748	57730.83
686.095	57735.35
686.443	57608.57
686.79	57632.3
687.138	57735.12
687.485	57709.81
687.832	57533.77
688.18	57599.08
688.527	57463.72
688.874	57493.77
689.221	57430.5
689.568	57404.73
689.915	57347.56
690.262	57352.08
690.609	57246.55
690.956	57195.02
691.303	57161.35
691.65	57050.62
691.997	57010.62
692.344	56939.66
692.69	56889.04
693.037	56920
693.383	56630.74
693.73	56809.95
694.077	56638.65
694.423	56632.32
694.769	56583.29
695.116	56544.64
695.462	56447.02
695.808	56390.97
696.155	56350.98
696.501	56247.48
696.847	56267.59
697.193	56099.23
697.539	56149.85
697.885	55958.22
698.231	55874.83
698.577	55930.65
698.923	55901.04
699.269	55709.18
699.614	55641.62
699.96	55520.72
700.306	55583.54
700.651	55380.61
700.997	55378.8
701.342	55436.88
701.688	55194.85
702.033	55144.23
702.379	55196.66
702.724	55056.32
703.069	55088.86
703.415	54835.54
703.76	54891.58
704.105	54880.28
704.45	54788.31
704.795	54575.43
705.14	54576.33
705.485	54577.46
705.83	54375.43
706.175	54473.74
706.52	54331.14
706.865	54249.79
707.209	54202.78
707.554	54102
707.899	54136.12
708.243	54002.56
708.588	53993.75
708.932	53847.54
709.277	53858.16
709.621	53600.54
709.966	53549.24
710.31	53608
710.654	53395.57
710.998	53545.4
711.342	53438.06
711.687	53361.68
712.031	53279.87
712.375	53081.46
712.719	53115.81
713.063	52992.42
713.407	53152.87
713.75	53014.79
714.094	53025.64
714.438	52798.3
714.782	52844.63
715.125	52652.32
715.469	52818.41
715.812	52467.46
716.156	52482.15
716.499	52507.91
716.843	52521.02
717.186	52337.75
717.53	52462.49
717.873	52380.01
718.216	52266.56
718.559	52245.32
718.902	51994.25
719.246	52090.97
719.589	51978.66
719.932	51791.32
720.275	51885.78
720.617	51882.17
720.96	51708.16
721.303	51773.92
721.646	51853.02
721.989	51533.93
722.331	51630.2
722.674	51615.51
723.016	51570.54
723.359	51402.86
723.701	51369.41
724.044	51153.6
724.386	51109.08
724.729	51285.8
725.071	51219.36
725.413	51121.06
725.755	51128.06
726.097	50995.64
726.439	50871.35
726.782	50768.75
727.124	50938.01
727.465	50780.73
727.807	50665.93
728.149	50759.71
728.491	50625.25
728.833	50613.27
729.175	50536.44
729.516	50509.32
729.858	50395.65
730.199	50543.67
730.541	50381.19
730.882	50228.88
731.224	50199.27
731.565	50102.55
731.906	50115.43
732.248	50278.14
732.589	50121.99
732.93	50004.48
733.271	50041.76
733.612	49883.58
733.953	49992.73
734.294	49848.32
734.635	49755.44
734.976	49942.56
735.317	49711.15
735.658	49666.86
735.999	49560.87
736.339	49540.31
736.68	49590.7
737.021	49631.15
737.361	49457.6
737.702	49619.63
738.042	49465.73
738.383	49461.44
738.723	49449.24
739.063	49352.29
739.404	49460.54
739.744	49110.94
740.084	49173.54
740.424	49199.53
740.764	49080.88
741.104	49244.27
741.444	49108.91
741.784	48891.96
742.124	48953.2
742.464	48831.85
742.804	48801.8
743.143	48721.12
743.483	48849.25
743.823	48666.43
744.162	48701.01
744.502	48567.68
744.841	48400.68
745.181	48549.83
745.52	48438.19
745.86	48425.76
746.199	48472.99
746.538	48393.45
746.877	48291.75
747.216	48310.51
747.556	48227.35
747.895	48191.19
748.234	48115.71
748.573	48065.09
748.911	47865.78
749.25	47937.86
749.589	47867.36
749.928	47863.29
750.267	47941.71
750.605	47798.43
750.944	47699
751.283	47567.48
751.621	47490.19
751.96	47385.11
752.298	47405.45
752.636	47357.77
752.975	47211.33
753.313	47146.25
753.651	47357.09
753.989	47042.07
754.327	46968.62
754.666	46666.26
755.004	46879.13
755.342	46851.11
