Data from 108_FLMS001491_007.txt Node
Date: Thu Apr 12 17:07:51 BST 2018
User: hsy
Spectrometer: FLMS00149
Trigger mode: 0
Integration Time (sec): 1.000000E-2
Scans to average: 10
Electric dark correction enabled: true
Nonlinearity correction enabled: false
Boxcar width: 0
XAxis mode: Wavelengths
Number of Pixels in Spectrum: 2048
>>>>>Begin Spectral Data<<<<<
341.393	-12.56
341.776	-12.56
342.16	-12.56
342.543	-67.47
342.927	-68.6
343.31	-53.23
343.693	-70.18
344.077	-74.48
344.46	-67.47
344.843	-50.97
345.226	-48.04
345.61	-29.05
345.993	-28.6
346.376	-6.45
346.759	11.17
347.142	25.63
347.525	42.36
347.908	59.53
348.291	88.68
348.674	85.75
349.057	115.35
349.44	127.78
349.823	157.16
350.206	186.31
350.588	227.89
350.971	252.75
351.354	250.49
351.737	265.4
352.119	283.26
352.502	310.83
352.884	316.02
353.267	332.29
353.65	341.78
354.032	329.36
354.414	350.82
354.797	355.57
355.179	372.29
355.562	378.17
355.944	381.78
356.326	373.2
356.709	380.2
357.091	408
357.473	390.15
357.855	388.79
358.238	389.92
358.62	394.44
359.002	391.5
359.384	381.11
359.766	399.41
360.148	393.99
360.53	398.73
360.912	364.38
361.294	375
361.676	403.25
362.057	377.94
362.439	392.86
362.821	381.33
363.203	361.22
363.584	393.08
363.966	368
364.348	385.85
364.729	377.72
365.111	372.52
365.493	384.5
365.874	377.49
366.256	377.26
366.637	356.47
367.019	396.47
367.4	380.88
367.781	375.23
368.163	367.32
368.544	395.57
368.925	369.58
369.306	374.78
369.688	371.39
370.069	374.1
370.45	407.55
370.831	396.92
371.212	360.32
371.593	404.38
371.974	394.66
372.355	383.82
372.736	377.94
373.117	385.85
373.498	398.96
373.879	384.5
374.26	390.15
374.641	395.12
375.021	403.93
375.402	407.09
375.783	396.7
376.163	415
376.544	399.64
376.925	427.21
377.305	424.95
377.686	410.48
378.066	407.77
378.447	420.65
378.827	409.58
379.208	425.85
379.588	433.99
379.968	421.56
380.349	440.99
380.729	417.94
381.109	429.92
381.489	445.74
381.87	428.56
382.25	443.03
382.63	432.63
383.01	430.37
383.39	454.55
383.77	437.15
384.15	443.03
384.53	458.39
384.91	433.99
385.29	453.42
385.67	456.81
386.049	456.36
386.429	460.43
386.809	464.27
387.189	480.76
387.568	469.47
387.948	472.4
388.328	475.57
388.707	476.92
389.087	482.8
389.466	485.06
389.846	454.78
390.225	495.91
390.605	482.12
390.984	487.09
391.363	499.29
391.743	502.23
392.122	509.69
392.501	495.23
392.881	503.59
393.26	516.02
393.639	521.89
394.018	517.6
394.397	492.74
394.776	531.16
395.155	529.35
395.534	520.54
395.913	527.77
396.292	516.47
396.671	534.32
397.05	547.43
397.429	544.94
397.808	558.95
398.186	527.77
398.565	571.16
398.944	547.43
399.323	556.02
399.701	548.79
400.08	552.85
400.458	544.94
400.837	557.15
401.215	570.25
401.594	586.52
401.972	569.8
402.351	565.73
402.729	579.52
403.107	590.37
403.486	595.11
403.864	583.59
404.242	590.37
404.62	596.69
404.999	616.13
405.377	627.88
405.755	626.75
406.133	629.23
406.511	622
406.889	660.19
407.267	641.89
407.645	661.78
408.023	662.23
408.401	672.85
408.779	659.06
409.156	685.73
409.534	658.16
409.912	677.37
410.29	696.8
410.667	706.75
411.045	696.13
411.422	715.11
411.8	726.63
412.178	721.21
412.555	714.88
412.933	743.13
413.31	735.67
413.687	760.98
414.065	777.48
414.442	761.89
414.819	764.15
415.197	799.4
415.574	799.4
415.951	797.59
416.328	779.29
416.705	801.89
417.082	807.54
417.46	824.26
417.837	821.32
418.214	831.72
418.591	810.02
418.967	834.43
419.344	866.97
419.721	871.04
420.098	833.75
420.475	864.26
420.852	867.42
421.228	843.92
421.605	866.74
421.982	863.58
422.358	880.75
422.735	894.31
423.111	904.26
423.488	905.84
423.864	887.99
424.241	929.11
424.617	912.17
424.994	940.19
425.37	934.99
425.746	932.05
426.123	968.43
426.499	942.9
426.875	967.76
427.251	962.11
427.627	981.09
428.003	986.51
428.379	1006.63
428.756	991.94
429.132	1017.25
429.507	1047.3
429.883	1037.81
430.259	1054.53
430.635	1077.58
431.011	1069.68
431.387	1074.19
431.763	1097.92
432.138	1118.04
432.514	1120.75
432.89	1116.68
433.265	1127.75
433.641	1140.18
434.016	1166.85
434.392	1158.94
434.767	1207.75
435.143	1197.13
435.518	1189.9
435.894	1231.25
436.269	1217.24
436.644	1239.84
437.02	1250.01
437.395	1252.72
437.77	1287.07
438.145	1276
438.52	1303.12
438.895	1306.05
439.271	1309.89
439.646	1343.79
440.021	1348.99
440.395	1319.16
440.77	1310.12
441.145	1363.68
441.52	1374.07
441.895	1398.25
442.27	1362.1
442.645	1373.85
443.019	1392.15
443.394	1377.46
443.769	1399.38
444.143	1427.18
444.518	1431.93
444.892	1419.72
445.267	1439.61
445.641	1435.54
446.016	1436.9
446.39	1459.04
446.764	1485.71
447.139	1488.2
447.513	1496.78
447.887	1492.26
448.262	1480.51
448.636	1519.15
449.01	1536.33
449.384	1543.56
449.758	1525.03
450.132	1578.14
450.506	1547.63
450.88	1586.05
451.254	1567.97
451.628	1615.2
452.002	1663.33
452.376	1641.64
452.75	1657.46
453.123	1673.5
453.497	1700.39
453.871	1695.2
454.244	1758.47
454.618	1786.49
454.992	1761.18
455.365	1781.29
455.739	1813.38
456.112	1866.26
456.486	1861.97
456.859	1875.3
457.232	1893.38
457.606	1909.2
457.979	1914.4
458.352	1960.73
458.725	1976.32
459.099	2037.33
459.472	2006.83
459.845	2068.29
460.218	2100.16
460.591	2114.62
460.964	2111.68
461.337	2193.94
461.71	2214.96
462.083	2221.06
462.456	2270.55
462.829	2238.68
463.201	2292.24
463.574	2274.39
463.947	2304.22
464.32	2369.75
464.692	2376.08
465.065	2377.21
465.438	2424.67
465.81	2478.68
466.183	2501.28
466.555	2506.47
466.928	2550.09
467.3	2518.68
467.672	2557.55
468.045	2623.31
468.417	2661.95
468.789	2673.02
469.161	2708.05
469.534	2738.56
469.906	2767.26
470.278	2813.81
470.65	2845.22
471.022	2871.44
471.394	2932.45
471.766	2913.47
472.138	2996.86
472.51	3025.1
472.882	3053.8
473.253	3116.85
473.625	3194.59
473.997	3227.81
474.369	3281.82
474.74	3287.47
475.112	3345.77
475.484	3435.49
475.855	3467.35
476.227	3522.49
476.598	3590.29
476.97	3651.08
477.341	3723.39
477.713	3798.42
478.084	3793.45
478.455	3958.64
478.827	3942.82
479.198	4071.4
479.569	4104.4
479.94	4219.87
480.311	4218.29
480.682	4396.14
481.053	4471.39
481.424	4564.5
481.795	4589.13
482.166	4645.17
482.537	4802.01
482.908	4867.77
483.279	4936.69
483.65	5131.04
484.021	5217.36
484.391	5296.91
484.762	5320.64
485.133	5436.79
485.503	5597.24
485.874	5701.19
486.244	5765.15
486.615	5901.41
486.985	6036.1
487.356	6220.27
487.726	6287.84
488.097	6441.29
488.467	6580.04
488.837	6737.55
489.207	6859.13
489.578	7046.02
489.948	7137.76
490.318	7312.45
490.688	7441.26
491.058	7638.77
491.428	7756.51
491.798	7961.7
492.168	8158.08
492.538	8282.59
492.908	8464.06
493.278	8689.59
493.648	8782.24
494.017	9036.92
494.387	9212.96
494.757	9429.68
495.126	9595.1
495.496	9750.58
495.866	9963.9
496.235	10238.02
496.605	10368.87
496.974	10630.1
497.344	10823.32
497.713	11054.95
498.082	11245.9
498.452	11454.49
498.821	11624.65
499.19	11919.33
499.559	12154.36
499.928	12368.14
500.298	12699.2
500.667	12931.06
501.036	13120.66
501.405	13394.32
501.774	13566.3
502.143	13926.96
502.512	14120.18
502.88	14432.71
503.249	14667.96
503.618	14991.8
503.987	15189.08
504.356	15455.96
504.724	15695.28
505.093	15974.14
505.462	16279.67
505.83	16468.59
506.199	16743.16
506.567	17156.26
506.936	17422.47
507.304	17772.96
507.672	18089.57
508.041	18266.06
508.409	18618.82
508.777	18948.75
509.145	19214.73
509.514	19402.75
509.882	19719.81
510.25	19923.42
510.618	20256.52
510.986	20370.41
511.354	20784.19
511.722	21178.3
512.09	21440.89
512.458	21597.27
512.826	21999.07
513.193	22190.02
513.561	22437.48
513.929	22707.07
514.297	23031.81
514.664	23334.63
515.032	23473.38
515.4	23845.8
515.767	24124.44
516.135	24352.9
516.502	24344.77
516.869	24791.09
517.237	25173.45
517.604	25115.37
517.972	25542.7
518.339	25817.95
518.706	26122.58
519.073	26188.34
519.44	26574.32
519.808	26850.92
520.175	27140.18
520.542	27402.99
520.909	27707.62
521.276	27906.26
521.643	28243.2
522.009	28414.72
522.376	28779.91
522.743	29031.88
523.11	29403.17
523.477	29751.86
523.843	29853.33
524.21	30327.21
524.577	30526.53
524.943	30795.9
525.31	30922.68
525.676	31459.38
526.043	31620.74
526.409	31929.88
526.776	32257.33
527.142	32500.94
527.508	32746.81
527.874	33081.71
528.241	33323.74
528.607	33511.99
528.973	33897.06
529.339	33988.13
529.705	34507.44
530.071	34692.52
530.437	34896.13
530.803	35143.36
531.169	35392.84
531.535	35437.36
531.901	35722.1
532.267	35896.1
532.632	36116.44
532.998	36326.38
533.364	36594.39
533.73	36752.35
534.095	37098.56
534.461	37168.84
534.826	37446.8
535.192	37552.11
535.557	37903.28
535.923	37884.98
536.288	38136.5
536.653	38219.88
537.019	38353.21
537.384	38475.25
537.749	38638.63
538.114	38854.9
538.479	38853.99
538.845	39137.83
539.21	39218.95
539.575	39315.22
539.94	39513.64
540.305	39825.94
540.67	39736.91
541.034	39923.34
541.399	39929.22
541.764	40218.02
542.129	40396.32
542.494	40499.6
542.858	40681.06
543.223	40472.26
543.587	40837.67
543.952	40978
544.316	41071.34
544.681	41072.47
545.045	41400.37
545.41	41560.14
545.774	41624.32
546.138	41654.37
546.503	41822.5
546.867	41942.05
547.231	42201.02
547.595	42375.48
547.959	42418.87
548.324	42432.66
548.688	42549.71
549.052	42703.16
549.416	42820.22
549.779	42871.29
550.143	43106.76
550.507	43377.26
550.871	43526.19
551.235	43480.76
551.599	44106.28
551.962	43918.72
552.326	44149.9
552.689	44436.9
553.053	44054.08
553.417	44412.04
553.78	44848.41
554.143	44978.58
554.507	45007.28
554.87	45114.17
555.234	45538.79
555.597	45268.51
555.96	45506.47
556.323	45607.94
556.686	45841.61
557.05	46142.84
557.413	46186.46
557.776	46251.99
558.139	46541.02
558.502	46629.83
558.865	46704.63
559.228	47148.69
559.59	47222.59
559.953	47412.19
560.316	47735.34
560.679	47575.35
561.041	47975.79
561.404	48246.74
561.767	48502.33
562.129	48463.46
562.492	48741.19
562.854	48854.18
563.217	48915.87
563.579	48955.87
563.941	49325.58
564.304	49483.77
564.666	49871.1
565.028	49728.28
565.39	49952.46
565.753	50301.38
566.115	50250.75
566.477	50450.98
566.839	50523.52
567.201	50928.03
567.563	50870.63
567.925	51205.53
568.287	51206.21
568.648	51289.6
569.01	51646.42
569.372	51813.43
569.734	51806.42
570.095	52055
570.457	52181.1
570.819	52277.14
571.18	52292.74
571.542	52518.72
571.903	52525.05
572.265	52838.94
572.626	52878.93
572.987	52907.86
573.349	53073.28
573.71	53249.55
574.071	53381.97
574.432	53441.18
574.794	53711.68
575.155	53711.23
575.516	53760.95
575.877	53826.71
576.238	53882.07
576.599	54124.55
576.96	54163.19
577.32	54126.59
577.681	54282.06
578.042	54439.57
578.403	54471.89
578.763	54521.15
579.124	54529.96
579.485	54758.66
579.845	54754.37
580.206	54861.03
580.566	54947.58
580.927	54948.48
581.287	55133.11
581.648	55077.75
582.008	55205.2
582.368	55259.44
582.728	55347.34
583.089	55384.86
583.449	55438.64
583.809	55482.93
584.169	55566.77
584.529	55496.04
584.889	55818.29
585.249	55621.91
585.609	55574.68
585.969	55840.44
586.329	55856.48
586.688	55936.93
587.048	55992.07
587.408	55990.94
587.768	55980.77
588.127	56083.6
588.487	56112.75
588.846	56340.76
589.206	56039.53
589.565	56206.76
589.925	56432.29
590.284	56402.23
590.643	56400.88
591.003	56556.35
591.362	56696.46
591.721	56563.81
592.08	56634.09
592.44	56702.56
592.799	56788.89
593.158	56894.65
593.517	56806.97
593.876	56977.36
594.235	56910.47
594.593	56978.94
594.952	57057.13
595.311	57100.07
595.67	57226.84
596.029	57276.78
596.387	57363.11
596.746	57470.68
597.104	57395.65
597.463	57364.24
597.822	57552.48
598.18	57524.46
598.538	57535.76
598.897	57753.61
599.255	57596.1
599.613	58022.98
599.972	57779.14
600.33	57959.7
600.688	57815.75
601.046	57962.87
601.404	58154.73
601.762	58059.82
602.12	58215.74
602.478	58191.11
602.836	58255.29
603.194	58192.02
603.552	58293.71
603.91	58279.92
604.268	58392.46
604.625	58386.36
604.983	58557.43
605.341	58462.74
605.698	58641.95
606.056	58741.38
606.413	58682.4
606.771	58893.69
607.128	58914.71
607.485	58811.89
607.843	58893.92
608.2	58987.47
608.557	59159.67
608.914	59048.49
609.272	59181.37
609.629	59276.05
609.986	59388.82
610.343	59346.34
610.7	59589.94
611.057	59555.14
611.414	59497.97
611.771	59624.29
612.127	59745.42
612.484	59729.83
612.841	59799.88
613.198	59712.88
613.554	59728.7
613.911	59975.7
614.267	59972.53
614.624	59935.92
614.98	60038.75
615.337	60219.98
615.693	60182.02
616.05	60212.07
616.406	60277.84
616.762	60269.02
617.118	60356.7
617.475	60315.8
617.831	60432.18
618.187	60493.2
618.543	60544.95
618.899	60661.78
619.255	60621.33
619.611	60608
619.967	60720.08
620.323	60765.28
620.678	60687.77
621.034	60708.33
621.39	60761.44
621.746	60753.98
622.101	61050.7
622.457	60845.96
622.812	60956.69
623.168	60900.19
623.523	60904.71
623.879	61071.49
624.234	60873.3
624.589	60970.7
624.945	60976.8
625.3	61034.2
625.655	61087.08
626.01	61040.53
626.365	61077.59
626.72	61034.65
627.075	60996.01
627.43	61079.62
627.785	61034.65
628.14	61038.95
628.495	60997.37
628.85	61134.08
629.205	61035.78
629.559	61165.04
629.914	61104.48
630.269	61090.24
630.623	61015.9
630.978	60951.94
631.332	61083.46
631.687	61080.75
632.041	60982.45
632.396	60997.59
632.75	60977.93
633.104	60957.82
633.459	60924.15
633.813	60888.67
634.167	60904.94
634.521	60840.76
634.875	60937.25
635.229	60885.73
635.583	60748.56
635.937	60736.35
636.291	60731.84
636.645	60766.64
636.999	60611.16
637.352	60705.17
637.706	60556.25
638.06	60644.83
638.413	60584.04
638.767	60485.29
639.121	60580.43
639.474	60484.38
639.828	60437.38
640.181	60410.94
640.534	60501.11
640.888	60391.28
641.241	60282.36
641.594	60327.1
641.947	60379.3
642.301	60236.71
642.654	60297.72
643.007	60257.05
643.36	60232.41
643.713	60192.41
644.066	60327.55
644.419	60170.95
644.771	59861.8
645.124	59611.86
645.477	59640.11
645.83	59518.53
646.182	59466.78
646.535	59402.6
646.888	59489.16
647.24	59405.54
647.593	59573
647.945	59402.15
648.298	59351.98
648.65	59226.34
649.002	59135.27
649.355	59062.73
649.707	59061.6
650.059	59149.05
650.411	59424.75
650.763	59481.02
651.115	59856.15
651.467	59756.49
651.819	59725.31
652.171	59662.94
652.523	59653.67
652.875	59636.5
653.227	59480.12
653.578	59709.72
653.93	59591.98
654.282	59464.75
654.633	59460
654.985	59498.65
655.337	59511.08
655.688	59405.09
656.039	59539.78
656.391	59343.4
656.742	59385.2
657.094	59419.33
657.445	59373.45
657.796	59360.8
658.147	59300.91
658.498	59282.38
658.849	59398.76
659.2	59225.43
659.551	59228.82
659.902	59349.95
660.253	59260.46
660.604	59273.57
660.955	59220.69
661.306	59256.62
661.656	59145.21
662.007	59149.96
662.358	59141.59
662.708	59200.35
663.059	59176.85
663.409	59000.58
663.76	59133.23
664.11	59121.48
664.461	59197.86
664.811	59084.65
665.161	59081.03
665.511	59040.58
665.862	59031.54
666.212	59131.65
666.562	59124.65
666.912	59001.71
667.262	58937.76
667.612	58988.15
667.962	58995.61
668.312	59027.93
668.662	59066.79
669.011	59054.82
669.361	58947.93
669.711	58994.25
670.06	58972.11
670.41	58902.28
670.76	58866.35
671.109	58968.27
671.459	58924.2
671.808	58892.11
672.157	58958.1
672.507	58729.85
672.856	58837.42
673.205	58869.29
673.554	58901.6
673.904	58788.84
674.253	59008.04
674.602	58815.05
674.951	58467.94
675.3	58390.65
675.649	58842.85
675.998	58793.58
676.346	58771.66
676.695	58814.6
677.044	58662.74
677.393	58634.49
677.741	58718.33
678.09	58715.17
678.438	58680.36
678.787	58700.02
679.135	58646.24
679.484	58541.16
679.832	58650.76
680.181	58542.06
680.529	58649.18
680.877	58502.06
681.225	58499.13
681.573	58661.61
681.922	58492.8
682.27	58474.04
682.618	58480.14
682.966	58383.42
683.314	58380.48
683.661	58335.29
684.009	58287.61
684.357	58247.15
684.705	58164.9
685.053	58273.82
685.4	58140.27
685.748	58102.75
686.095	58057.33
686.443	57986.37
686.79	57976.43
687.138	58020.04
687.485	58048.52
687.832	57865.24
688.18	57944.56
688.527	57794.96
688.874	57761.07
689.221	57786.6
689.568	57655.08
689.915	57597.68
690.262	57687.62
690.609	57548.64
690.956	57507.51
691.303	57524.91
691.65	57336.22
691.997	57395.88
692.344	57231.81
692.69	57208.99
693.037	57215.77
693.383	56963.12
693.73	57133.29
694.077	56970.35
694.423	56982.56
694.769	56862.78
695.116	56852.39
695.462	56820.98
695.808	56729.68
696.155	56807.87
696.501	56638.16
696.847	56672.96
697.193	56459.63
697.539	56499.86
697.885	56345.06
698.231	56263.03
698.577	56260.77
698.923	56191.84
699.269	56057.16
699.614	56052.64
699.96	55955.69
700.306	55902.36
700.651	55910.49
700.997	55694.45
701.342	55579.65
701.688	55709.59
702.033	55493.55
702.379	55603.61
702.724	55413.56
703.069	55468.92
703.415	55145.77
703.76	55200.46
704.105	55178.76
704.45	55080.68
704.795	55062.61
705.14	54861.71
705.485	54971.31
705.83	54738.32
706.175	54769.05
706.52	54786.23
706.865	54605.67
707.209	54562.73
707.554	54461.94
707.899	54474.15
708.243	54379.69
708.588	54280.03
708.932	54131.78
709.277	54146.47
709.621	54038
709.966	53848.4
710.31	54038.68
710.654	53746.93
710.998	53842.98
711.342	53826.48
711.687	53702.42
712.031	53528.41
712.375	53457.9
712.719	53432.82
713.063	53412.71
713.407	53582.42
713.75	53366.15
714.094	53330.67
714.438	53228.08
714.782	53266.49
715.125	53046.39
715.469	53223.78
715.812	52971.59
716.156	52835.32
716.499	52844.81
716.843	52937.24
717.186	52653.63
717.53	52844.59
717.873	52746.73
718.216	52716.23
718.559	52597.36
718.902	52363.92
719.246	52386.52
719.589	52371.38
719.932	52186.3
720.275	52353.07
720.617	52236.69
720.96	52113.08
721.303	52183.59
721.646	52227.88
721.989	51993.08
722.331	51996.02
722.674	51944.72
723.016	51902.46
723.359	51811.17
723.701	51802.35
724.044	51671.51
724.386	51634.22
724.729	51663.15
725.071	51649.36
725.413	51695.46
725.755	51558.07
726.097	51306.09
726.439	51311.07
726.782	51313.1
727.124	51418.18
727.465	51155.59
727.807	51092.77
728.149	51180
728.491	51072.88
728.833	51067.91
729.175	50930.74
729.516	50943.84
729.858	50817.07
730.199	50829.5
730.541	50974.13
730.882	50757.86
731.224	50792.66
731.565	50561.26
731.906	50666.79
732.248	50640.8
732.589	50542.27
732.93	50442.61
733.271	50404.65
733.612	50335.05
733.953	50598.54
734.294	50237.65
734.635	50177.54
734.976	50370.07
735.317	50194.94
735.658	50145.45
735.999	49958.79
736.339	49987.26
736.68	50102.74
737.021	49981.61
737.361	49807.38
737.702	50019.8
738.042	49855.74
738.383	49876.08
738.723	49780.48
739.063	49712.24
739.404	49789.98
739.744	49610.77
740.084	49575.97
740.424	49627.95
740.764	49454.62
741.104	49574.39
741.444	49467.05
741.784	49377.33
742.124	49540.49
742.464	49198.35
742.804	49133.27
743.143	49140.28
743.483	49178.24
743.823	49032.93
744.162	48968.3
744.502	48974.18
744.841	48929.21
745.181	49023.44
745.52	48742.77
745.86	48939.6
746.199	48869.32
746.538	48815.09
746.877	48913.62
747.216	48806.05
747.556	48714.75
747.895	48641.08
748.234	48509.56
748.573	48414.65
748.911	48361.09
749.25	48406.28
749.589	48264.82
749.928	48284.48
750.267	48215.1
750.605	48165.16
750.944	48053.52
751.283	47974.2
751.621	48045.84
751.96	47893.53
752.298	47663.03
752.636	47765.85
752.975	47652.86
753.313	47575.12
753.651	47740.99
753.989	47401.11
754.327	47486.31
754.666	47113.66
755.004	47257.39
