Data from 12-0727_FLMS001491_009.txt Node
Date: Thu Apr 12 17:09:16 BST 2018
User: hsy
Spectrometer: FLMS00149
Trigger mode: 0
Integration Time (sec): 1.000000E-2
Scans to average: 10
Electric dark correction enabled: true
Nonlinearity correction enabled: false
Boxcar width: 0
XAxis mode: Wavelengths
Number of Pixels in Spectrum: 2048
>>>>>Begin Spectral Data<<<<<
341.393	-4.55
341.776	-4.55
342.16	-4.55
342.543	-57.65
342.927	-57.2
343.31	-67.82
343.693	-62.63
344.077	-66.47
344.46	-43.42
344.843	-55.17
345.226	-53.13
345.61	-28.28
345.993	-37.77
346.376	-9.29
346.759	-4.55
347.142	34.77
347.525	46.75
347.908	53.53
348.291	91.04
348.674	91.95
349.057	110.48
349.44	139.4
349.823	160.65
350.206	185.28
350.588	234.09
350.971	253.07
351.354	271.38
351.737	288.55
352.119	286.74
352.502	302.79
352.884	309.79
353.267	319.51
353.65	314.99
354.032	368.78
354.414	348.89
354.797	339.17
355.179	385.5
355.562	349.34
355.944	350.92
356.326	367.87
356.709	390.47
357.091	365.39
357.473	389.79
357.855	392.05
358.238	385.72
358.62	372.84
359.002	382.79
359.384	381.88
359.766	374.2
360.148	376.01
360.53	388.21
360.912	381.43
361.294	366.74
361.676	389.57
362.057	378.04
362.439	398.61
362.821	372.17
363.203	368.32
363.584	379.85
363.966	353.18
364.348	355.44
364.729	387.53
365.111	366.74
365.493	377.14
365.874	372.39
366.256	378.72
366.637	384.82
367.019	368.32
367.4	374.2
367.781	362
368.163	369.91
368.544	380.75
368.925	382.11
369.306	365.84
369.688	353.86
370.069	348.66
370.45	357.93
370.831	376.46
371.212	370.13
371.593	363.35
371.974	360.19
372.355	359.06
372.736	385.5
373.117	370.81
373.498	371.71
373.879	380.3
374.26	376.01
374.641	372.84
375.021	379.4
375.402	377.14
375.783	383.92
376.163	380.98
376.544	404.03
376.925	410.36
377.305	408.55
377.686	395.22
378.066	394.09
378.447	405.16
378.827	417.59
379.208	405.61
379.588	408.55
379.968	411.03
380.349	425.5
380.729	409.45
381.109	397.48
381.489	412.62
381.87	409.68
382.25	417.14
382.63	433.86
383.01	419.85
383.39	423.24
383.77	430.24
384.15	411.71
384.53	427.53
384.91	443.8
385.29	447.42
385.67	452.16
386.049	456
386.429	450.81
386.809	458.26
387.189	434.31
387.568	463.69
387.948	447.87
388.328	464.59
388.707	491.03
389.087	481.99
389.466	467.53
389.846	460.52
390.225	463.24
390.605	481.32
390.984	448.55
391.363	488.09
391.743	485.38
392.122	474.76
392.501	481.99
392.881	509.34
393.26	497.36
393.639	491.94
394.018	511.6
394.397	495.55
394.776	538.26
395.155	498.49
395.534	508.21
395.913	509.79
396.292	548.43
396.671	527.19
397.05	536.45
397.429	503.91
397.808	527.42
398.186	535.55
398.565	545.49
398.944	533.29
399.323	535.1
399.701	539.84
400.08	553.4
400.458	544.82
400.837	560.41
401.215	574.19
401.594	552.05
401.972	562.44
402.351	585.49
402.729	590.01
403.107	584.82
403.486	574.65
403.864	592.27
404.242	571.93
404.62	595.66
404.999	611.26
405.377	625.72
405.755	612.84
406.133	613.74
406.511	635.66
406.889	630.69
407.267	631.59
407.645	658.26
408.023	666.62
408.401	661.2
408.779	673.85
409.156	669.78
409.534	684.93
409.912	694.42
410.29	719.5
410.667	697.58
411.045	711.59
411.422	729.9
411.8	736.9
412.178	738.26
412.555	749.33
412.933	758.37
413.31	780.74
413.687	769.44
414.065	772.15
414.442	785.49
414.819	819.16
415.197	807.18
415.574	834.3
415.951	825.94
416.328	825.26
416.705	843.34
417.082	824.81
417.46	860.29
417.837	865.49
418.214	874.07
418.591	865.71
418.967	859.38
419.344	886.95
419.721	882.89
420.098	886.95
420.475	900.97
420.852	926.28
421.228	918.37
421.605	933.96
421.982	929.21
422.358	940.06
422.735	958.59
423.111	934.86
423.488	978.93
423.864	975.54
424.241	998.59
424.617	994.97
424.994	997.23
425.37	1001.08
425.746	986.16
426.123	1032.49
426.499	1029.32
426.875	1021.64
427.251	1040.85
427.627	1067.06
428.003	1060.96
428.379	1092.6
428.756	1092.6
429.132	1093.05
429.507	1120.39
429.883	1140.51
430.259	1123.11
430.635	1159.04
431.011	1149.77
431.387	1201.3
431.763	1178.92
432.138	1219.83
432.514	1222.31
432.89	1218.02
433.265	1244.01
433.641	1257.34
434.016	1273.61
434.392	1258.47
434.767	1313.84
435.143	1312.48
435.518	1331.46
435.894	1309.32
436.269	1335.76
436.644	1381.18
437.02	1329.65
437.395	1390.44
437.77	1403.78
438.145	1410.78
438.52	1396.55
438.895	1409.65
439.271	1434.96
439.646	1450.1
440.021	1454.62
440.395	1466.83
440.77	1439.48
441.145	1437.22
441.52	1483.77
441.895	1472.93
442.27	1491.68
442.645	1467.28
443.019	1503.44
443.394	1548.63
443.769	1532.13
444.143	1536.43
444.518	1557.44
444.892	1553.15
445.267	1592.47
445.641	1605.58
446.016	1584.79
446.39	1594.51
446.764	1599.03
447.139	1598.8
447.513	1599.48
447.887	1617.1
448.262	1624.34
448.636	1661.85
449.01	1675.41
449.384	1676.76
449.758	1722.86
450.132	1699.59
450.506	1731.45
450.88	1734.16
451.254	1728.74
451.628	1761.96
452.002	1804.22
452.376	1807.61
452.75	1809.64
453.123	1852.13
453.497	1839.25
453.871	1876.53
454.244	1914.72
454.618	1938.9
454.992	1924.44
455.365	1968.51
455.739	1980.26
456.112	2020.94
456.486	2026.13
456.859	2040.37
457.232	2103.65
457.606	2095.96
457.979	2139.35
458.352	2159.91
458.725	2177.32
459.099	2226.13
459.472	2216.86
459.845	2267.93
460.218	2284.43
460.591	2301.83
460.964	2323.98
461.337	2329.63
461.71	2386.12
462.083	2440.81
462.456	2442.39
462.829	2439.68
463.201	2493.69
463.574	2503.18
463.947	2538.66
464.32	2537.31
464.692	2615.5
465.065	2654.14
465.438	2652.78
465.81	2663.4
466.183	2680.35
466.555	2768.26
466.928	2751.76
467.3	2799.22
467.672	2850.74
468.045	2863.17
468.417	2882.83
468.789	2937.97
469.161	2927.13
469.534	2989.05
469.906	3026.78
470.278	3085.54
470.65	3088.25
471.022	3145.65
471.394	3197.85
471.766	3233.33
472.138	3297.74
472.51	3339.09
472.882	3378.87
473.253	3433.1
473.625	3503.16
473.997	3553.55
474.369	3548.13
474.74	3620.67
475.112	3686.2
475.484	3751.06
475.855	3783.83
476.227	3834.9
476.598	3962.13
476.97	3953.99
477.341	4073.54
477.713	4101.78
478.084	4168.45
478.455	4285.06
478.827	4320.31
479.198	4444.37
479.569	4501.1
479.94	4594.43
480.311	4667.42
480.682	4823.35
481.053	4866.06
481.424	5001.87
481.795	5064.92
482.166	5085.04
482.537	5208.87
482.908	5334.29
483.279	5503.56
483.65	5548.98
484.021	5633.95
484.391	5782.19
484.762	5891.12
485.133	5947.39
485.503	6037.1
485.874	6251.78
486.244	6283.2
486.615	6422.63
486.985	6589.63
487.356	6744.65
487.726	6856.51
488.097	7039.33
488.467	7085.89
488.837	7298.08
489.207	7418.31
489.578	7568.81
489.948	7811.74
490.318	7948.69
490.688	8008.12
491.058	8247.21
491.428	8423.93
491.798	8549.8
492.168	8814.88
492.538	8984.59
492.908	9153.4
493.278	9373.28
493.648	9384.36
494.017	9683.56
494.387	9892.82
494.757	10046.04
495.126	10232.02
495.496	10351.11
495.866	10611.9
496.235	10798.56
496.605	10969.85
496.974	11112.67
497.344	11429.73
497.713	11627.69
498.082	11801.7
498.452	12084.63
498.821	12203.27
499.19	12480.1
499.559	12709.24
499.928	12875.57
500.298	13121.66
500.667	13397.59
501.036	13584.7
501.405	13749.21
501.774	14002.77
502.143	14239.82
502.512	14418.58
502.88	14703.54
503.249	14848.39
503.618	15157.77
503.987	15310.98
504.356	15613.12
504.724	15824.87
505.093	16018.31
505.462	16286.1
505.83	16418.98
506.199	16803.15
506.567	17122.91
506.936	17311.15
507.304	17634.54
507.672	17839.28
508.041	18027.97
508.409	18311.35
508.777	18546.6
509.145	18853.49
509.514	19018.68
509.882	19172.12
510.25	19462.96
510.618	19723.97
510.986	19951.54
511.354	20129.16
511.722	20550.84
512.09	20639.2
512.458	20849.37
512.826	21183.37
513.193	21339.75
513.561	21555.79
513.929	21816.35
514.297	22097.02
514.664	22263.79
515.032	22490.45
515.4	22689.54
515.767	22889.54
516.135	23118.69
516.502	23164.11
516.869	23659.69
517.237	23916.63
517.604	23901.94
517.972	24304.19
518.339	24478.88
518.706	24752.77
519.073	24817.4
519.44	25128.58
519.808	25443.37
520.175	25625.51
520.542	25936.92
520.909	26046.74
521.276	26253.07
521.643	26644.47
522.009	26711.13
522.376	27055.53
522.743	27220.95
523.11	27612.35
523.477	27967.37
523.843	28038.56
524.21	28524.19
524.577	28801.25
524.943	28934.13
525.31	29122.37
525.676	29567.1
526.043	29867.89
526.409	29942.91
526.776	30340.87
527.142	30525.72
527.508	30626.96
527.874	30930.91
528.241	31130.68
528.607	31313.95
528.973	31737.22
529.339	31722.53
529.705	32138.79
530.071	32326.13
530.437	32563.18
530.803	32941.93
531.169	33109.38
531.535	33033.23
531.901	33432.09
532.267	33533.55
532.632	33714.11
532.998	33854
533.364	34141.45
533.73	34232.74
534.095	34622.11
534.461	34692.39
534.826	34935.32
535.192	35009.22
535.557	35214.87
535.923	35425.93
536.288	35456.21
536.653	35696.43
537.019	35677.45
537.384	35886.94
537.749	36020.49
538.114	36169.19
538.479	36170.09
538.845	36453.02
539.21	36326.02
539.575	36457.54
539.94	36801.72
540.305	36954.48
540.67	36943.63
541.034	37190.41
541.399	37243.96
541.764	37296.62
542.129	37524.86
542.494	37664.29
542.858	37714.23
543.223	37795.14
543.587	37927.34
543.952	37883.27
544.316	38205.75
544.681	38258.85
545.045	38456.81
545.41	38521.67
545.774	38603.48
546.138	38695.23
546.503	38880.31
546.867	39012.51
547.231	39283.68
547.595	39424.7
547.959	39507.63
548.324	39533.4
548.688	39643.68
549.052	39841.86
549.416	40025.59
549.779	40007.28
550.143	40116.66
550.507	40343.54
550.871	40441.62
551.235	40472.35
551.599	40899.46
551.962	40868.73
552.326	41224.65
552.689	41170.41
553.053	41082.06
553.417	41242.05
553.78	41665.77
554.143	41733.11
554.507	41971.75
554.87	41993.67
555.234	42358.41
555.597	42124.97
555.96	42505.07
556.323	42740.09
556.686	42791.16
557.05	43090.36
557.413	43055.34
557.776	43138.27
558.139	43467.08
558.502	43554.08
558.865	43762.21
559.228	44094.41
559.59	44123.78
559.953	44287.85
560.316	44693.49
560.679	44840.83
561.041	44995.17
561.404	45225
561.767	45551.09
562.129	45459.57
562.492	45738.43
562.854	45638.55
563.217	45785.43
563.579	46085.31
563.941	46236.5
564.304	46413.21
564.666	46786.76
565.028	46652.98
565.39	47014.33
565.753	47217.04
566.115	47377.26
566.477	47600.53
566.839	47685.5
567.201	48028.77
567.563	48006.85
567.925	48281.41
568.287	48465.14
568.648	48598.92
569.01	48748.75
569.372	49094.95
569.734	49001.62
570.095	49330.65
570.457	49567.71
570.819	49486.58
571.18	49517.54
571.542	49974.7
571.903	49942.39
572.265	50081.14
572.626	50318.42
572.987	50251.76
573.349	50545.76
573.71	50656.49
574.071	50900.33
574.432	51001.79
574.794	51331.5
575.155	51196.37
575.516	51171.28
575.877	51430.48
576.238	51435
576.599	51659.4
576.96	51733.98
577.32	51836.35
577.681	51957.25
578.042	52141.43
578.403	52180.97
578.763	52218.49
579.124	52253.51
579.485	52454.64
579.845	52580.74
580.206	52620.28
580.566	52593.84
580.927	52622.77
581.287	52840.39
581.648	52742.77
582.008	53022.08
582.368	53023.89
582.728	53077.9
583.089	53107.05
583.449	53139.14
583.809	53249.87
584.169	53442.41
584.529	53337.1
584.889	53542.52
585.249	53479.92
585.609	53401.28
585.969	53679.46
586.329	53668.17
586.688	53755.62
587.048	53750.2
587.408	53801.04
587.768	53863.87
588.127	53914.49
588.487	53904.77
588.846	54109.51
589.206	53981.15
589.565	53983.64
589.925	54263.4
590.284	54205.33
590.643	54254.36
591.003	54344.53
591.362	54477.86
591.721	54496.17
592.08	54558.76
592.44	54688.03
592.799	54663.85
593.158	54683.51
593.517	54684.41
593.876	54761.24
594.235	54772.77
594.593	54852.09
594.952	54816.16
595.311	54939.32
595.67	55025.42
596.029	55090.5
596.387	55219.31
596.746	55325.07
597.104	55151.06
597.463	55226.54
597.822	55433.54
598.18	55303.15
598.538	55349.7
598.897	55536.59
599.255	55368.69
599.613	55786.75
599.972	55559.87
600.33	55729.35
600.688	55653.88
601.046	55783.14
601.404	55998.27
601.762	55938.84
602.12	56036.92
602.478	56070.59
602.836	56137.25
603.194	55993.08
603.552	56161.66
603.91	56077.37
604.268	56220.41
604.625	56196.23
604.983	56401.88
605.341	56236.01
605.698	56459.28
606.056	56587.41
606.413	56484.81
606.771	56663.11
607.128	56694.75
607.485	56670.8
607.843	56729.33
608.2	56885.48
608.557	56977.68
608.914	56805.03
609.272	57045.03
609.629	57090.45
609.986	57217.45
610.343	57143.55
610.7	57346.94
611.057	57317.56
611.414	57269.43
611.771	57514.39
612.127	57511.45
612.484	57515.75
612.841	57698.57
613.198	57551.9
613.554	57610.89
613.911	57759.36
614.267	57818.11
614.624	57823.76
614.98	57905.34
615.337	58060.82
615.693	58073.92
616.05	58058.33
616.406	58165.45
616.762	58148.95
617.118	58220.59
617.475	58181.94
617.831	58299.91
618.187	58297.42
618.543	58383.07
618.899	58577.87
619.255	58430.07
619.611	58482.05
619.967	58596.62
620.323	58661.71
620.678	58511.43
621.034	58557.08
621.39	58553.46
621.746	58575.61
622.101	58843.85
622.457	58629.62
622.812	58828.03
623.168	58804.53
623.523	58796.17
623.879	58887.46
624.234	58779.9
624.589	58863.28
624.945	58899.44
625.3	58967.01
625.655	59009.27
626.01	59033.67
626.365	58991.64
626.72	58950.51
627.075	58892.89
627.43	58992.54
627.785	58991.87
628.14	58992.77
628.495	59060.34
628.85	59030.28
629.205	58942.6
629.559	59093.79
629.914	58907.35
630.269	58974.69
630.623	58842.72
630.978	58896.28
631.332	59046.55
631.687	59007.69
632.041	58868.93
632.396	58960.68
632.75	58824.19
633.104	58893.11
633.459	58803.62
633.813	58856.05
634.167	58768.6
634.521	58754.36
634.875	58774.92
635.229	58722.27
635.583	58626.23
635.937	58659.9
636.291	58587.13
636.645	58652.21
636.999	58524.31
637.352	58593.46
637.706	58408.61
638.06	58580.8
638.413	58449.51
638.767	58459.9
639.121	58444.76
639.474	58343.97
639.828	58319.34
640.181	58284.31
640.534	58399.11
640.888	58343.75
641.241	58243.41
641.594	58259.68
641.947	58259.68
642.301	58184.43
642.654	58209.06
643.007	58067.6
643.36	58219.46
643.713	58143.53
644.066	58212.9
644.419	58028.73
644.771	57763.65
645.124	57573.37
645.477	57523.66
645.83	57341.06
646.182	57343.1
646.535	57360.72
646.888	57364.57
647.24	57330.44
647.593	57480.27
647.945	57343.77
648.298	57328.86
648.65	57081.18
649.002	57022.2
649.355	56971.13
649.707	56918.02
650.059	56981.07
650.411	57363.66
650.763	57365.47
651.115	57739.47
651.467	57594.62
651.819	57642.75
652.171	57618.12
652.523	57508.52
652.875	57538.57
653.227	57377.9
653.578	57556.2
653.93	57474.17
654.282	57396.43
654.633	57389.88
654.985	57371.34
655.337	57385.13
655.688	57332.02
656.039	57380.61
656.391	57195.98
656.742	57219.71
657.094	57237.79
657.445	57276.43
657.796	57115.08
658.147	57163.21
658.498	57167.51
658.849	57115.53
659.2	57125.93
659.551	56993.73
659.902	57163.21
660.253	56976.1
660.604	57064.23
660.955	56969.77
661.306	57111.69
661.656	56997.34
662.007	56956.44
662.358	56925.25
662.708	56987.85
663.059	56970.9
663.409	56859.27
663.76	56906.95
664.11	56901.98
664.461	56957.57
664.811	56984.46
665.161	56941.53
665.511	56839.61
665.862	56921.19
666.212	56937.46
666.562	56888.65
666.912	56913.73
667.262	56750.12
667.612	56794.86
667.962	56830.12
668.312	56763.45
668.662	56871.47
669.011	56779.72
669.361	56821.75
669.711	56822.43
670.06	56779.04
670.41	56655.43
670.76	56740.85
671.109	56789.21
671.459	56716.45
671.808	56719.84
672.157	56716.67
672.507	56656.56
672.856	56649.78
673.205	56655.88
673.554	56722.32
673.904	56565.94
674.253	56779.5
674.602	56587.86
674.951	56219.51
675.3	56215.44
675.649	56555.09
675.998	56572.04
676.346	56552.16
676.695	56554.87
677.044	56469.67
677.393	56493.4
677.741	56591.93
678.09	56535.21
678.438	56445.04
678.787	56556.22
679.135	56524.81
679.484	56352.84
679.832	56493.85
680.181	56328.43
680.529	56404.59
680.877	56272.39
681.225	56363.24
681.573	56524.14
681.922	56283.24
682.27	56217.25
682.618	56237.59
682.966	56143.81
683.314	56221.32
683.661	56176.8
684.009	56126.18
684.357	56027.88
684.705	55946.98
685.053	56118.95
685.4	55911.5
685.748	55914.66
686.095	55916.02
686.443	55751.95
686.79	55675.57
687.138	55826.98
687.485	55804.83
687.832	55661.79
688.18	55717.38
688.527	55572.97
688.874	55573.43
689.221	55617.94
689.568	55507.44
689.915	55436.93
690.262	55463.15
690.609	55409.14
690.956	55332.53
691.303	55349.02
691.65	55158.97
691.997	55122.82
692.344	55075.13
692.69	54952.88
693.037	55012.31
693.383	54870.85
693.73	54961.92
694.077	54754.92
694.423	54725.54
694.769	54709.27
695.116	54674.01
695.462	54558.99
695.808	54458.2
696.155	54555.6
696.501	54319
696.847	54331.88
697.193	54148.38
697.539	54231.54
697.885	53995.39
698.231	54022.51
698.577	53929.18
698.923	53890.53
699.269	53663.65
699.614	53657.09
699.96	53590.65
700.306	53603.31
700.651	53480.15
700.997	53382.3
701.342	53245.8
701.688	53291.68
702.033	53236.99
702.379	53164
702.724	53055.07
703.069	53140.72
703.415	52884.46
703.76	52766.27
704.105	52853.05
704.45	52705.93
704.795	52599.04
705.14	52472.72
705.485	52535.54
705.83	52254.42
706.175	52431.81
706.52	52292.16
706.865	52200.41
707.209	52138.94
707.554	52015.78
707.899	52074.53
708.243	51916.8
708.588	51720.42
708.932	51659.4
709.277	51734.88
709.621	51503.25
709.966	51340.77
710.31	51433.2
710.654	51232.3
710.998	51292.18
711.342	51263.03
711.687	51118.63
712.031	51062.81
712.375	50827.79
712.719	50825.75
713.063	50811.52
713.407	50916.15
713.75	50697.4
714.094	50725.87
714.438	50537.85
714.782	50564.29
715.125	50343.51
715.469	50588.02
715.812	50135.6
716.156	50103.97
716.499	50155.04
716.843	50244.53
717.186	50009.05
717.53	50053.57
717.873	50154.13
718.216	49885.67
718.559	49889.73
718.902	49619.91
719.246	49661.04
719.589	49560.25
719.932	49390.99
720.275	49499.91
720.617	49465.56
720.96	49332.46
721.303	49396.41
721.646	49297.21
721.989	49047.04
722.331	49126.36
722.674	49042.07
723.016	49078.23
723.359	48980.38
723.701	48958.01
724.044	48843.21
724.386	48639.37
724.729	48843.66
725.071	48731.35
725.413	48583.33
725.755	48492.03
726.097	48443.44
726.439	48408.87
726.782	48278.7
727.124	48477.12
727.465	48340.85
727.807	48151.02
728.149	48205.71
728.491	48141.98
728.833	48219.95
729.175	48152.38
729.516	47953.06
729.858	47954.87
730.199	48040.74
730.541	47876.9
730.882	47819.96
731.224	47765.27
731.565	47641.88
731.906	47723.46
732.248	47756.68
732.589	47415.22
732.93	47370.25
733.271	47409.57
733.612	47341.33
733.953	47520.76
734.294	47278.5
734.635	47276.92
734.976	47347.88
735.317	47146.75
735.658	47193.76
735.999	47079.64
736.339	47067.21
736.68	46984.73
737.021	47066.08
737.361	46870.15
737.702	47001.9
738.042	46714.68
738.383	46773.43
738.723	46817.72
739.063	46559.43
739.404	46725.97
739.744	46658.86
740.084	46429.49
740.424	46597.16
740.764	46464.51
741.104	46597.16
741.444	46457.28
741.784	46211.41
742.124	46411.41
742.464	46236.95
742.804	46292.99
743.143	46085.77
743.483	46069.27
743.823	45924.87
744.162	46046.67
744.502	46037.86
744.841	45881.48
745.181	46017.07
745.52	45778.2
745.86	45831.31
746.199	45705.44
746.538	45625.89
746.877	45833.12
747.216	45593.35
747.556	45629.51
747.895	45556.97
748.234	45365.78
748.573	45346.8
748.911	45182.06
749.25	45180.93
749.589	45039.47
749.928	44994.95
750.267	44989.07
750.605	44911.79
750.944	44828.85
751.283	44766.7
751.621	44961.05
751.96	44633.37
752.298	44626.82
752.636	44562.42
752.975	44507.73
753.313	44344.34
753.651	44506.82
753.989	44334.85
754.327	44220.05
