Data from 12-0727_FLMS001491_004.txt Node
Date: Thu Apr 12 17:09:06 BST 2018
User: hsy
Spectrometer: FLMS00149
Trigger mode: 0
Integration Time (sec): 1.000000E-2
Scans to average: 10
Electric dark correction enabled: true
Nonlinearity correction enabled: false
Boxcar width: 0
XAxis mode: Wavelengths
Number of Pixels in Spectrum: 2048
>>>>>Begin Spectral Data<<<<<
341.393	0.13
341.776	0.13
342.16	0.13
342.543	-55.24
342.927	-78.29
343.31	-90.72
343.693	-79.87
344.077	-75.13
344.46	-54.11
344.843	-52.53
345.226	-36.71
345.61	-41.45
345.993	-17.95
346.376	11.2
346.759	12.78
347.142	16.4
347.525	48.04
347.908	78.54
348.291	86.9
348.674	96.4
349.057	98.2
349.44	137.75
349.823	133.68
350.206	164.87
350.588	237.86
350.971	248.03
351.354	260.01
351.737	282.38
352.119	310.4
352.502	287.13
352.884	288.03
353.267	306.33
353.65	318.31
354.032	334.13
354.414	335.26
354.797	364.86
355.179	348.14
355.562	371.64
355.944	376.39
356.326	367.8
356.709	355.37
357.091	374.81
357.473	377.29
357.855	369.16
358.238	386.78
358.62	398.53
359.002	369.61
359.384	390.63
359.766	379.1
360.148	396.73
360.53	396.95
360.912	388.82
361.294	390.4
361.676	392.43
362.057	395.6
362.439	361.7
362.821	394.24
363.203	387.91
363.584	394.24
363.966	361.02
364.348	382.72
364.729	385.43
365.111	365.32
365.493	385.43
365.874	382.94
366.256	388.14
366.637	384.52
367.019	363.96
367.4	349.04
367.781	370.06
368.163	373.45
368.544	363.96
368.925	373.9
369.306	375.94
369.688	371.19
370.069	384.75
370.45	367.58
370.831	355.15
371.212	366.22
371.593	372.09
371.974	372.09
372.355	380.46
372.736	371.42
373.117	385.43
373.498	389.04
373.879	394.24
374.26	368.7
374.641	362.83
375.021	397.4
375.402	385.2
375.783	405.31
376.163	384.3
376.544	411.42
376.925	411.87
377.305	389.95
377.686	405.31
378.066	394.24
378.447	402.83
378.827	406.67
379.208	417.07
379.588	414.13
379.968	405.99
380.349	418.42
380.729	420.23
381.109	433.79
381.489	412.09
381.87	410.06
382.25	423.84
382.63	405.54
383.01	432.21
383.39	429.49
383.77	442.38
384.15	427.69
384.53	417.29
384.91	446.22
385.29	441.47
385.67	453.22
386.049	441.92
386.429	453.9
386.809	461.36
387.189	448.93
387.568	455.93
387.948	468.36
388.328	466.78
388.707	457.06
389.087	474.46
389.466	461.81
389.846	483.28
390.225	481.7
390.605	489.15
390.984	515.14
391.363	467.91
391.743	498.42
392.122	488.02
392.501	510.4
392.881	526.21
393.26	525.54
393.639	508.36
394.018	507.91
394.397	515.59
394.776	524.63
395.155	517.18
395.534	518.76
395.913	540
396.292	522.83
396.671	551.3
397.05	552.65
397.429	561.24
397.808	545.2
398.186	532.54
398.565	545.2
398.944	558.98
399.323	540.9
399.701	565.31
400.08	549.04
400.458	552.88
400.837	557.85
401.215	586.55
401.594	575.48
401.972	594.24
402.351	570.28
402.729	598.98
403.107	588.13
403.486	591.98
403.864	612.99
404.242	608.02
404.62	620.9
404.999	622.03
405.377	640.56
405.755	636.49
406.133	632.2
406.511	640.34
406.889	664.29
407.267	667
407.645	649.83
408.023	655.7
408.401	668.58
408.779	684.18
409.156	690.5
409.534	664.52
409.912	697.96
410.29	710.39
410.667	732.76
411.045	716.04
411.422	748.81
411.8	739.09
412.178	743.61
412.555	751.75
412.933	779.32
413.31	789.26
413.687	786.55
414.065	802.59
414.442	809.37
414.819	821.12
415.197	838.3
415.574	838.07
415.951	851.63
416.328	857.05
416.705	844.62
417.082	850.27
417.46	847.11
417.837	908.13
418.214	875.81
418.591	893.21
418.967	889.14
419.344	909.93
419.721	906.77
420.098	906.77
420.475	926.66
420.852	933.66
421.228	951.06
421.605	954.68
421.982	964.62
422.358	968.46
422.735	968.92
423.111	986.99
423.488	988.12
423.864	1001.91
424.241	1020.89
424.617	1055.24
424.994	1001.91
425.37	1019.31
425.746	1031.96
426.123	1058.4
426.499	1079.19
426.875	1110.15
427.251	1075.81
427.627	1076.48
428.003	1114.67
428.379	1088.91
428.756	1139.53
429.132	1128.01
429.507	1159.42
429.883	1172.98
430.259	1193.99
430.635	1183.15
431.011	1222.02
431.387	1229.7
431.763	1235.12
432.138	1236.25
432.514	1262.47
432.89	1289.81
433.265	1336.14
433.641	1321.9
434.016	1291.62
434.392	1321.22
434.767	1339.53
435.143	1375.91
435.518	1381.11
435.894	1384.95
436.269	1391.28
436.644	1388.11
437.02	1404.16
437.395	1431.73
437.77	1449.13
438.145	1440.09
438.52	1485.29
438.895	1490.03
439.271	1470.14
439.646	1512.86
440.021	1512.4
440.395	1504.95
440.77	1518.05
441.145	1508.34
441.52	1570.26
441.895	1552.85
442.27	1582.91
442.645	1537.26
443.019	1597.83
443.394	1586.75
443.769	1582.68
444.143	1578.16
444.518	1602.8
444.892	1591.27
445.267	1649.12
445.641	1650.03
446.016	1678.28
446.39	1673.53
446.764	1696.13
447.139	1659.52
447.513	1702
447.887	1687.31
448.262	1706.07
448.636	1705.84
449.01	1765.73
449.384	1746.52
449.758	1772.96
450.132	1772.74
450.506	1790.36
450.88	1807.09
451.254	1808.67
451.628	1846.18
452.002	1860.64
452.376	1868.78
452.75	1909
453.123	1901.55
453.497	1957.59
453.871	1947.87
454.244	2018.83
454.618	1988.78
454.992	2021.77
455.365	2051.82
455.739	2067.87
456.112	2111.94
456.486	2129.79
456.859	2141.77
457.232	2193.29
457.606	2185.61
457.979	2219.5
458.352	2261.08
458.725	2297.02
459.099	2302.21
459.472	2340.63
459.845	2385.83
460.218	2402.55
460.591	2405.49
460.964	2458.82
461.337	2443.23
461.71	2499.72
462.083	2561.42
462.456	2565.71
462.829	2549.66
463.201	2593.73
463.574	2582.21
463.947	2623.33
464.32	2681.86
464.692	2710.79
465.065	2745.59
465.438	2776.55
465.81	2804.8
466.183	2809.09
466.555	2887.73
466.928	2891.12
467.3	2907.17
467.672	2944.68
468.045	3024.91
468.417	3060.39
468.789	3069.65
469.161	3064.68
469.534	3158.46
469.906	3179.93
470.278	3257.44
470.65	3228.52
471.022	3333.15
471.394	3371.11
471.766	3379.25
472.138	3434.16
472.51	3532.69
472.882	3555.97
473.253	3576.76
473.625	3674.38
473.997	3743.76
474.369	3750.76
474.74	3752.8
475.112	3886.13
475.484	3899.69
475.855	3966.58
476.227	4051.55
476.598	4158.21
476.97	4172.9
477.341	4246.8
477.713	4330.41
478.084	4379.67
478.455	4496.05
478.827	4550.97
479.198	4706.9
479.569	4746.89
479.94	4884.29
480.311	4913.22
480.682	5024.85
481.053	5095.59
481.424	5169.48
481.795	5311.85
482.166	5385.52
482.537	5482.47
482.908	5568.57
483.279	5657.83
483.65	5831.61
484.021	5939.86
484.391	6069.57
484.762	6140.53
485.133	6264.6
485.503	6381.88
485.874	6544.14
486.244	6625.26
486.615	6807.41
486.985	6890.79
487.356	7091.01
487.726	7141.18
488.097	7419.82
488.467	7438.8
488.837	7717.44
489.207	7831.56
489.578	7972.35
489.948	8121.95
490.318	8286.24
490.688	8391.54
491.058	8644.42
491.428	8800.57
491.798	8910.85
492.168	9197.4
492.538	9347.68
492.908	9598.29
493.278	9708.57
493.648	9852.98
494.017	10092.97
494.387	10270.14
494.757	10494.99
495.126	10682.33
495.496	10830.8
495.866	11049.55
496.235	11237.57
496.605	11463.55
496.974	11617
497.344	11909.42
497.713	12039.36
498.082	12259.69
498.452	12487.03
498.821	12784.2
499.19	12859.45
499.559	13237.29
499.928	13347.57
500.298	13538.53
500.667	13863.04
501.036	13915.69
501.405	14295.8
501.774	14516.81
502.143	14677.93
502.512	15013.29
502.88	15232.04
503.249	15460.96
503.618	15661.41
503.987	15948.63
504.356	16131.45
504.724	16430.88
505.093	16627.26
505.462	16878.1
505.83	17191.99
506.199	17399.9
506.567	17714.46
506.936	17827.91
507.304	18234.68
507.672	18430.38
508.041	18619.07
508.409	18993.75
508.777	19243.24
509.145	19560.29
509.514	19584.02
509.882	19898.59
510.25	20082.54
510.618	20388.07
510.986	20519.14
511.354	20856.75
511.722	21223.07
512.09	21409.51
512.458	21504.42
512.826	21824.41
513.193	22026.44
513.561	22166.32
513.929	22529.25
514.297	22824.61
514.664	22985.51
515.032	23307.08
515.4	23656
515.767	23739.62
516.135	23964.02
516.502	23854.64
516.869	24402.42
517.237	24657.78
517.604	24650.78
517.972	25089.64
518.339	25324.43
518.706	25548.83
519.073	25707.93
519.44	25871.99
519.808	26296.16
520.175	26450.05
520.542	26841.46
520.909	27066.31
521.276	27105.4
521.643	27457.26
522.009	27708.1
522.376	28113.29
522.743	28084.13
523.11	28559.83
523.477	28852.93
523.843	29096.99
524.21	29396.64
524.577	29768.61
524.943	29963.86
525.31	30032.33
525.676	30496.73
526.043	30659.89
526.409	30922.25
526.776	31252.64
527.142	31371.96
527.508	31687.66
527.874	32052.84
528.241	32237.47
528.607	32469.78
528.973	32829.55
529.339	32837.23
529.705	33255.07
530.071	33486.7
530.437	33774.61
530.803	34001.04
531.169	34122.85
531.535	34386.79
531.901	34412.33
532.267	34615.49
532.632	35024.29
532.998	35050.05
533.364	35314.23
533.73	35450.49
534.095	35809.36
534.461	35921.44
534.826	36032.4
535.192	36240.76
535.557	36412.95
535.923	36495.21
536.288	36835.77
536.653	36938.14
537.019	36904.69
537.384	37052.71
537.749	37231.92
538.114	37417.9
538.479	37492.02
538.845	37681.62
539.21	37769.3
539.575	37977.66
539.94	37946.7
540.305	38347.59
540.67	38334.26
541.034	38348.5
541.399	38496.74
541.764	38634.59
542.129	38884.53
542.494	39076.39
542.858	39337.17
543.223	39022.6
543.587	39356.15
543.952	39406.1
544.316	39503.04
544.681	39620.78
545.045	39868.91
545.41	40038.4
545.774	40090.37
546.138	40071.16
546.503	40294.21
546.867	40329.46
547.231	40622.11
547.595	40811.03
547.959	40842.22
548.324	40910.01
548.688	41012.83
549.052	41220.29
549.416	41149.78
549.779	41516.55
550.143	41403.33
550.507	41734.85
550.871	41726.26
551.235	41781.85
551.599	42326.7
551.962	42278.56
552.326	42363.76
552.689	42619.35
553.053	42432.01
553.417	42682.17
553.78	43084.64
554.143	43207.8
554.507	43372.55
554.87	43412.77
555.234	43815.92
555.597	43555.37
555.96	43831.07
556.323	43999.87
556.686	44196.25
557.05	44260.88
557.413	44614.77
557.776	44504.49
558.139	44876.24
558.502	44932.96
558.865	45093.63
559.228	45404.81
559.59	45500.63
559.953	45711.02
560.316	46021.74
560.679	46231.45
561.041	46380.6
561.404	46541.05
561.767	46927.03
562.129	46849.74
562.492	47199.11
562.854	47315.04
563.217	47361.82
563.579	47542.61
563.941	47700.34
564.304	47967.23
564.666	48261.46
565.028	48327.44
565.39	48440.21
565.753	48651.96
566.115	48794.55
566.477	49033.87
566.839	49154.77
567.201	49514.08
567.563	49410.35
567.925	49702.78
568.287	49814.41
568.648	49923.33
569.01	50160.84
569.372	50335.98
569.734	50401.06
570.095	50679.02
570.457	50848.96
570.819	50817.55
571.18	50897.32
571.542	51104.77
571.903	51242.85
572.265	51400.13
572.626	51514.93
572.987	51630.63
573.349	51891.42
573.71	51913.34
574.071	52059.1
574.432	52179.32
574.794	52464.96
575.155	52440.33
575.516	52370.28
575.877	52479.88
576.238	52675.13
576.599	52799.19
576.96	52790.38
577.32	52991.28
577.681	53070.37
578.042	53222.46
578.403	53251.61
578.763	53239.18
579.124	53305.84
579.485	53586.97
579.845	53652.5
580.206	53600.75
580.566	53715.1
580.927	53748.77
581.287	53816.11
581.648	53860.18
582.008	54071.47
582.368	54199.83
582.728	54141.75
583.089	54106.95
583.449	54209.1
583.809	54262.2
584.169	54387.62
584.529	54278.47
584.889	54627.84
585.249	54432.82
585.609	54376.55
585.969	54643.66
586.329	54523.44
586.688	54614.96
587.048	54666.94
587.408	54703.77
587.768	54760.04
588.127	54771.79
588.487	54793.49
588.846	55038.23
589.206	54791.23
589.565	54905.8
589.925	55091.11
590.284	55059.02
590.643	55144.89
591.003	55230.99
591.362	55409.07
591.721	55305.57
592.08	55339.69
592.44	55521.61
592.799	55421.04
593.158	55451.78
593.517	55429.63
593.876	55608.61
594.235	55548.27
594.593	55620.59
594.952	55676.63
595.311	55743.29
595.67	55845.89
596.029	55939.9
596.387	56027.81
596.746	56157.52
597.104	55975.6
597.463	55949.16
597.822	56256.28
598.18	56126.79
598.538	56196.62
598.897	56250.17
599.255	56136.73
599.613	56523.61
599.972	56411.53
600.33	56491.75
600.688	56461.69
601.046	56462.37
601.404	56646.55
601.762	56696.04
602.12	56763.15
602.478	56790.27
602.836	56837.73
603.194	56747.34
603.552	56805.19
603.91	56818.29
604.268	56952.53
604.625	56851.29
604.983	57203.59
605.341	56994.33
605.698	57178.96
606.056	57364.27
606.413	57216.02
606.771	57427.09
607.128	57334.21
607.485	57337.15
607.843	57463.93
608.2	57563.13
608.557	57642.45
608.914	57582.57
609.272	57655.33
609.629	57797.7
609.986	57887.19
610.343	57881.54
610.7	58075.21
611.057	58053.29
611.414	58046.06
611.771	58114.76
612.127	58165.83
612.484	58184.81
612.841	58274.98
613.198	58267.3
613.554	58268.88
613.911	58435.88
614.267	58477.01
614.624	58401.76
614.98	58568.3
615.337	58652.14
615.693	58660.51
616.05	58642.43
616.406	58789.32
616.762	58780.73
617.118	58774.63
617.475	58803.33
617.831	58945.92
618.187	58990.44
618.543	59041.74
618.899	59123.32
619.255	59118.57
619.611	59090.78
619.967	59269.98
620.323	59257.33
620.678	59145.01
621.034	59164.45
621.39	59199.47
621.746	59210.32
622.101	59504.55
622.457	59220.26
622.812	59426.36
623.168	59429.3
623.523	59370.54
623.879	59478.34
624.234	59363.76
624.589	59458
624.945	59519.69
625.3	59513.59
625.655	59506.13
626.01	59526.02
626.365	59578
626.72	59523.76
627.075	59515.62
627.43	59582.06
627.785	59543.19
628.14	59594.94
628.495	59553.82
628.85	59610.99
629.205	59533.03
629.559	59616.86
629.914	59576.64
630.269	59598.11
630.623	59462.97
630.978	59504.78
631.332	59646.69
631.687	59580.93
632.041	59486.02
632.396	59571.22
632.75	59492.57
633.104	59530.09
633.459	59408.06
633.813	59453.03
634.167	59343.88
634.521	59410.09
634.875	59379.36
635.229	59326.02
635.583	59263.2
635.937	59233.15
636.291	59327.61
636.645	59261.85
636.999	59130.78
637.352	59242.19
637.706	59136.65
638.06	59186.37
638.413	59083.55
638.767	59073.83
639.121	59146.82
639.474	58967.62
639.828	58983.66
640.181	58954.06
640.534	59069.08
640.888	58881.52
641.241	58844.23
641.594	58807.85
641.947	58893.04
642.301	58790.22
642.654	58724.01
643.007	58733.27
643.36	58796.32
643.713	58718.81
644.066	58871.12
644.419	58642.65
644.771	58421.42
645.124	58136.45
645.477	58137.36
645.83	58006.74
646.182	58012.61
646.535	57969.68
646.888	58060.75
647.24	57851.49
647.593	58133.06
647.945	57954.54
648.298	57872.73
648.65	57762.68
649.002	57621.21
649.355	57638.39
649.707	57554.09
650.059	57605.17
650.411	57870.02
650.763	57963.12
651.115	58323.34
651.467	58169.67
651.819	58239.95
652.171	58215.55
652.523	58057.36
652.875	58073.85
653.227	58009
653.578	58160.18
653.93	58029.34
654.282	57948.43
654.633	57924.71
654.985	57958.15
655.337	57933.75
655.688	57949.79
656.039	58027.08
656.391	57773.3
656.742	57802.68
657.094	57820.75
657.445	57867.31
657.796	57895.33
658.147	57741.21
658.498	57803.35
658.849	57789.34
659.2	57712.51
659.551	57611.49
659.902	57775.11
660.253	57604.71
660.604	57735.78
660.955	57562
661.306	57748.89
661.656	57548.67
662.007	57509.58
662.358	57636.13
662.708	57585.73
663.059	57558.16
663.409	57450.14
663.76	57600.19
664.11	57550.25
664.461	57568.1
664.811	57531.5
665.161	57576.47
665.511	57402.46
665.862	57467.99
666.212	57512.06
666.562	57464.15
666.912	57463.25
667.262	57418.5
667.612	57399.07
667.962	57412.18
668.312	57339.64
668.662	57480.42
669.011	57534.43
669.361	57441.33
669.711	57492.85
670.06	57355.23
670.41	57352.74
670.76	57349.81
671.109	57430.26
671.459	57428.22
671.808	57315.91
672.157	57406.53
672.507	57264.16
672.856	57281.33
673.205	57271.62
673.554	57364.27
673.904	57278.85
674.253	57425.74
674.602	57301.45
674.951	56940.55
675.3	56873.66
675.649	57341.9
675.998	57233.2
676.346	57168.79
676.695	57315.46
677.044	57129.92
677.393	57175.35
677.741	57287.89
678.09	57248.79
678.438	57182.13
678.787	57235.23
679.135	57242.46
679.484	57040.89
679.832	57167.66
680.181	57124.5
680.529	57065.07
680.877	56919.08
681.225	56981
681.573	57157.72
681.922	57020.55
682.27	56889.03
682.618	56932.19
682.966	56900.55
683.314	56920.89
683.661	56891.96
684.009	56715.92
684.357	56699.88
684.705	56672.76
685.053	56727.9
685.4	56589.83
685.748	56629.6
686.095	56577.17
686.443	56464.86
686.79	56371.07
687.138	56515.03
687.485	56498.3
687.832	56417.17
688.18	56436.84
688.527	56345.31
688.874	56263.73
689.221	56251.76
689.568	56162.49
689.915	56143.96
690.262	56084.08
690.609	56086.56
690.956	56047.24
691.303	56007.69
691.65	55863.74
691.997	55850.41
692.344	55742.84
692.69	55741.71
693.037	55737.19
693.383	55480.93
693.73	55637.31
694.077	55486.8
694.423	55525.45
694.769	55346.69
695.116	55329.75
695.462	55242.06
695.808	55169.3
696.155	55219.69
696.501	55008.62
696.847	55035.74
697.193	54859.02
697.539	54949.19
697.885	54702.87
698.231	54714.17
698.577	54682.08
698.923	54561.86
699.269	54437.11
699.614	54464.01
699.96	54313.28
700.306	54355.31
700.651	54155.31
700.997	54069.44
701.342	54021.31
701.688	54010.46
702.033	53957.35
702.379	53926.39
702.724	53866.51
703.069	53873.06
703.415	53609.79
703.76	53547.87
704.105	53542.9
704.45	53387.42
704.795	53375.45
705.14	53251.83
705.485	53231.95
705.83	53037.15
706.175	53052.29
706.52	53057.26
706.865	52986.76
707.209	52848.68
707.554	52816.82
707.899	52816.37
708.243	52707.89
708.588	52645.75
708.932	52499.09
709.277	52534.11
709.621	52252.76
709.966	52060.23
710.31	52189.72
710.654	51957.41
710.998	52127.34
711.342	52053.9
711.687	51924.86
712.031	51872.21
712.375	51778.88
712.719	51717.19
713.063	51658.43
713.407	51820.91
713.75	51551.09
714.094	51421.83
714.438	51441.26
714.782	51367.14
715.125	51148.61
715.469	51397.65
715.812	51097.77
716.156	50998.79
716.499	51065.45
716.843	50986.58
717.186	50875.4
717.53	50999.46
717.873	51043.3
718.216	50943.65
718.559	50691.9
718.902	50521.06
719.246	50567.39
719.589	50485.81
719.932	50352.48
720.275	50381.85
720.617	50396.09
720.96	50331.01
721.303	50256.66
721.646	50346.15
721.989	50078.81
722.331	50128.53
722.674	50132.82
723.016	50044.23
723.359	49940.06
723.701	49869.78
724.044	49766.05
724.386	49575.32
724.729	49728.99
725.071	49729.89
725.413	49627.52
725.755	49459.17
726.097	49422.78
726.439	49309.79
726.782	49265.05
727.124	49450.13
727.465	49283.35
727.807	49164.71
728.149	49209
728.491	49060.31
728.833	49146.41
729.175	48896.24
729.516	48839.52
729.858	48865.06
730.199	48976.92
730.541	48854.21
730.882	48731.05
731.224	48703.93
731.565	48446.08
731.906	48718.39
732.248	48747.09
732.589	48359.53
732.93	48332.64
733.271	48370.38
733.612	48279.31
733.953	48387.56
734.294	48208.35
734.635	48118.86
734.976	48282.47
735.317	48107.79
735.658	48118.41
735.999	48054.68
736.339	47863.05
736.68	48007.9
737.021	47866.67
737.361	47844.07
737.702	48006.32
738.042	47702.15
738.383	47865.76
738.723	47779.21
739.063	47616.05
739.404	47694.24
739.744	47559.78
740.084	47516.84
740.424	47531.76
740.764	47462.61
741.104	47592.32
741.444	47289.05
741.784	47337.41
742.124	47369.28
742.464	47189.17
742.804	47123.63
743.143	47169.51
743.483	47100.36
743.823	47095.16
744.162	46926.58
744.502	47069.62
744.841	46843.64
745.181	46912.11
745.52	46714.38
745.86	46793.92
746.199	46603.42
746.538	46652.23
746.877	46751.67
747.216	46544.21
747.556	46519.36
747.895	46397.78
748.234	46351.9
748.573	46247.05
748.911	46179.7
749.25	46230.32
749.589	46022.65
749.928	46150.33
750.267	46211.34
750.605	46020.16
750.944	45969.77
751.283	45842.09
751.621	45854.06
751.96	45727.74
752.298	45621.75
752.636	45604.35
752.975	45476.9
753.313	45317.81
753.651	45424.92
753.989	45262.89
754.327	45261.54
754.666	44977.02
