Data from 12-0727_FLMS001491_006.txt Node
Date: Thu Apr 12 17:09:10 BST 2018
User: hsy
Spectrometer: FLMS00149
Trigger mode: 0
Integration Time (sec): 1.000000E-2
Scans to average: 10
Electric dark correction enabled: true
Nonlinearity correction enabled: false
Boxcar width: 0
XAxis mode: Wavelengths
Number of Pixels in Spectrum: 2048
>>>>>Begin Spectral Data<<<<<
341.393	-15.47
341.776	-15.47
342.16	-15.47
342.543	-45.52
342.927	-61.79
343.31	-77.16
343.693	-78.29
344.077	-73.77
344.46	-88.23
344.843	-37.84
345.226	-36.71
345.61	-28.35
345.993	-18.4
346.376	-0.78
346.759	30.63
347.142	32.67
347.525	41.93
347.908	54.14
348.291	74.02
348.674	106.34
349.057	99.79
349.44	132.33
349.823	140.01
350.206	182.72
350.588	273.11
350.971	266.79
351.354	269.5
351.737	294.58
352.119	298.42
352.502	316.5
352.884	330.06
353.267	353.56
353.65	342.49
354.032	354.92
354.414	337.07
354.797	362.6
355.179	372.55
355.562	384.07
355.944	400.57
356.326	386.33
356.709	388.82
357.091	393.34
357.473	402.15
357.855	400.34
358.238	384.75
358.62	393.79
359.002	406.44
359.384	423.17
359.766	370.06
360.148	391.08
360.53	397.63
360.912	401.25
361.294	411.42
361.676	401.25
362.057	411.42
362.439	398.53
362.821	383.39
363.203	387.46
363.584	362.38
363.966	401.25
364.348	389.5
364.729	390.63
365.111	409.61
365.493	402.6
365.874	385.43
366.256	368.48
366.637	370.51
367.019	385.2
367.4	383.85
367.781	367.35
368.163	392.89
368.544	388.59
368.925	393.79
369.306	373.68
369.688	393.11
370.069	376.84
370.45	401.47
370.831	378.87
371.212	364.41
371.593	398.08
371.974	364.19
372.355	390.17
372.736	387.46
373.117	395.6
373.498	372.55
373.879	375.94
374.26	390.17
374.641	383.62
375.021	392.21
375.402	415.03
375.783	409.38
376.163	412.55
376.544	408.03
376.925	407.8
377.305	408.7
377.686	410.96
378.066	408.93
378.447	402.83
378.827	409.16
379.208	416.84
379.588	421.81
379.968	405.54
380.349	420.91
380.729	432.88
381.109	437.18
381.489	425.43
381.87	414.35
382.25	426.78
382.63	417.07
383.01	452.09
383.39	445.99
383.77	427.91
384.15	434.24
384.53	430.62
384.91	466.56
385.29	447.57
385.67	482.83
386.049	461.13
386.429	471.98
386.809	448.25
387.189	497.52
387.568	482.37
387.948	456.84
388.328	457.74
388.707	470.85
389.087	477.85
389.466	492.09
389.846	483.5
390.225	456.84
390.605	482.6
390.984	492.77
391.363	496.39
391.743	531.19
392.122	525.99
392.501	510.85
392.881	524.18
393.26	524.86
393.639	515.37
394.018	552.88
394.397	525.54
394.776	513.33
395.155	554.69
395.534	544.29
395.913	537.29
396.292	536.38
396.671	533.67
397.05	547.01
397.429	539.32
397.808	556.27
398.186	540.45
398.565	570.96
398.944	569.38
399.323	582.26
399.701	572.32
400.08	571.41
400.458	583.61
400.837	591.07
401.215	573.22
401.594	598.53
401.972	593.78
402.351	592.65
402.729	613.44
403.107	621.58
403.486	613.67
403.864	612.54
404.242	611.86
404.62	639.66
404.999	636.95
405.377	620.22
405.755	639.66
406.133	664.74
406.511	650.05
406.889	660.22
407.267	673.33
407.645	682.6
408.023	689.6
408.401	679.88
408.779	710.39
409.156	722.37
409.534	720.33
409.912	731.63
410.29	748.81
410.667	736.15
411.045	734.8
411.422	750.84
411.8	769.37
412.178	789.94
412.555	781.12
412.933	809.6
413.31	798.98
413.687	809.15
414.065	807.56
414.442	803.72
414.819	842.82
415.197	826.32
415.574	883.95
415.951	849.6
416.328	863.61
416.705	874.23
417.082	882.36
417.46	892.31
417.837	899.09
418.214	900.67
418.591	918.52
418.967	913.32
419.344	932.31
419.721	940.22
420.098	939.31
420.475	958.97
420.852	954
421.228	956.71
421.605	969.37
421.982	989.25
422.358	978.63
422.735	993.55
423.111	998.07
423.488	1018.41
423.864	1042.36
424.241	1024.51
424.617	1064.51
424.994	1041.46
425.37	1032.42
425.746	1069.48
426.123	1057.5
426.499	1061.34
426.875	1105.41
427.251	1098.4
427.627	1097.73
428.003	1123.04
428.379	1133.66
428.756	1162.81
429.132	1167.1
429.507	1164.39
429.883	1162.81
430.259	1209.36
430.635	1207.33
431.011	1205.52
431.387	1224.5
431.763	1251.39
432.138	1257.72
432.514	1278.74
432.89	1322.8
433.265	1300.21
433.641	1316.25
434.016	1339.53
434.392	1351.05
434.767	1372.07
435.143	1389.02
435.518	1354.22
435.894	1384.95
436.269	1410.94
436.644	1416.36
437.02	1433.99
437.395	1461.78
437.77	1474.66
438.145	1489.13
438.52	1464.95
438.895	1501.33
439.271	1512.86
439.646	1518.28
440.021	1526.41
440.395	1535.91
440.77	1506.3
441.145	1571.39
441.52	1584.04
441.895	1575.45
442.27	1582.68
442.645	1598.28
443.019	1568.9
443.394	1599.18
443.769	1624.27
444.143	1638.95
444.518	1634.43
444.892	1629.91
445.267	1652.97
445.641	1676.47
446.016	1692.51
446.39	1685.28
446.764	1701.55
447.139	1684.38
447.513	1735.67
447.887	1735
448.262	1724.83
448.636	1749.46
449.01	1782.23
449.384	1795.79
449.758	1820.64
450.132	1813.64
450.506	1811.38
450.88	1857.71
451.254	1820.19
451.628	1907.42
452.002	1882.56
452.376	1923.01
452.75	1945.61
453.123	1956.69
453.497	1962.79
453.871	1987.19
454.244	2025.84
454.618	2030.81
454.992	2088.66
455.365	2079.85
455.739	2105.38
456.112	2122.33
456.486	2157.36
456.859	2193.97
457.232	2180.41
457.606	2205.04
457.979	2227.87
458.352	2307.86
458.725	2308.77
459.099	2353.74
459.472	2362.1
459.845	2407.75
460.218	2426.96
460.591	2450.68
460.964	2467.86
461.337	2505.6
461.71	2556.67
462.083	2609.1
462.456	2611.36
462.829	2612.49
463.201	2656.33
463.574	2657.23
463.947	2699.49
464.32	2708.76
464.692	2739.49
465.065	2791.69
465.438	2809.09
465.81	2852.48
466.183	2874.85
466.555	2953.5
466.928	2965.92
467.3	2958.24
467.672	2986.04
468.045	3077.33
468.417	3079.14
468.789	3077.33
469.161	3120.27
469.534	3165.92
469.906	3239.82
470.278	3272.81
470.65	3314.62
471.022	3352.81
471.394	3393.03
471.766	3429.64
472.138	3506.93
472.51	3581.28
472.882	3609.75
473.253	3669.41
473.625	3685.68
473.997	3784.21
474.369	3800.03
474.74	3853.13
475.112	3903.98
475.484	3969.74
475.855	4088.83
476.227	4045.67
476.598	4186.23
476.97	4288.15
477.341	4346.45
477.713	4423.29
478.084	4450.18
478.455	4594.36
478.827	4614.47
479.198	4789.83
479.569	4820.11
479.94	4923.39
480.311	4975.59
480.682	5073.89
481.053	5210.39
481.424	5280.44
481.795	5369.25
482.166	5546.42
482.537	5551.85
482.908	5703.93
483.279	5752.52
483.65	5934.43
484.021	6052.4
484.391	6114.32
484.762	6256.91
485.133	6356.8
485.503	6446.06
485.874	6647.64
486.244	6774.19
486.615	6919.27
486.985	7057.34
487.356	7165.14
487.726	7277.22
488.097	7498.24
488.467	7608.74
488.837	7804.22
489.207	7883.99
489.578	8134.15
489.948	8279.68
490.318	8457.76
490.688	8560.81
491.058	8794.47
491.428	8942.49
491.798	9034.01
492.168	9314.46
492.538	9485.53
492.908	9699.76
493.278	9918.06
493.648	9996.93
494.017	10244.38
494.387	10417.93
494.757	10665.38
495.126	10794.87
495.496	10959.61
495.866	11205.93
496.235	11391.92
496.605	11655.87
496.974	11808.4
497.344	12092.01
497.713	12320.71
498.082	12511.21
498.452	12680.02
498.821	12954.59
499.19	13139.44
499.559	13390.51
499.928	13585.98
500.298	13787.34
500.667	14044.96
501.036	14226.42
501.405	14571.04
501.774	14698.95
502.143	14992.05
502.512	15194.53
502.88	15448.53
503.249	15625.25
503.618	15858.24
503.987	16157.67
504.356	16394.05
504.724	16728.73
505.093	16827.03
505.462	17076.51
505.83	17325.55
506.199	17666.78
506.567	17986.77
506.936	18108.58
507.304	18556.7
507.672	18654.78
508.041	18884.38
508.409	19215.89
508.777	19452.05
509.145	19801.41
509.514	19883.22
509.882	20165.7
510.25	20341.06
510.618	20725.46
510.986	20822.18
511.354	21231.43
511.722	21503.74
512.09	21745.32
512.458	21890.4
512.826	22155.25
513.193	22331.97
513.561	22587.33
513.929	22870.49
514.297	23222.34
514.664	23371.94
515.032	23599.05
515.4	23807.18
515.767	24048.08
516.135	24268.87
516.502	24295.99
516.869	24808.74
517.237	25032.46
517.604	24962.18
517.972	25515.16
518.339	25728.94
518.706	25866.57
519.073	26126.45
519.44	26145.65
519.808	26764.4
520.175	26818.41
520.542	27187.43
520.909	27286.64
521.276	27567.09
521.643	27858.6
522.009	28194.19
522.376	28501.3
522.743	28595.76
523.11	29071.23
523.477	29285.46
523.843	29429.64
524.21	29912.33
524.577	30204.98
524.943	30389.16
525.31	30504.18
525.676	30912.99
526.043	31160.66
526.409	31345.52
526.776	31667.32
527.142	31978.5
527.508	32166.29
527.874	32490.12
528.241	32602.43
528.607	32796.33
528.973	33242.64
529.339	33214.17
529.705	33719.24
530.071	33804.21
530.437	34127.82
530.803	34356.96
531.169	34620.23
531.535	34642.61
531.901	34993.78
532.267	35039.43
532.632	35327.56
532.998	35613.43
533.364	35821.11
533.73	35912.86
534.095	36248.89
534.461	36179.06
534.826	36529.11
535.192	36622.44
535.557	36902.89
535.923	37059.94
536.288	37119.15
536.653	37366.15
537.019	37319.6
537.384	37541.74
537.749	37760.72
538.114	37906.93
538.479	37937.21
538.845	38051.78
539.21	38198.44
539.575	38476.18
539.94	38547.59
540.305	38748.49
540.67	38715.04
541.034	38863.06
541.399	38971.76
541.764	39050.63
542.129	39296.49
542.494	39440.22
542.858	39695.35
543.223	39553.89
543.587	39911.39
543.952	39830.04
544.316	39967.21
544.681	40072.07
545.045	40247.66
545.41	40324.72
545.774	40571.04
546.138	40461.44
546.503	40682.67
546.867	40789.79
547.231	41016.22
547.595	41213.05
547.959	41293.28
548.324	41411.24
548.688	41449.43
549.052	41648.98
549.416	41629.09
549.779	41806.94
550.143	41864.56
550.507	42225.91
550.871	42446.02
551.235	42303.65
551.599	42707.7
551.962	42828.15
552.326	42853.69
552.689	43003.29
553.053	42847.59
553.417	43165.77
553.78	43531.86
554.143	43639.88
554.507	43874.91
554.87	43938.63
555.234	44264.27
555.597	44007.11
555.96	44436.7
556.323	44633.76
556.686	44699.74
557.05	44857.93
557.413	44985.84
557.776	44986.74
558.139	45382.21
558.502	45495.43
558.865	45361.42
559.228	46004.79
559.59	45993.72
559.953	46070.33
560.316	46501.28
560.679	46531.56
561.041	46794.15
561.404	47024.43
561.767	47260.81
562.129	47167.02
562.492	47634.35
562.854	47682.72
563.217	47752.54
563.579	47911.64
563.941	48271.17
564.304	48423.71
564.666	48687.66
565.028	48732.18
565.39	48901.21
565.753	49051.27
566.115	49216.23
566.477	49428.43
566.839	49521.76
567.201	49903.9
567.563	49828.42
567.925	50031.81
568.287	50124.91
568.648	50339.37
569.01	50444.9
569.372	50781.16
569.734	50699.36
570.095	50969.41
570.457	51157.2
570.819	51227.25
571.18	51323.52
571.542	51443.75
571.903	51613.46
572.265	51749.05
572.626	51883.28
572.987	51836.28
573.349	52130.73
573.71	52234.69
574.071	52377.73
574.432	52508.58
574.794	52749.25
575.155	52717.84
575.516	52782.69
575.877	52970.49
576.238	52935.01
576.599	53068.11
576.96	53277.6
577.32	53305.17
577.681	53413.86
578.042	53539.51
578.403	53554.65
578.763	53629.68
579.124	53666.51
579.485	53892.27
579.845	54022.21
580.206	53910.12
580.566	53959.39
580.927	54048.65
581.287	54208.42
581.648	54186.27
582.008	54436.44
582.368	54365.93
582.728	54416.32
583.089	54432.59
583.449	54533.83
583.809	54521.18
584.169	54661.74
584.529	54687.05
584.889	54837.1
585.249	54680.95
585.609	54713.94
585.969	54946.48
586.329	54877.1
586.688	55035.52
587.048	55092.24
587.408	55028.06
587.768	55003.43
588.127	55122.52
588.487	55114.61
588.846	55382.63
589.206	55172.24
589.565	55277.54
589.925	55395.51
590.284	55374.04
590.643	55394.6
591.003	55526.35
591.362	55658.78
591.721	55570.42
592.08	55666.23
592.44	55769.28
592.799	55784.2
593.158	55840.47
593.517	55774.03
593.876	55959.11
594.235	55930.18
594.593	55968.82
594.952	56105.32
595.311	56088.82
595.67	56147.13
596.029	56296.73
596.387	56350.74
596.746	56376.72
597.104	56271.42
597.463	56303.73
597.822	56497.62
598.18	56456.5
598.538	56507.34
598.897	56705.08
599.255	56503.27
599.613	56935.35
599.972	56846.54
600.33	56899.87
600.688	56842.7
601.046	56874.11
601.404	57043.6
601.762	57070.94
602.12	57108.68
602.478	57184.39
602.836	57203.14
603.194	57124.73
603.552	57232.97
603.91	57245.63
604.268	57371.73
604.625	57366.53
604.983	57537.82
605.341	57427.09
605.698	57626.63
606.056	57756.8
606.413	57653.75
606.771	57805.84
607.128	57816.01
607.485	57820.75
607.843	57824.37
608.2	58036.57
608.557	58128.09
608.914	58054.87
609.272	58198.14
609.629	58269.1
609.986	58322.44
610.343	58285.6
610.7	58534.18
611.057	58487.18
611.414	58416.22
611.771	58579.6
612.127	58637.23
612.484	58736.66
612.841	58716.78
613.198	58685.14
613.554	58684.69
613.911	58885.81
614.267	58910.22
614.624	58926.94
614.98	59027.05
615.337	59198.12
615.693	59031.12
616.05	59182.98
616.406	59229.98
616.762	59251.68
617.118	59241.51
617.475	59230.43
617.831	59421.62
618.187	59429.07
618.543	59467.04
618.899	59591.78
619.255	59555.85
619.611	59513.14
619.967	59690.08
620.323	59687.82
620.678	59611.22
621.034	59656.64
621.39	59652.57
621.746	59688.73
622.101	59943.18
622.457	59691.44
622.812	59904.54
623.168	59893.92
623.523	59860.7
623.879	59951.77
624.234	59768.5
624.589	59924.2
624.945	59881.94
625.3	59983.86
625.655	59993.35
626.01	59973.92
626.365	60011.66
626.72	59971.88
627.075	59975.95
627.43	59979.34
627.785	59964.65
628.14	59995.16
628.495	60012.79
628.85	60043.97
629.205	59977.99
629.559	60093.91
629.914	59916.52
630.269	60019.57
630.623	59880.13
630.978	59924.65
631.332	60025.22
631.687	59963.3
632.041	59972.34
632.396	59903.18
632.75	59829.51
633.104	59933.47
633.459	59821.61
633.813	59809.18
634.167	59793.36
634.521	59777.09
634.875	59880.13
635.229	59754.04
635.583	59705.45
635.937	59645.11
636.291	59668.84
636.645	59679.91
636.999	59544.1
637.352	59626.13
637.706	59530.99
638.06	59615.96
638.413	59465.46
638.767	59460.48
639.121	59468.85
639.474	59375.06
639.828	59382.52
640.181	59355.63
640.534	59455.96
640.888	59294.16
641.241	59217.55
641.594	59291.45
641.947	59392.24
642.301	59296.2
642.654	59229.53
643.007	59178.46
643.36	59236.08
643.713	59088.97
644.066	59238.34
644.419	59081.51
644.771	58892.59
645.124	58579.83
645.477	58498.93
645.83	58474.3
646.182	58432.94
646.535	58404.69
646.888	58476.78
647.24	58432.71
647.593	58501.19
647.945	58390.46
648.298	58237.01
648.65	58169.9
649.002	58110.69
649.355	58091.93
649.707	58083.35
650.059	58021.43
650.411	58374.86
650.763	58402.43
651.115	58832.25
651.467	58655.99
651.819	58667.51
652.171	58620.28
652.523	58553.62
652.875	58538.93
653.227	58450.79
653.578	58633.16
653.93	58519.49
654.282	58424.81
654.633	58420.74
654.985	58398.14
655.337	58407.18
655.688	58378.93
656.039	58475.2
656.391	58212.16
656.742	58288.54
657.094	58278.59
657.445	58304.58
657.796	58305.94
658.147	58192.72
658.498	58249.22
658.849	58259.61
659.2	58166.96
659.551	58166.73
659.902	58269.1
660.253	58103.91
660.604	58137.81
660.955	58029.56
661.306	58157.92
661.656	58087.41
662.007	58081.76
662.358	58091.48
662.708	58086.74
663.059	58014.19
663.409	57898.72
663.76	58020.3
664.11	58022.1
664.461	58025.04
664.811	58030.47
665.161	57999.05
665.511	57870.7
665.862	57956.34
666.212	57946.63
666.562	57996.79
666.912	57931.94
667.262	57816.01
667.612	57849.68
667.962	57909.56
668.312	57854.2
668.662	57984.37
669.011	57903.69
669.361	57933.07
669.711	57958.38
670.06	57802.68
670.41	57724.71
670.76	57828.66
671.109	57908.66
671.459	57874.99
671.808	57750.93
672.157	57830.92
672.507	57675.9
672.856	57712.73
673.205	57759.51
673.554	57862.79
673.904	57774.65
674.253	57840.64
674.602	57708.67
674.951	57395
675.3	57265.06
675.649	57729.68
675.998	57718.38
676.346	57684.71
676.695	57691.04
677.044	57545.28
677.393	57681.77
677.741	57707.08
678.09	57608.78
678.438	57529.69
678.787	57566.07
679.135	57614.88
679.484	57501.21
679.832	57505.28
680.181	57439.97
680.529	57506.86
680.877	57423.48
681.225	57336.92
681.573	57583.47
681.922	57400.2
682.27	57330.37
682.618	57270.26
682.966	57231.62
683.314	57309.35
683.661	57283.59
684.009	57197.27
684.357	57146.65
684.705	57115.69
685.053	57157.95
685.4	56988.46
685.748	56957.73
686.095	56957.73
686.443	56856.26
686.79	56912.08
687.138	56919.99
687.485	56956.37
687.832	56839.99
688.18	56897.61
688.527	56731.97
688.874	56700.33
689.221	56677.96
689.568	56607.9
689.915	56514.35
690.262	56610.39
690.609	56493.33
690.956	56426.67
691.303	56396.84
691.65	56370.85
691.997	56279.1
692.344	56131.08
692.69	56148.93
693.037	56150.74
693.383	55891.09
693.73	56013.34
694.077	55893.8
694.423	55930.18
694.769	55764.54
695.116	55767.7
695.462	55627.59
695.808	55589.17
696.155	55715.72
696.501	55447.03
696.847	55539.23
697.193	55330.65
697.539	55357.77
697.885	55245.68
698.231	55099.7
698.577	55086.81
698.923	55049.98
699.269	54879.81
699.614	54880.04
699.96	54746.48
700.306	54775.41
700.651	54656.54
700.997	54638.92
701.342	54594.17
701.688	54532.03
702.033	54416.78
702.379	54407.74
702.724	54185.6
703.069	54305.59
703.415	54044.58
703.76	54040.51
704.105	54045.71
704.45	53913.29
704.795	53862.44
705.14	53749.22
705.485	53634.88
705.83	53541.54
706.175	53716.68
706.52	53531.15
706.865	53496.12
707.209	53402.56
707.554	53270.14
707.899	53329.57
708.243	53199.63
708.588	53118.5
708.932	53070.6
709.277	53022.91
709.621	52943.82
709.966	52749.93
710.31	52691.62
710.654	52640.78
710.998	52604.85
711.342	52655.69
711.687	52563.04
712.031	52406.88
712.375	52281.01
712.719	52289.15
713.063	52142.26
713.407	52243.05
713.75	52056.39
714.094	52177.74
714.438	51996.5
714.782	51964.18
715.125	51705.89
715.469	51901.14
715.812	51675.83
716.156	51625.44
716.499	51601.71
716.843	51511.77
717.186	51382.28
717.53	51553.57
717.873	51635.61
718.216	51465.89
718.559	51417.76
718.902	51049.18
719.246	51148.39
719.589	51069.29
719.932	50949.52
720.275	50918.34
720.617	50938
720.96	50856.87
721.303	50902.07
721.646	50858.9
721.989	50721.51
722.331	50701.84
722.674	50715.4
723.016	50592.92
723.359	50370.1
723.701	50512.92
724.044	50347.28
724.386	50203.33
724.729	50364.68
725.071	50263.66
725.413	50166.27
725.755	50052.37
726.097	49976.67
726.439	49831.59
726.782	49942.32
727.124	50072.26
727.465	49915.2
727.807	49759.5
728.149	49808.99
728.491	49615.77
728.833	49783.9
729.175	49621.2
729.516	49454.19
729.858	49598.6
730.199	49528.77
730.541	49465.95
730.882	49404.25
731.224	49436.34
731.565	49217.82
731.906	49221.21
732.248	49258.72
732.589	49109.12
732.93	48973.98
733.271	48952.74
733.612	49022.34
733.953	49075.45
734.294	48969.24
734.635	48767.21
734.976	48898.95
735.317	48646.98
735.658	48684.04
735.999	48607.21
736.339	48515.24
736.68	48583.26
737.021	48597.72
737.361	48430.27
737.702	48540.77
738.042	48430.72
738.383	48423.49
738.723	48419.64
739.063	48153.21
739.404	48260.78
739.744	48263.49
740.084	48209.03
740.424	48101.24
740.764	47993.22
741.104	48141.91
741.444	47928.36
741.784	47776.95
742.124	47927.91
742.464	47863.28
742.804	47757.74
743.143	47642.04
743.483	47809.04
743.823	47524.75
744.162	47520.46
744.502	47633.45
744.841	47338.32
745.181	47603.62
745.52	47260.81
745.86	47401.14
746.199	47278.66
746.538	47242.05
746.877	47353.68
747.216	47192.56
747.556	47110.3
747.895	47181.49
748.234	47143.52
748.573	46940.36
748.911	46747.37
749.25	46840.03
749.589	46637.54
749.928	46706.92
750.267	46759.12
750.605	46503.76
750.944	46556.87
751.283	46428.74
751.621	46499.47
751.96	46229.42
752.298	46369.98
752.636	46200.27
752.975	46205.01
753.313	46028.97
753.651	46230.1
753.989	45974.96
