Data from 13-0850_FLMS001491_001.txt Node
Date: Thu Apr 12 17:08:19 BST 2018
User: hsy
Spectrometer: FLMS00149
Trigger mode: 0
Integration Time (sec): 1.000000E-2
Scans to average: 10
Electric dark correction enabled: true
Nonlinearity correction enabled: false
Boxcar width: 0
XAxis mode: Wavelengths
Number of Pixels in Spectrum: 2048
>>>>>Begin Spectral Data<<<<<
341.393	3.66
341.776	3.66
342.16	3.66
342.543	-65.94
342.927	-58.94
343.31	-82.44
343.693	-77.24
344.077	-64.14
344.46	-47.87
344.843	-35.66
345.226	-40.41
345.61	-23.69
345.993	-32.5
346.376	-5.83
346.759	11.12
347.142	26.03
347.525	39.14
347.908	62.41
348.291	89.98
348.674	83.2
349.057	97.89
349.44	112.81
349.823	150.32
350.206	174.05
350.588	230.77
350.971	228.96
351.354	268.51
351.737	275.06
352.119	287.72
352.502	313.71
352.884	314.61
353.267	330.2
353.65	330.88
354.032	336.3
354.414	347.38
354.797	363.87
355.179	365.46
355.562	367.04
355.944	378.79
356.326	380.15
356.709	379.69
357.091	381.05
357.473	401.84
357.855	402.29
358.238	396.42
358.62	400.48
359.002	388.05
359.384	388.96
359.766	383.99
360.148	388.51
360.53	376.3
360.912	373.14
361.294	371.11
361.676	385.79
362.057	388.05
362.439	383.99
362.821	386.7
363.203	378.56
363.584	383.76
363.966	388.73
364.348	370.43
364.729	390.09
365.111	369.07
365.493	386.7
365.874	389.41
366.256	375.4
366.637	376.3
367.019	363.65
367.4	369.3
367.781	366.59
368.163	388.28
368.544	360.94
368.925	360.94
369.306	371.33
369.688	407.26
370.069	371.33
370.45	383.08
370.831	362.52
371.212	367.72
371.593	384.44
371.974	365.68
372.355	379.69
372.736	382.63
373.117	376.76
373.498	357.1
373.879	402.97
374.26	391.9
374.641	385.34
375.021	373.59
375.402	391.22
375.783	422.18
376.163	393.7
376.544	405
376.925	400.48
377.305	402.74
377.686	429.41
378.066	418.11
378.447	412.01
378.827	407.94
379.208	405.23
379.588	397.09
379.968	425.57
380.349	413.36
380.729	409.52
381.109	415.62
381.489	407.72
381.87	436.42
382.25	429.64
382.63	433.93
383.01	439.35
383.39	420.14
383.77	423.53
384.15	418.11
384.53	444.32
384.91	423.53
385.29	466.7
385.67	457.21
386.049	444.1
386.429	470.76
386.809	458.79
387.189	449.3
387.568	466.02
387.948	459.01
388.328	455.4
388.707	465.34
389.087	479.13
389.466	458.56
389.846	460.6
390.225	466.47
390.605	457.66
390.984	467.6
391.363	466.92
391.743	495.62
392.122	507.37
392.501	517.77
392.881	492.68
393.26	492.91
393.639	497.66
394.018	499.46
394.397	498.11
394.776	527.26
395.155	500.37
395.534	524.77
395.913	518.9
396.292	546.47
396.671	522.51
397.05	545.56
397.429	542.85
397.808	548.05
398.186	517.54
398.565	554.38
398.944	576.52
399.323	540.14
399.701	561.16
400.08	589.18
400.458	582.85
400.837	570.87
401.215	563.19
401.594	550.31
401.972	583.53
402.351	584.21
402.729	582.63
403.107	586.69
403.486	583.3
403.864	597.31
404.242	596.18
404.62	593.25
404.999	628.95
405.377	622.62
405.755	617.2
406.133	646.81
406.511	626.24
406.889	631.89
407.267	636.18
407.645	652.91
408.023	672.79
408.401	671.89
408.779	693.81
409.156	715.05
409.534	666.24
409.912	697.2
410.29	725.67
410.667	700.14
411.045	719.12
411.422	726.58
411.8	734.26
412.178	713.24
412.555	727.03
412.933	776.29
413.31	782.62
413.687	789.17
414.065	804.32
414.442	783.3
414.819	801.15
415.197	807.7
415.574	822.17
415.951	829.63
416.328	798.21
416.705	822.39
417.082	848.38
417.46	884.09
417.837	846.12
418.214	842.05
418.591	872.79
418.967	867.59
419.344	875.95
419.721	885.67
420.098	891.32
420.475	905.56
420.852	908.27
421.228	910.98
421.605	922.5
421.982	928.83
422.358	924.54
422.735	938.77
423.111	961.37
423.488	935.61
423.864	967.93
424.241	952.11
424.617	964.31
424.994	983.97
425.37	1015.61
425.746	997.76
426.123	999.79
426.499	1038.89
426.875	1037.53
427.251	1030.52
427.627	1064.65
428.003	1065.78
428.379	1077.53
428.756	1073.91
429.132	1054.7
429.507	1085.66
429.883	1109.17
430.259	1118.21
430.635	1177.64
431.011	1137.87
431.387	1155.04
431.763	1196.4
432.138	1183.29
432.514	1202.72
432.89	1215.83
433.265	1241.59
433.641	1223.06
434.016	1240.46
434.392	1273.91
434.767	1297.18
435.143	1300.57
435.518	1291.08
435.894	1311.87
436.269	1308.03
436.644	1332.66
437.02	1365.88
437.395	1345.54
437.77	1374.24
438.145	1406.33
438.52	1402.94
438.895	1398.88
439.271	1387.58
439.646	1395.26
440.021	1438.65
440.395	1427.8
440.77	1422.38
441.145	1442.49
441.52	1477.29
441.895	1510.29
442.27	1499.21
442.645	1491.08
443.019	1509.83
443.394	1494.47
443.769	1521.58
444.143	1514.58
444.518	1527.23
444.892	1550.51
445.267	1551.19
445.641	1545.54
446.016	1594.8
446.39	1573.79
446.764	1587.57
447.139	1594.58
447.513	1589.61
447.887	1606.1
448.262	1640.45
448.636	1639.1
449.01	1659.89
449.384	1640.68
449.758	1675.03
450.132	1680.45
450.506	1706.21
450.88	1679.55
451.254	1709.15
451.628	1752.76
452.002	1754.57
452.376	1783.05
452.75	1797.51
453.123	1796.38
453.497	1837.96
453.871	1854.91
454.244	1900.78
454.618	1892.2
454.992	1960.89
455.365	1952.08
455.739	1970.39
456.112	1968.13
456.486	1985.53
456.859	2027.11
457.232	2033.66
457.606	2099.87
457.979	2096.71
458.352	2141
458.725	2155.24
459.099	2154.79
459.472	2196.59
459.845	2254.22
460.218	2275.46
460.591	2312.75
460.964	2327.44
461.337	2318.63
461.71	2324.95
462.083	2409.7
462.456	2416.48
462.829	2440.88
463.201	2450.6
463.574	2479.98
463.947	2511.39
464.32	2567.88
464.692	2567.43
465.065	2587.54
465.438	2623.48
465.81	2640.65
466.183	2690.82
466.555	2724.04
466.928	2746.64
467.3	2747.99
467.672	2775.79
468.045	2860.76
468.417	2882.9
468.789	2946.18
469.161	2909.12
469.534	2924.26
469.906	3018.95
470.278	3053.3
470.65	3043.58
471.022	3109.11
471.394	3148.43
471.766	3200.86
472.138	3248.09
472.51	3268.21
472.882	3367.64
473.253	3364.47
473.625	3423.91
473.997	3524.7
474.369	3558.37
474.74	3549.78
475.112	3664.58
475.484	3662.32
475.855	3726.05
476.227	3815.08
476.598	3882.43
476.97	3911.58
477.341	4018.24
477.713	4044.68
478.084	4088.75
478.455	4222.53
478.827	4241.51
479.198	4394.5
479.569	4435.18
479.94	4535.74
480.311	4597.89
480.682	4720.6
481.053	4840.37
481.424	4924.66
481.795	4986.58
482.166	5050.31
482.537	5139.12
482.908	5257.31
483.279	5329.17
483.65	5429.28
484.021	5568.03
484.391	5684.64
484.762	5791.3
485.133	5818.19
485.503	5959.66
485.874	6114.01
486.244	6175.93
486.615	6443.49
486.985	6512.41
487.356	6616.82
487.726	6697.27
488.097	6919.86
488.467	7003.93
488.837	7162.79
489.207	7315.78
489.578	7498.83
489.948	7607.53
490.318	7826.28
490.688	7874.64
491.058	8095.42
491.428	8273.5
491.798	8366.6
492.168	8623.54
492.538	8821.51
492.908	8911.22
493.278	9141.04
493.648	9312.79
494.017	9460.81
494.387	9678.88
494.757	9772.44
495.126	9997.97
495.496	10208.59
495.866	10409.71
496.235	10491.07
496.605	10805.18
496.974	10921.56
497.344	11169.69
497.713	11357.71
498.082	11569.23
498.452	11791.37
498.821	11964.93
499.19	12105.03
499.559	12385.71
499.928	12702.99
500.298	12809.65
500.667	13086.25
501.036	13121.73
501.405	13476.98
501.774	13601.72
502.143	13964.19
502.512	14104.3
502.88	14348.37
503.249	14556.5
503.618	14814.34
503.987	14944.06
504.356	15273.09
504.724	15518.05
505.093	15697.26
505.462	15842.34
505.83	16167.75
506.199	16380.85
506.567	16747.17
506.936	16907.17
507.304	17211.79
507.672	17400.94
508.041	17648.62
508.409	17915.73
508.777	18182.39
509.145	18323.63
509.514	18569.95
509.882	18840.22
510.25	18966.1
510.618	19306.88
510.986	19417.61
511.354	19727.89
511.722	20023.7
512.09	20294.42
512.458	20327.64
512.826	20693.96
513.193	20903.9
513.561	21034.97
513.929	21299.37
514.297	21659.59
514.664	21899.35
515.032	22023.19
515.4	22255.28
515.767	22568.94
516.135	22774.58
516.502	22647.13
516.869	23184.74
517.237	23446.66
517.604	23229.26
517.972	23793.32
518.339	23913.09
518.706	24037.38
519.073	24391.27
519.44	24564.37
519.808	24947.41
520.175	24931.14
520.542	25384.46
520.909	25480.28
521.276	25758.01
521.643	26056.98
522.009	26159.35
522.376	26525.67
522.743	26755.05
523.11	27103.06
523.477	27392.99
523.843	27578.07
524.21	27853.77
524.577	28077.72
524.943	28315.23
525.31	28426.19
525.676	28753.41
526.043	28985.95
526.409	29164.25
526.776	29596.78
527.142	29705.25
527.508	29912.25
527.874	30253.71
528.241	30443.08
528.607	30511.78
528.973	30915.16
529.339	30991.77
529.705	31337.3
530.071	31605.09
530.437	31762.82
530.803	32118.97
531.169	32293.2
531.535	32360.1
531.901	32553.54
532.267	32665.17
532.632	33042.56
532.998	33131.15
533.364	33328.88
533.73	33366.17
534.095	33779.27
534.461	33867.4
534.826	34095.19
535.192	34240.95
535.557	34457.22
535.923	34473.71
536.288	34750.77
536.653	34992.12
537.019	34841.16
537.384	35057.43
537.749	35120.47
538.114	35269.17
538.479	35389.62
538.845	35603.63
539.21	35671.87
539.575	35835.94
539.94	35970.62
540.305	36200.9
540.67	36164.74
541.034	36224.4
541.399	36381.46
541.764	36588.68
542.129	36638.4
542.494	36804.5
542.858	36991.84
543.223	36888.11
543.587	37199.74
543.952	37167.88
544.316	37288.78
544.681	37337.82
545.045	37480.41
545.41	37683.12
545.774	37617.81
546.138	37785.04
546.503	37913.4
546.867	38013.73
547.231	38191.35
547.595	38354.74
547.959	38459.37
548.324	38559.93
548.688	38578.91
549.052	38883.99
549.416	38857.33
549.779	39008.51
550.143	38967.38
550.507	39348.39
550.871	39499.79
551.235	39473.35
551.599	39886.9
551.962	39961.03
552.326	40031.53
552.689	40108.82
553.053	39858.88
553.417	40229.95
553.78	40691.4
554.143	40625.64
554.507	40761.46
554.87	40938.85
555.234	41379.52
555.597	41226.08
555.96	41367.77
556.323	41584.94
556.686	41534.09
557.05	41826.74
557.413	41901.54
557.776	42016.56
558.139	42275.99
558.502	42309.44
558.865	42490.45
559.228	42807.96
559.59	42949.87
559.953	42986.48
560.316	43499.24
560.679	43481.61
561.041	43429.63
561.404	43960.69
561.767	44240.01
562.129	44178.32
562.492	44461.02
562.854	44467.57
563.217	44634.57
563.579	44789.6
563.941	45119.99
564.304	45266.2
564.666	45610.14
565.028	45570.37
565.39	45672.51
565.753	45992.51
566.115	46024.82
566.477	46265.04
566.839	46412.83
567.201	46842.88
567.563	46747.51
567.925	46937.11
568.287	47060.05
568.648	47215.98
569.01	47439.7
569.372	47695.74
569.734	47835.39
570.095	48004.66
570.457	48160.81
570.819	48233.8
571.18	48200.81
571.542	48563.96
571.903	48727.8
572.265	48934.35
572.626	48955.14
572.987	48997.62
573.349	49290.72
573.71	49471.51
574.071	49542.24
574.432	49767.55
574.794	50033.76
575.155	50039.63
575.516	50156.46
575.877	50317.59
576.238	50193.98
576.599	50391.49
576.96	50473.52
577.32	50637.35
577.681	50691.14
578.042	50934.97
578.403	50959.83
578.763	51054.97
579.124	51098.13
579.485	51442.98
579.845	51481.4
580.206	51435.75
580.566	51500.61
580.927	51607.05
581.287	51777.66
581.648	51726.14
582.008	52040.03
582.368	52031.44
582.728	52101.05
583.089	52104.89
583.449	52211.55
583.809	52332.9
584.169	52409.96
584.529	52334.71
584.889	52647.47
585.249	52547.59
585.609	52496.06
585.969	52835.94
586.329	52720.01
586.688	52886.11
587.048	52943.06
587.408	53047.01
587.768	52964.98
588.127	53181.24
588.487	53176.05
588.846	53400.9
589.206	53294.01
589.565	53335.82
589.925	53563.61
590.284	53555.24
590.643	53642.47
591.003	53766.76
591.362	53949.81
591.721	53930.15
592.08	53877.72
592.44	54075.91
592.799	54149.81
593.158	54220.99
593.517	54184.61
593.876	54361.78
594.235	54368.33
594.593	54471.6
594.952	54597.7
595.311	54569.91
595.67	54719.06
596.029	54946.17
596.387	54930.12
596.746	55156.11
597.104	54998.37
597.463	54983.91
597.822	55253.05
598.18	55174.41
598.538	55242.43
598.897	55514.51
599.255	55372.82
599.613	55705.7
599.972	55530.79
600.33	55687.84
600.688	55735.3
601.046	55780.27
601.404	56039.25
601.762	56032.69
602.12	56089.19
602.478	56138.45
602.836	56208.06
603.194	56048.51
603.552	56247.6
603.91	56154.27
604.268	56374.83
604.625	56414.6
604.983	56609.18
605.341	56481.5
605.698	56615.5
606.056	56817.08
606.413	56801.94
606.771	56855.95
607.128	56882.84
607.485	56876.51
607.843	56934.36
608.2	57041.48
608.557	57229.27
608.914	57163.06
609.272	57343.17
609.629	57413.45
609.986	57571.86
610.343	57511.3
610.7	57811.18
611.057	57641.24
611.414	57749.03
611.771	57799.43
612.127	57899.76
612.484	57902.7
612.841	58034.67
613.198	57954.9
613.554	57955.13
613.911	58209.36
614.267	58170.04
614.624	58208
614.98	58279.19
615.337	58446.19
615.693	58416.59
616.05	58519.41
616.406	58554.43
616.762	58551.05
617.118	58577.03
617.475	58553.98
617.831	58724.37
618.187	58708.78
618.543	58787.88
618.899	59033.97
619.255	58897.25
619.611	58946.97
619.967	59069.9
620.323	59133.18
620.678	59058.83
621.034	59102.9
621.39	59121.43
621.746	59102.22
622.101	59413.85
622.457	59193.51
622.812	59315.09
623.168	59320.29
623.523	59336.34
623.879	59405.49
624.234	59237.35
624.589	59373.85
624.945	59320.52
625.3	59401.64
625.655	59438.03
626.01	59396.9
626.365	59450.68
626.72	59415.66
627.075	59386.73
627.43	59460.85
627.785	59471.02
628.14	59479.38
628.495	59457.01
628.85	59506.05
629.205	59439.16
629.559	59559.83
629.914	59444.13
630.269	59464.69
630.623	59378.59
630.978	59319.84
631.332	59488.42
631.687	59477.12
632.041	59424.92
632.396	59428.76
632.75	59353.28
633.104	59441.64
633.459	59320.29
633.813	59292.27
634.167	59333.62
634.521	59293.4
634.875	59300.63
635.229	59246.39
635.583	59162.33
635.937	59149
636.291	59116.23
636.645	59138.83
636.999	59012.05
637.352	59092.73
637.706	58972.28
638.06	59128.88
638.413	58974.08
638.767	58885.5
639.121	59000.07
639.474	58893.64
639.828	58878.04
640.181	58819.51
640.534	58915.78
640.888	58766.63
641.241	58680.76
641.594	58791.94
641.947	58791.49
642.301	58700.42
642.654	58748.78
643.007	58631.95
643.36	58745.39
643.713	58619.07
644.066	58767.54
644.419	58576.81
644.771	58341.33
645.124	57980.21
645.477	58060.89
645.83	57913.55
646.182	57907.67
646.535	57834.68
646.888	57941.34
647.24	57758.3
647.593	57901.8
647.945	57783.83
648.298	57662.48
648.65	57598.53
649.002	57488.02
649.355	57453.67
649.707	57394.47
650.059	57446.22
650.411	57806.43
650.763	57861.8
651.115	58136.82
651.467	58084.62
651.819	58179.98
652.171	58048.46
652.523	57940.67
652.875	58036.26
653.227	57897.73
653.578	58070.38
653.93	57945.64
654.282	57916.26
654.633	57862.02
654.985	57853.89
655.337	57892.76
655.688	57936.6
656.039	57900.67
656.391	57708.13
656.742	57712.42
657.094	57721.69
657.445	57756.72
657.796	57766.21
658.147	57709.71
658.498	57677.85
658.849	57789.03
659.2	57651.41
659.551	57572.99
659.902	57732.76
660.253	57588.13
660.604	57711.29
660.955	57545.2
661.306	57662.48
661.656	57552.43
662.007	57540.45
662.358	57483.5
662.708	57475.37
663.059	57511.07
663.409	57382.71
663.76	57562.37
664.11	57538.87
664.461	57577.96
664.811	57573.9
665.161	57521.69
665.511	57458.19
665.862	57423.62
666.212	57549.26
666.562	57494.58
666.912	57436.5
667.262	57370.96
667.612	57421.36
667.962	57399.89
668.312	57392.66
668.662	57517.85
669.011	57467.91
669.361	57440.79
669.711	57457.97
670.06	57396.27
670.41	57367.12
670.76	57349.72
671.109	57442.37
671.459	57340
671.808	57354.47
672.157	57370.96
672.507	57218.42
672.856	57326.22
673.205	57344.75
673.554	57351.3
673.904	57311.76
674.253	57483.73
674.602	57257.75
674.951	56956.74
675.3	56810.07
675.649	57238.09
675.998	57356.95
676.346	57229.72
676.695	57285.77
677.044	57107.69
677.393	57185.88
677.741	57236.05
678.09	57192.44
678.438	57092.78
678.787	57118.77
679.135	57154.02
679.484	56954.03
679.832	57054.14
680.181	57005.78
680.529	57001.48
680.877	56865.21
681.225	56944.31
681.573	57145.43
681.922	56915.61
682.27	56890.98
682.618	56855.5
682.966	56799.45
683.314	56802.16
683.661	56780.02
684.009	56670.19
684.357	56638.1
684.705	56659.34
685.053	56651.89
685.4	56530.31
685.748	56538.67
686.095	56532.12
686.443	56362.85
686.79	56368.96
687.138	56418.22
687.485	56403.76
687.832	56236.08
688.18	56236.08
688.527	56226.59
688.874	56221.61
689.221	56216.42
689.568	56092.58
689.915	56070.21
690.262	56038.79
690.609	56054.84
690.956	55912.24
691.303	55886.71
691.65	55805.81
691.997	55795.41
692.344	55652.14
692.69	55608.07
693.037	55581.41
693.383	55373.28
693.73	55518.36
694.077	55291.7
694.423	55264.58
694.769	55249.44
695.116	55116.33
695.462	55123.34
695.808	54980.97
696.155	55031.59
696.501	54838.6
696.847	54921.99
697.193	54739.39
697.539	54737.36
697.885	54635.67
698.231	54446.97
698.577	54497.59
698.923	54542.79
699.269	54305.73
699.614	54196.58
699.96	54120.43
700.306	54112.97
700.651	54053.31
700.997	53948.23
701.342	53859.42
701.688	53857.38
702.033	53694.9
702.379	53730.38
702.724	53640.44
703.069	53654.68
703.415	53322.26
703.76	53350.96
704.105	53310.05
704.45	53203.62
704.795	53199.55
705.14	52982.83
705.485	53016.5
705.83	52853.57
706.175	52902.61
706.52	52863.29
706.865	52677.08
707.209	52588.26
707.554	52611.54
707.899	52603.86
708.243	52393.92
708.588	52424.65
708.932	52257.43
709.277	52250.87
709.621	52137.88
709.966	51837.32
710.31	52015.17
710.654	51688.4
710.998	51946.47
711.342	51857.21
711.687	51724.33
712.031	51661.06
712.375	51501.29
712.719	51517.56
713.063	51412.7
713.407	51559.82
713.75	51365.02
714.094	51304.23
714.438	51189.2
714.782	51187.85
715.125	50945.82
715.469	51230.56
715.812	50799.84
716.156	50802.77
716.499	50759.84
716.843	50823.11
717.186	50605.72
717.53	50734.53
717.873	50732.72
718.216	50569.56
718.559	50426.29
718.902	50245.05
719.246	50275.78
719.589	50208.44
719.932	50073.3
720.275	50140.19
720.617	50093.64
720.96	49896.13
721.303	50023.13
721.646	50003.93
721.989	49741.33
722.331	50009.35
722.674	49828.56
723.016	49810.26
723.359	49568.46
723.701	49633.09
724.044	49437.39
724.386	49329.82
724.729	49484.16
725.071	49365.3
725.413	49412.75
725.755	49316.94
726.097	49202.14
726.439	49059.32
726.782	48951.3
727.124	49162.82
727.465	48996.04
727.807	48963.95
728.149	49035.36
728.491	48751.98
728.833	48818.87
729.175	48760.79
729.516	48650.97
729.858	48591.31
730.199	48849.15
730.541	48678.54
730.882	48435.38
731.224	48456.62
731.565	48353.35
731.906	48292.78
732.248	48443.97
732.589	48161.49
732.93	48097.31
733.271	48267.47
733.612	47948.39
733.953	48198.78
734.294	48033.36
734.635	47896.41
734.976	48138.21
735.317	47862.06
735.658	47842.17
735.999	47823.64
736.339	47716.53
736.68	47773.7
737.021	47767.37
737.361	47602.86
737.702	47896.18
738.042	47685.79
738.383	47659.13
738.723	47530.54
739.063	47391.34
739.404	47664.78
739.744	47466.14
740.084	47327.16
740.424	47319.48
740.764	47307.27
741.104	47505.69
741.444	47154.06
741.784	47213.94
742.124	47225.24
742.464	47160.61
742.804	47110.89
743.143	46977.11
743.483	47122.19
743.823	46840.17
744.162	46889.2
744.502	47022.08
744.841	46754.52
745.181	46893.05
745.52	46643.79
745.86	46985.47
746.199	46676.1
746.538	46609.44
746.877	46763.56
747.216	46780.28
747.556	46425.26
747.895	46460.52
748.234	46413.74
748.573	46452.83
748.911	46288.77
749.25	46369.44
749.589	46241.09
749.928	46360.86
750.267	46380.97
750.605	46061.88
750.944	46091.71
751.283	45954.31
751.621	45938.27
751.96	45825.28
752.298	45869.57
752.636	45917.48
752.975	45752.74
753.313	45619.86
753.651	45826.86
753.989	45500.09
754.327	45591.84
754.666	45231.85
