Data from 13-0850_FLMS001491_010.txt Node
Date: Thu Apr 12 17:08:38 BST 2018
User: hsy
Spectrometer: FLMS00149
Trigger mode: 0
Integration Time (sec): 1.000000E-2
Scans to average: 10
Electric dark correction enabled: true
Nonlinearity correction enabled: false
Boxcar width: 0
XAxis mode: Wavelengths
Number of Pixels in Spectrum: 2048
>>>>>Begin Spectral Data<<<<<
341.393	-15.86
341.776	-15.86
342.16	-15.86
342.543	-53.15
342.927	-54.96
343.31	-67.16
343.693	-70.77
344.077	-55.63
344.46	-62.64
344.843	-60.38
345.226	-46.82
345.61	-34.62
345.993	-16.31
346.376	0.86
346.759	-4.79
347.142	37.7
347.525	46.06
347.908	66.85
348.291	57.36
348.674	91.25
349.057	119.05
349.44	143.68
349.823	138.26
350.206	186.17
350.588	225.49
350.971	250.12
351.354	256.45
351.737	272.72
352.119	300.97
352.502	306.16
352.884	338.03
353.267	308.65
353.65	336.9
354.032	341.19
354.414	345.03
354.797	359.04
355.179	359.72
355.562	374.41
355.944	374.64
356.326	363.11
356.709	386.16
357.091	384.58
357.473	381.19
357.855	378.7
358.238	393.17
358.62	387.52
359.002	399.5
359.384	392.94
359.766	388.42
360.148	387.97
360.53	396.11
360.912	425.71
361.294	387.97
361.676	379.61
362.057	383.22
362.439	373.73
362.821	369.44
363.203	389.55
363.584	382.77
363.966	380.51
364.348	377.12
364.729	371.7
365.111	373.28
365.493	367.41
365.874	380.96
366.256	372.6
366.637	350.68
367.019	355.2
367.4	378.7
367.781	358.59
368.163	391.36
368.544	358.14
368.925	370.12
369.306	384.35
369.688	403.56
370.069	383
370.45	379.61
370.831	379.83
371.212	357.24
371.593	383.68
371.974	372.38
372.355	371.7
372.736	386.16
373.117	395.65
373.498	381.42
373.879	402.43
374.26	360.85
374.641	389.33
375.021	399.5
375.402	385.48
375.783	386.16
376.163	414.18
376.544	388.65
376.925	394.75
377.305	416.9
377.686	392.94
378.066	411.92
378.447	388.87
378.827	407.4
379.208	424.13
379.588	409.44
379.968	400.4
380.349	396.11
380.729	413.51
381.109	409.21
381.489	418.25
381.87	419.61
382.25	403.11
382.63	416.22
383.01	444.01
383.39	426.39
383.77	434.52
384.15	427.52
384.53	428.19
384.91	420.74
385.29	455.09
385.67	436.56
386.049	444.01
386.429	446.95
386.809	466.39
387.189	446.05
387.568	456.44
387.948	453.05
388.328	462.54
388.707	460.06
389.087	478.14
389.466	480.17
389.846	448.31
390.225	483.79
390.605	452.15
390.984	510.45
391.363	488.98
391.743	481.98
392.122	483.79
392.501	499.61
392.881	485.37
393.26	497.35
393.639	482.66
394.018	493.73
394.397	514.52
394.776	506.16
395.155	511.58
395.534	524.92
395.913	522.43
396.292	530.34
396.671	523.11
397.05	528.31
397.429	525.37
397.808	520.17
398.186	542.32
398.565	544.8
398.944	552.26
399.323	537.12
399.701	564.69
400.08	535.99
400.458	576.21
400.837	552.94
401.215	555.2
401.594	569.89
401.972	585.03
402.351	579.6
402.729	581.19
403.107	578.47
403.486	585.93
403.864	581.19
404.242	613.27
404.62	604.01
404.999	581.19
405.377	601.98
405.755	617.34
406.133	638.81
406.511	619.15
406.889	632.71
407.267	649.88
407.645	642.43
408.023	662.54
408.401	673.84
408.779	637.45
409.156	686.95
409.534	660.05
409.912	672.03
410.29	709.54
410.667	692.37
411.045	719.03
411.422	730.11
411.8	723.1
412.178	742.54
412.555	747.96
412.933	752.93
413.31	754.74
413.687	755.64
414.065	759.94
414.442	765.36
414.819	802.65
415.197	812.14
415.574	797
415.951	840.84
416.328	808.98
416.705	797.68
417.082	823.44
417.46	819.82
417.837	839.94
418.214	840.39
418.591	863.66
418.967	847.17
419.344	869.54
419.721	865.7
420.098	875.41
420.475	899.37
420.852	869.77
421.228	902.08
421.605	909.76
421.982	900.72
422.358	942.08
422.735	952.93
423.111	941.4
423.488	946.15
423.864	956.32
424.241	970.55
424.617	981.17
424.994	964.23
425.37	953.38
425.746	986.15
426.123	1000.84
426.499	1008.07
426.875	993.38
427.251	1043.55
427.627	1018.91
428.003	1013.49
428.379	1030.66
428.756	1059.82
429.132	1079.25
429.507	1100.49
429.883	1078.8
430.259	1098.46
430.635	1106.14
431.011	1143.66
431.387	1128.06
431.763	1152.47
432.138	1173.03
432.514	1178.91
432.89	1168.06
433.265	1238.57
433.641	1214.84
434.016	1223.43
434.392	1260.04
434.767	1260.94
435.143	1255.52
435.518	1274.73
435.894	1260.04
436.269	1285.12
436.644	1320.37
437.02	1315.4
437.395	1316.76
437.77	1362.86
438.145	1359.92
438.52	1373.71
438.895	1395.4
439.271	1344.78
439.646	1389.98
440.021	1418
440.395	1437.21
440.77	1390.43
441.145	1409.41
441.52	1441.73
441.895	1432.91
442.27	1459.58
442.645	1455.96
443.019	1419.58
443.394	1465.68
443.769	1474.04
444.143	1489.18
444.518	1506.58
444.892	1490.54
445.267	1517.88
445.641	1538.45
446.016	1531.67
446.39	1567.15
446.764	1552.91
447.139	1530.76
447.513	1565.79
447.887	1606.7
448.262	1547.04
448.636	1569.86
449.01	1641.5
449.384	1622.51
449.758	1653.25
450.132	1630.65
450.506	1661.38
450.88	1668.39
451.254	1666.58
451.628	1686.47
452.002	1710.65
452.376	1724.21
452.75	1735.28
453.123	1733.92
453.497	1796.29
453.871	1810.31
454.244	1813.7
454.618	1862.06
454.992	1854.37
455.365	1866.58
455.739	1917.2
456.112	1941.15
456.486	1965.56
456.859	1997.19
457.232	2031.54
457.606	2008.49
457.979	2030.86
458.352	2088.94
458.725	2094.37
459.099	2113.57
459.472	2138.88
459.845	2184.53
460.218	2231.99
460.591	2231.54
460.964	2196.06
461.337	2291.65
461.71	2303.85
462.083	2369.61
462.456	2344.08
462.829	2354.47
463.201	2396.96
463.574	2423.4
463.947	2432.44
464.32	2450.51
464.692	2495.26
465.065	2510.63
465.438	2571.64
465.81	2563.05
466.183	2613
466.555	2616.39
466.928	2681.47
467.3	2676.95
467.672	2716.5
468.045	2738.19
468.417	2758.76
468.789	2804.4
469.161	2816.83
469.534	2837.85
469.906	2946.32
470.278	2897.06
470.65	2976.6
471.022	3045.75
471.394	3083.94
471.766	3072.65
472.138	3137.28
472.51	3195.13
472.882	3219.31
473.253	3239.19
473.625	3321.9
473.997	3399.19
474.369	3425.63
474.74	3459.3
475.112	3568.23
475.484	3586.08
475.855	3668.79
476.227	3691.84
476.598	3796.47
476.97	3792.17
477.341	3892.74
477.713	3953.3
478.084	4004.37
478.455	4108.1
478.827	4177.02
479.198	4297.7
479.569	4321.43
479.94	4416.34
480.311	4459.28
480.682	4598.71
481.053	4683.9
481.424	4748.99
481.795	4807.29
482.166	4882.99
482.537	4959.6
482.908	5112.14
483.279	5196.66
483.65	5320.95
484.021	5414.73
484.391	5523.65
484.762	5532.69
485.133	5686.59
485.503	5830.99
485.874	5963.19
486.244	6018.56
486.615	6175.84
486.985	6276.85
487.356	6449.05
487.726	6508.71
488.097	6712.32
488.467	6853.79
488.837	6953.22
489.207	7080.9
489.578	7280.22
489.948	7415.58
490.318	7519.53
490.688	7608.35
491.058	7864.38
491.428	8079.75
491.798	8179.4
492.168	8395.9
492.538	8597.92
492.908	8716.34
493.278	8953.62
493.648	9026.61
494.017	9211.69
494.387	9429.09
494.757	9512.93
495.126	9691.91
495.496	9857.1
495.866	10093.48
496.235	10265.22
496.605	10466.35
496.974	10555.84
497.344	10790.41
497.713	11017.3
498.082	11211.87
498.452	11440.79
498.821	11642.59
499.19	11792.64
499.559	12101.11
499.928	12237.15
500.298	12440.76
500.667	12780.41
501.036	12896.79
501.405	13063.12
501.774	13277.57
502.143	13550.79
502.512	13807.96
502.88	14089.53
503.249	14131.79
503.618	14467.83
503.987	14606.81
504.356	14902.84
504.724	15060.35
505.093	15290.4
505.462	15524.97
505.83	15600.9
506.199	16055.81
506.567	16338.51
506.936	16480.65
507.304	16786.86
507.672	16915.22
508.041	17158.15
508.409	17459.84
508.777	17686.27
509.145	17922.42
509.514	18095.75
509.882	18365.12
510.25	18515.63
510.618	18779.12
510.986	18860.25
511.354	19201.94
511.722	19544.75
512.09	19759.66
512.458	19689.84
512.826	20140.45
513.193	20222.02
513.561	20466.99
513.929	20732.52
514.297	20931.16
514.664	21149.23
515.032	21327.98
515.4	21674.19
515.767	21849.33
516.135	21858.82
516.502	22006.16
516.869	22529.99
517.237	22610.89
517.604	22653.83
517.972	22997.32
518.339	23253.36
518.706	23378.33
519.073	23533.58
519.44	23788.94
519.808	24129.04
520.175	24170.17
520.542	24564.51
520.909	24720.66
521.276	24855.8
521.643	25289.91
522.009	25391.83
522.376	25596.12
522.743	25775.78
523.11	26126.05
523.477	26413.73
523.843	26534.85
524.21	26999.25
524.577	27231.56
524.943	27420.25
525.31	27524.21
525.676	27921.48
526.043	28178.2
526.409	28236.28
526.776	28744.51
527.142	28822.48
527.508	29046.88
527.874	29367.32
528.241	29407.77
528.607	29579.29
528.973	30010.47
529.339	30045.27
529.705	30469.21
530.071	30675.76
530.437	31026.49
530.803	31166.6
531.169	31249.98
531.535	31525
531.901	31657.2
532.267	31779.01
532.632	32005.67
532.998	32154.59
533.364	32337.86
533.73	32492.44
534.095	32728.14
534.461	32866.21
534.826	33025.53
535.192	33080.9
535.557	33448.8
535.923	33566.53
536.288	33720.2
536.653	33904.6
537.019	33946.18
537.384	34008.33
537.749	34265.27
538.114	34305.04
538.479	34339.39
538.845	34578.03
539.21	34532.16
539.575	34819.83
539.94	34881.07
540.305	35046.95
540.67	35176.21
541.034	35325.81
541.399	35338.92
541.764	35639.7
542.129	35652.35
542.494	35681.28
542.858	35946.36
543.223	35877.66
543.587	36163.53
543.952	36031.1
544.316	36307.93
544.681	36245.56
545.045	36681.93
545.41	36722.38
545.774	36613.68
546.138	36767.35
546.503	36934.35
546.867	37085.54
547.231	37301.8
547.595	37322.82
547.959	37446.43
548.324	37443.94
548.688	37587.9
549.052	37855.23
549.416	37908.11
549.779	37892.52
550.143	37993.76
550.507	38153.76
550.871	38366.63
551.235	38422.68
551.599	38666.96
551.962	38870.57
552.326	38991.93
552.689	39009.33
553.053	38779.95
553.417	39147.4
553.78	39570.22
554.143	39560.05
554.507	39583.55
554.87	39649.54
555.234	39995.52
555.597	39872.13
555.96	40150.99
556.323	40341.27
556.686	40506.24
557.05	40716.85
557.413	40803.4
557.776	40730.64
558.139	41243.84
558.502	41189.61
558.865	41390.51
559.228	41791.85
559.59	41857.16
559.953	42022.81
560.316	42381.44
560.679	42237.27
561.041	42628.22
561.404	42884.71
561.767	43050.58
562.129	43021.2
562.492	43382.32
562.854	43269.55
563.217	43588.19
563.579	43604.91
563.941	43797.45
564.304	44040.38
564.666	44349.07
565.028	44368.51
565.39	44638.56
565.753	44875.84
566.115	44960.13
566.477	45125.32
566.839	45228.6
567.201	45706.1
567.563	45553.56
567.925	45855.48
568.287	45977.28
568.648	46253.2
569.01	46305.41
569.372	46791.27
569.734	46664.72
570.095	46941.77
570.457	47238.49
570.819	47237.81
571.18	47259.51
571.542	47592.15
571.903	47601.87
572.265	47828.08
572.626	47917.12
572.987	48146.71
573.349	48187.84
573.71	48420.15
574.071	48701.5
574.432	48819.92
574.794	48990.99
575.155	49042.06
575.516	49112.56
575.877	49121.83
576.238	49274.59
576.599	49485.21
576.96	49509.84
577.32	49637.97
577.681	49852.88
578.042	49980.56
578.403	50049.49
578.763	50083.16
579.124	50216.04
579.485	50531.28
579.845	50565.63
580.206	50606.99
580.566	50585.29
580.927	50663.71
581.287	50892.63
581.648	50895.79
582.008	51126.07
582.368	51084.04
582.728	51166.97
583.089	51284.26
583.449	51435.67
583.809	51442.45
584.169	51583.01
584.529	51473.18
584.889	51867.75
585.249	51787.52
585.609	51674.76
585.969	51965.37
586.329	51973.05
586.688	52058.93
587.048	52171.24
587.408	52223.67
587.768	52244.23
588.127	52397.22
588.487	52403.78
588.846	52601.06
589.206	52443.32
589.565	52549.08
589.925	52841.96
590.284	52769.42
590.643	52878.12
591.003	53006.02
591.362	53125.79
591.721	53231.33
592.08	53255.05
592.44	53410.53
592.799	53341.38
593.158	53381.83
593.517	53457.08
593.876	53713.8
594.235	53678.77
594.593	53730.97
594.952	53825.66
595.311	53864.08
595.67	53946.11
596.029	54186.56
596.387	54290.73
596.746	54321.92
597.104	54217.74
597.463	54274.01
597.822	54399.88
598.18	54485.53
598.538	54508.35
598.897	54713.1
599.255	54595.36
599.613	55005.29
599.972	54858.63
600.33	55005.07
600.688	54946.08
601.046	55096.59
601.404	55288
601.762	55243.25
602.12	55406.86
602.478	55468.78
602.836	55519.63
603.194	55378.84
603.552	55573.19
603.91	55568.44
604.268	55720.53
604.625	55701.32
604.983	55930.69
605.341	55731.83
605.698	55989.22
606.056	56138.82
606.413	56096.79
606.771	56289.1
607.128	56301.3
607.485	56225.15
607.843	56340.62
608.2	56506.72
608.557	56585.59
608.914	56533.84
609.272	56660.61
609.629	56809.09
609.986	56870.55
610.343	56808.41
610.7	57078
611.057	57045.69
611.414	56972.02
611.771	57221.5
612.127	57273.93
612.484	57285.01
612.841	57401.61
613.198	57349.86
613.554	57304.67
613.911	57484.32
614.267	57553.02
614.624	57515.96
614.98	57645.22
615.337	57854.26
615.693	57776.07
616.05	57817.87
616.406	57982.84
616.762	58013.57
617.118	57951.65
617.475	57996.4
617.831	58162.04
618.187	58154.36
618.543	58205.88
618.899	58274.81
619.255	58347.8
619.611	58248.14
619.967	58467.57
620.323	58411.3
620.678	58368.37
621.034	58425.99
621.39	58449.27
621.746	58432.32
622.101	58707.34
622.457	58465.09
622.812	58722.48
623.168	58804.06
623.523	58725.87
623.879	58793.44
624.234	58693.78
624.589	58837.96
624.945	58809.71
625.3	58838.18
625.655	58842.48
626.01	58828.92
626.365	58894.91
626.72	58851.97
627.075	58750.05
627.43	58917.5
627.785	58950.05
628.14	58856.94
628.495	58851.29
628.85	58903.27
629.205	58841.35
629.559	58939.2
629.914	58868.24
630.269	58877.96
630.623	58765.42
630.978	58734.68
631.332	58952.08
631.687	58893.78
632.041	58882.03
632.396	58819.2
632.75	58755.47
633.104	58784.17
633.459	58718.87
633.813	58710.96
634.167	58668.92
634.521	58727.9
634.875	58701.01
635.229	58651.52
635.583	58515.93
635.937	58560.45
636.291	58468.7
636.645	58569.94
636.999	58433.45
637.352	58467.35
637.706	58334.47
638.06	58489.27
638.413	58446.1
638.767	58310.06
639.121	58417.4
639.474	58237.52
639.828	58280.91
640.181	58279.1
640.534	58242.49
640.888	58201.59
641.241	58074.36
641.594	58145.1
641.947	58178.77
642.301	58110.52
642.654	58151.2
643.007	57946.68
643.36	58140.35
643.713	58098.32
644.066	58134.7
644.419	57977.42
644.771	57662.62
645.124	57465.57
645.477	57393.25
645.83	57336.98
646.182	57330.88
646.535	57206.14
646.888	57275.29
647.24	57198.23
647.593	57327.94
647.945	57213.82
648.298	57148.29
648.65	56979.02
649.002	56925.47
649.355	56862.87
649.707	56806.37
650.059	56924.56
650.411	57221.28
650.763	57268.73
651.115	57640.02
651.467	57556.41
651.819	57522.96
652.171	57468.96
652.523	57407.26
652.875	57487.94
653.227	57318.45
653.578	57558.9
653.93	57464.66
654.282	57249.53
654.633	57267.38
654.985	57356.42
655.337	57361.39
655.688	57308.28
656.039	57355.51
656.391	57088.63
656.742	57179.47
657.094	57202.3
657.445	57205.23
657.796	57193.48
658.147	57136.53
658.498	57162.75
658.849	57183.99
659.2	57151.22
659.551	56990.32
659.902	57215.4
660.253	57039.36
660.604	57097.44
660.955	56936.31
661.306	57131.34
661.656	57013.37
662.007	57065.35
662.358	56920.95
662.708	56958.23
663.059	56949.65
663.409	56838.01
663.76	56920.49
664.11	56998.01
664.461	56956.65
664.811	56920.04
665.161	56911.91
665.511	56892.92
665.862	56862.87
666.212	56926.37
666.562	56952.58
666.912	56928.86
667.262	56707.39
667.612	56874.17
667.962	56808.63
668.312	56769.54
668.662	56953.26
669.011	56847.95
669.361	56768.63
669.711	56784.23
670.06	56773.38
670.41	56713.04
670.76	56709.88
671.109	56816.77
671.459	56734.06
671.808	56635.76
672.157	56695.64
672.507	56605.02
672.856	56604.8
673.205	56630.78
673.554	56749.43
673.904	56628.98
674.253	56856.77
674.602	56624.01
674.951	56351.7
675.3	56152.83
675.649	56658.81
675.998	56594.4
676.346	56636.21
676.695	56569.77
677.044	56523.67
677.393	56567.51
677.741	56572.03
678.09	56540.39
678.438	56448.87
678.787	56544.91
679.135	56535.19
679.484	56356.44
679.832	56461.75
680.181	56428.53
680.529	56372.94
680.877	56257.69
681.225	56267.63
681.573	56480.51
681.922	56274.18
682.27	56228.31
682.618	56282.09
682.966	56258.14
683.314	56146.73
683.661	56184.24
684.009	56084.58
684.357	55923.91
684.705	55911.48
685.053	56038.71
685.4	55892.73
685.748	55880.07
686.095	55904.7
686.443	55760.75
686.79	55744.71
687.138	55882.56
687.485	55806.85
687.832	55780.19
688.18	55746.97
688.527	55616.35
688.874	55595.78
689.221	55622.9
689.568	55388.56
689.915	55468.33
690.262	55435.79
690.609	55349.24
690.956	55314.89
691.303	55237.6
691.65	55153.76
691.997	55162.8
692.344	54949.25
692.69	54945.18
693.037	55039.87
693.383	54799.65
693.73	54871.51
694.077	54789.93
694.423	54780.21
694.769	54634.91
695.116	54615.47
695.462	54575.47
695.808	54546.77
696.155	54523.95
696.501	54262.94
696.847	54368.92
697.193	54128.7
697.539	54197.4
697.885	54000.35
698.231	53948.82
698.577	53946.79
698.923	53957.18
699.269	53747.02
699.614	53635.38
699.96	53608.49
700.306	53644.42
700.651	53466.12
700.997	53307.93
701.342	53348.16
701.688	53324.66
702.033	53213.93
702.379	53145.9
702.724	53003.76
703.069	53048.05
703.415	52840.15
703.76	52800.15
704.105	52752.24
704.45	52566.49
704.795	52504.11
705.14	52429.31
705.485	52449.43
705.83	52229.54
706.175	52375.3
706.52	52182.77
706.865	52143.45
707.209	52032.94
707.554	51987.97
707.899	51973.28
708.243	51795.43
708.588	51810.57
708.932	51651.71
709.277	51623.91
709.621	51472.05
709.966	51351.15
710.31	51480.19
710.654	51164.26
710.998	51224.15
711.342	51278.38
711.687	51186.18
712.031	50957.04
712.375	50837.94
712.719	50818.28
713.063	50880.88
713.407	50965.17
713.75	50707.55
714.094	50730.38
714.438	50557.5
714.782	50500.1
715.125	50387.79
715.469	50557.95
715.812	50193.67
716.156	50039.09
716.499	50019.66
716.843	50129.49
717.186	49912.32
717.53	50095.82
717.873	50118.87
718.216	49974.69
718.559	49856.27
718.902	49615.6
719.246	49695.15
719.589	49546.23
719.932	49375.16
720.275	49481.59
720.617	49503.51
720.96	49281.6
721.303	49342.39
721.646	49251.09
721.989	49041.38
722.331	49181.49
722.674	49087.03
723.016	49043.64
723.359	48891.33
723.701	48945.34
724.044	48975.39
724.386	48551
724.729	48807.49
725.071	48777.21
725.413	48635.74
725.755	48676.19
726.097	48583.54
726.439	48380.83
726.782	48330.66
727.124	48585.35
727.465	48338.57
727.807	48134.96
728.149	48335.64
728.491	48035.76
728.833	48206.6
729.175	48014.29
729.516	47913.95
729.858	47983.78
730.199	47922.31
730.541	48050.67
730.882	47776.78
731.224	47913.5
731.565	47782.2
731.906	47714.86
732.248	47720.74
732.589	47491.82
732.93	47468.77
733.271	47437.58
733.612	47424.93
733.953	47577.46
734.294	47474.64
734.635	47261.99
734.976	47419.95
735.317	47207.76
735.658	47234.65
735.999	47059.06
736.339	47067.87
736.68	47207.76
737.021	47076.91
737.361	46840.76
737.702	47106.74
738.042	46984.71
738.383	46978.16
738.723	47102.22
739.063	46817.26
739.404	46989
739.744	46746.98
740.084	46734.32
740.424	46617.71
740.764	46569.81
741.104	46827.2
741.444	46600.54
741.784	46381.56
742.124	46506.53
742.464	46446.87
742.804	46405.74
743.143	46303.6
743.483	46426.99
743.823	46163.94
744.162	46202.36
744.502	46272.41
744.841	46145.86
745.181	46257.5
745.52	46063.83
745.86	46102.25
746.199	45913.78
746.538	45991.29
746.877	46121.23
747.216	46081.01
747.556	45871.07
747.895	45970.95
748.234	45804.85
748.573	45636.05
748.911	45639.44
749.25	45718.3
749.589	45470.63
749.928	45697.74
750.267	45690.73
750.605	45488.48
750.944	45460.01
751.283	45304.98
751.621	45428.82
751.96	45109.28
752.298	45254.36
752.636	45244.87
752.975	44997.87
753.313	44930.98
753.651	45130.75
753.989	44829.29
754.327	44808.72
754.666	44570.54
