Data from 13-0850_FLMS001491_003.txt Node
Date: Thu Apr 12 17:08:23 BST 2018
User: hsy
Spectrometer: FLMS00149
Trigger mode: 0
Integration Time (sec): 1.000000E-2
Scans to average: 10
Electric dark correction enabled: true
Nonlinearity correction enabled: false
Boxcar width: 0
XAxis mode: Wavelengths
Number of Pixels in Spectrum: 2048
>>>>>Begin Spectral Data<<<<<
341.393	-1.6
341.776	-1.6
342.16	-1.6
342.543	-59
342.927	-63.52
343.31	-79.56
343.693	-51.54
344.077	-63.06
344.46	-56.74
344.843	-33.46
345.226	-58.77
345.61	-14.25
345.993	-36.17
346.376	-16.74
346.759	15.35
347.142	2.25
347.525	35.47
347.908	83.6
348.291	78.18
348.674	83.83
349.057	111.62
349.44	124.73
349.823	121.11
350.206	169.92
350.588	200.21
350.971	251.96
351.354	237.72
351.737	287.21
352.119	272.97
352.502	312.52
352.884	305.06
353.267	314.33
353.65	349.81
354.032	353.2
354.414	350.03
354.797	350.94
355.179	368.34
355.562	374.89
355.944	361.11
356.326	373.54
356.709	372.18
357.091	381.67
357.473	403.37
357.855	402.01
358.238	377.83
358.62	380.77
359.002	392.97
359.384	407.66
359.766	391.16
360.148	376.93
360.53	380.09
360.912	383.7
361.294	371.05
361.676	370.15
362.057	396.36
362.439	406.75
362.821	367.66
363.203	387.32
363.584	367.89
363.966	382.57
364.348	351.16
364.729	360.65
365.111	360.88
365.493	377.83
365.874	374.89
366.256	380.31
366.637	358.39
367.019	379.41
367.4	373.54
367.781	364.95
368.163	382.12
368.544	361.11
368.925	374.44
369.306	374.67
369.688	369.02
370.069	375.8
370.45	364.95
370.831	371.73
371.212	385.96
371.593	385.29
371.974	370.82
372.355	374.44
372.736	392.07
373.117	383.48
373.498	368.56
373.879	375.8
374.26	375.12
374.641	378.51
375.021	381.67
375.402	385.74
375.783	390.26
376.163	418.51
376.544	423.25
376.925	395.91
377.305	395.68
377.686	410.37
378.066	408.11
378.447	408.34
378.827	396.81
379.208	394.33
379.588	423.48
379.968	418.73
380.349	416.47
380.729	406.3
381.109	400.65
381.489	420.54
381.87	427.32
382.25	417.83
382.63	409.47
383.01	437.26
383.39	431.39
383.77	451.95
384.15	438.17
384.53	425.29
384.91	439.52
385.29	448.34
385.67	455.57
386.049	471.39
386.429	433.65
386.809	458.96
387.189	474.32
387.568	465.51
387.948	444.27
388.328	460.99
388.707	464.83
389.087	466.64
389.466	469.8
389.846	482.01
390.225	462.35
390.605	486.07
390.984	493.98
391.363	468.9
391.743	473.87
392.122	495.57
392.501	513.64
392.881	506.19
393.26	497.15
393.639	508.45
394.018	486.07
394.397	516.13
394.776	515.68
395.155	531.5
395.534	515.68
395.913	527.43
396.292	538.28
396.671	538.73
397.05	532.85
397.429	530.59
397.808	537.37
398.186	533.98
398.565	559.07
398.944	563.81
399.323	572.17
399.701	539.63
400.08	559.29
400.458	548.22
400.837	572.4
401.215	565.85
401.594	574.89
401.972	587.09
402.351	574.43
402.729	571.04
403.107	596.35
403.486	601.1
403.864	579.18
404.242	589.12
404.62	584.6
404.999	621.66
405.377	622.57
405.755	593.19
406.133	637.94
406.511	652.62
406.889	654.21
407.267	670.7
407.645	658.95
408.023	656.92
408.401	658.27
408.779	681.32
409.156	684.26
409.534	677.93
409.912	706.18
410.29	686.07
410.667	708.44
411.045	734.88
411.422	721.77
411.8	745.95
412.178	742.34
412.555	726.07
412.933	768.78
413.31	786.63
413.687	773.98
414.065	766.75
414.442	789.8
414.819	797.71
415.197	778.5
415.574	793.64
415.951	819.63
416.328	838.16
416.705	815.78
417.082	840.19
417.46	879.51
417.837	840.19
418.214	881.09
418.591	858.04
418.967	875.44
419.344	865.5
419.721	915.44
420.098	914.54
420.475	920.19
420.852	908.44
421.228	930.58
421.605	932.16
421.982	930.36
422.358	932.39
422.735	944.82
423.111	926.97
423.488	942.56
423.864	962.67
424.241	987.98
424.617	995.44
424.994	992.73
425.37	1006.06
425.746	1002.9
426.123	1008.55
426.499	1028.66
426.875	1028.66
427.251	1040.64
427.627	1081.09
428.003	1083.12
428.379	1078.38
428.756	1099.84
429.132	1123.57
429.507	1110.47
429.883	1122.67
430.259	1151.14
430.635	1145.94
431.011	1163.12
431.387	1195.43
431.763	1202.67
432.138	1190.01
432.514	1205.15
432.89	1218.26
433.265	1262.33
433.641	1272.49
434.016	1261.42
434.392	1300.06
434.767	1302.78
435.143	1299.61
435.518	1336.67
435.894	1345.71
436.269	1333.74
436.644	1353.17
437.02	1368.99
437.395	1383
437.77	1404.47
438.145	1418.71
438.52	1401.3
438.895	1444.02
439.271	1451.7
439.646	1459.16
440.021	1466.61
440.395	1451.7
440.77	1430.91
441.145	1486.5
441.52	1496.22
441.895	1487.18
442.27	1477.91
442.645	1500.06
443.019	1510.68
443.394	1528.99
443.769	1525.6
444.143	1535.99
444.518	1567.4
444.892	1579.61
445.267	1585.93
445.641	1552.71
446.016	1592.26
446.39	1609.66
446.764	1613.5
447.139	1631.13
447.513	1622.32
447.887	1628.19
448.262	1665.7
448.636	1693.27
449.01	1641.52
449.384	1677.46
449.758	1705.7
450.132	1712.94
450.506	1717.23
450.88	1754.52
451.254	1763.78
451.628	1772.37
452.002	1768.07
452.376	1805.36
452.75	1821.63
453.123	1843.1
453.497	1864.34
453.871	1883.33
454.244	1891.24
454.618	1946.6
454.992	1933.04
455.365	1964
455.739	1990.67
456.112	1991.35
456.486	2021.18
456.859	2055.75
457.232	2074.06
457.606	2118.57
457.979	2146.82
458.352	2170.55
458.725	2169.65
459.099	2221.62
459.472	2233.6
459.845	2274.95
460.218	2269.98
460.591	2289.87
460.964	2313.82
461.337	2375.74
461.71	2377.32
462.083	2442.86
462.456	2448.74
462.829	2484.67
463.201	2502.74
463.574	2519.47
463.947	2539.58
464.32	2567.83
464.692	2587.49
465.065	2630.2
465.438	2699.8
465.81	2679.69
466.183	2743.87
466.555	2750.2
466.928	2786.13
467.3	2769.63
467.672	2827.93
468.045	2887.82
468.417	2902.28
468.789	2940.47
469.161	2957.42
469.534	2982.73
469.906	3045.33
470.278	3069.74
470.65	3077.87
471.022	3156.97
471.394	3201.26
471.766	3236.51
472.138	3255.04
472.51	3347.47
472.882	3363.97
473.253	3460.69
473.625	3456.39
473.997	3539.55
474.369	3533.45
474.74	3645.99
475.112	3640.57
475.484	3718.08
475.855	3804.86
476.227	3873.56
476.598	3901.35
476.97	3956.27
477.341	4052.53
477.713	4114.45
478.084	4180.89
478.455	4234.45
478.827	4279.65
479.198	4473.77
479.569	4466.08
479.94	4603.03
480.311	4673.99
480.682	4789.01
481.053	4805.51
481.424	4937.03
481.795	5012.96
482.166	5127.53
482.537	5214.99
482.908	5339.51
483.279	5416.79
483.65	5520.74
484.021	5626.96
484.391	5735.88
484.762	5815.88
485.133	5950.79
485.503	5968.87
485.874	6158.47
486.244	6328.63
486.615	6477.56
486.985	6530.44
487.356	6677.1
487.726	6733.82
488.097	7008.16
488.467	7088.84
488.837	7273.01
489.207	7391.66
489.578	7546.68
489.948	7668.94
490.318	7903.05
490.688	7913.68
491.058	8155.25
491.428	8337.17
491.798	8500.55
492.168	8713.2
492.538	8808.12
492.908	8964.04
493.278	9175.79
493.648	9300.98
494.017	9541.2
494.387	9706.17
494.757	9843.34
495.126	10091.25
495.496	10255.76
495.866	10441.97
496.235	10651.23
496.605	10881.28
496.974	10992.47
497.344	11238.11
497.713	11409.63
498.082	11655.05
498.452	11796.74
498.821	11976.39
499.19	12217.74
499.559	12468.36
499.928	12631.97
500.298	12830.38
500.667	13151.05
501.036	13221.79
501.405	13574.32
501.774	13637.59
502.143	13962.78
502.512	14188.09
502.88	14533.16
503.249	14547.63
503.618	14774.51
503.987	15096.09
504.356	15339.92
504.724	15539.69
505.093	15735.84
505.462	15992.79
505.83	16192.78
506.199	16429.61
506.567	16809.26
506.936	16921.35
507.304	17225.07
507.672	17569.02
508.041	17656.92
508.409	17926.29
508.777	18187.98
509.145	18533.51
509.514	18537.58
509.882	18848.76
510.25	19115.42
510.618	19321.29
510.986	19493.71
511.354	19743.87
511.722	20020.7
512.09	20239.45
512.458	20400.13
512.826	20640.12
513.193	20901.58
513.561	21048.47
513.929	21322.14
514.297	21659.3
514.664	21939.3
515.032	22028.56
515.4	22232.85
515.767	22531.6
516.135	22661.08
516.502	22708.54
516.869	23127.97
517.237	23356.66
517.604	23246.83
517.972	23868.06
518.339	23908.06
518.706	24162.29
519.073	24244.55
519.44	24556.63
519.808	24858.54
520.175	25016.05
520.542	25264.18
520.909	25497.62
521.276	25663.27
521.643	26049.92
522.009	26262.57
522.376	26495.11
522.743	26710.02
523.11	27093.74
523.477	27383.9
523.843	27471.81
524.21	27889.42
524.577	28090.55
524.943	28291.67
525.31	28355.62
525.676	28794.03
526.043	29015.27
526.409	29173.23
526.776	29513.33
527.142	29673.1
527.508	29953.77
527.874	30183.15
528.241	30385.85
528.607	30625.62
528.973	30994.65
529.339	30975.22
529.705	31439.16
530.071	31550.34
530.437	31794.86
530.803	32084.57
531.169	32187.84
531.535	32315.07
531.901	32392.35
532.267	32802.74
532.632	32981.72
532.998	33022.62
533.364	33200.92
533.73	33365.89
534.095	33763.84
534.461	33784.63
534.826	33931.75
535.192	34003.61
535.557	34505.97
535.923	34367.67
536.288	34590.49
536.653	34809.01
537.019	34779.18
537.384	34971.95
537.749	35188.89
538.114	35292.62
538.479	35334.2
538.845	35500.3
539.21	35446.74
539.575	35634.53
539.94	35895.31
540.305	36104.35
540.67	36119.94
541.034	36325.36
541.399	36255.08
541.764	36527.16
542.129	36480.16
542.494	36691.9
542.858	36820.49
543.223	36721.73
543.587	37141.83
543.952	37119.01
544.316	37260.02
544.681	37225.22
545.045	37441.71
545.41	37573.01
545.774	37597.64
546.138	37621.82
546.503	37832.66
546.867	37861.82
547.231	38309.26
547.595	38319.43
547.959	38338.19
548.324	38504.06
548.688	38688.46
549.052	38732.98
549.416	38808.46
549.779	38790.15
550.143	39056.59
550.507	39242.34
550.871	39313.08
551.235	39301.1
551.599	39754.87
551.962	39920.29
552.326	39920.07
552.689	40137.69
553.053	39897.92
553.417	40143.56
553.78	40551.91
554.143	40432.37
554.507	40630.33
554.87	40868.06
555.234	41198.22
555.597	40829.42
555.96	41080.26
556.323	41449.52
556.686	41419.91
557.05	41777.42
557.413	41783.75
557.776	41967.47
558.139	42254.47
558.502	42301.47
558.865	42396.39
559.228	42748.47
559.59	42772.87
559.953	42874.34
560.316	43402.23
560.679	43482.46
561.041	43538.73
561.404	43876.35
561.767	44019.62
562.129	44041.31
562.492	44366.95
562.854	44437.69
563.217	44495.99
563.579	44711.58
563.941	44878.81
564.304	45138.91
564.666	45403.99
565.028	45389.07
565.39	45448.73
565.753	45852.34
566.115	45998.78
566.477	46189.51
566.839	46263.4
567.201	46621.81
567.563	46550.4
567.925	46797.85
568.287	46951.97
568.648	47113.55
569.01	47275.35
569.372	47606.19
569.734	47720.77
570.095	47885.96
570.457	48120.75
570.819	48066.74
571.18	48289.11
571.542	48490.01
571.903	48521.87
572.265	48765.26
572.626	48971.58
572.987	48947.63
573.349	49324.79
573.71	49305.58
574.071	49560.94
574.432	49631.9
574.794	49960.25
575.155	49881.61
575.516	49919.58
575.877	50038.9
576.238	50179.01
576.599	50289.51
576.96	50391.43
577.32	50508.94
577.681	50536.96
578.042	50735.15
578.403	50716.39
578.763	50884.98
579.124	51008.59
579.485	51158.19
579.845	51355.7
580.206	51337.39
580.566	51352.76
580.927	51444.73
581.287	51664.84
581.648	51540.55
582.008	51855.12
582.368	51772.64
582.728	51936.25
583.089	51997.26
583.449	52012.18
583.809	52133.53
584.169	52336.01
584.529	52260.76
584.889	52613.07
585.249	52312.06
585.609	52333.53
585.969	52699.62
586.329	52574.65
586.688	52842.21
587.048	52833.17
587.408	52782.33
587.768	52887.63
588.127	52980.29
588.487	53095.54
588.846	53296.89
589.206	53086.5
589.565	53230.68
589.925	53464.57
590.284	53465.7
590.643	53584.11
591.003	53621.63
591.362	53832.92
591.721	53871.56
592.08	53782.53
592.44	54072.01
592.799	54063.42
593.158	54090.54
593.517	54078.79
593.876	54262.06
594.235	54328.27
594.593	54289.63
594.952	54458.67
595.311	54417.09
595.67	54590.64
596.029	54823.86
596.387	54849.84
596.746	55008.71
597.104	54820.47
597.463	54922.16
597.822	55161.25
598.18	55060.46
598.538	55095.71
598.897	55356.72
599.255	55189.5
599.613	55596.94
599.972	55410.28
600.33	55544.06
600.688	55500.45
601.046	55611.18
601.404	55789.93
601.762	55784.73
602.12	55914.22
602.478	55933.88
602.836	56044.39
603.194	55897.73
603.552	56017.72
603.91	56005.52
604.268	56164.38
604.625	56132.97
604.983	56334.32
605.341	56273.53
605.698	56506.52
606.056	56645.95
606.413	56549.23
606.771	56669.68
607.128	56779.96
607.485	56680.76
607.843	56786.29
608.2	56916
608.557	57007.75
608.914	57008.2
609.272	57161.19
609.629	57248.42
609.986	57323.68
610.343	57238.25
610.7	57495.88
611.057	57485.03
611.414	57485.48
611.771	57652.48
612.127	57729.32
612.484	57720.28
612.841	57874.62
613.198	57779.71
613.554	57736.32
613.911	57920.27
614.267	57907.84
614.624	57955.3
614.98	58044.11
615.337	58181.73
615.693	58199.36
616.05	58265.8
616.406	58306.25
616.762	58329.98
617.118	58360.94
617.475	58329.3
617.831	58448.84
618.187	58524.1
618.543	58590.99
618.899	58676.18
619.255	58655.39
619.611	58699.91
619.967	58867.14
620.323	58837.31
620.678	58832.79
621.034	58807.48
621.39	58833.69
621.746	58875.05
622.101	59099.45
622.457	58928.61
622.812	59083.4
623.168	59080.69
623.523	59067.59
623.879	59177.19
624.234	59043.41
624.589	59174.25
624.945	59212.44
625.3	59266
625.655	59233
626.01	59301.25
626.365	59290.4
626.72	59179.22
627.075	59142.84
627.43	59209.95
627.785	59214.25
628.14	59181.71
628.495	59227.58
628.85	59310.29
629.205	59204.53
629.559	59318.65
629.914	59284.08
630.269	59293.12
630.623	59166.57
630.978	59087.7
631.332	59284.3
631.687	59197.98
632.041	59174.02
632.396	59242.5
632.75	59177.41
633.104	59199.33
633.459	59096.51
633.813	59121.14
634.167	59126.79
634.521	59067.59
634.875	59099
635.229	59022.84
635.583	58918.21
635.937	58907.59
636.291	58956.85
636.645	58917.31
636.999	58832.34
637.352	58857.65
637.706	58702.4
638.06	58885.9
638.413	58835.5
638.767	58668.73
639.121	58779.46
639.474	58593.7
639.828	58619.69
640.181	58622.63
640.534	58691.78
640.888	58529.29
641.241	58500.82
641.594	58501.95
641.947	58567.94
642.301	58446.58
642.654	58551.89
643.007	58387.83
643.36	58543.53
643.713	58386.7
644.066	58522.06
644.419	58409.98
644.771	58078.46
645.124	57834.4
645.477	57846.6
645.83	57705.14
646.182	57723.89
646.535	57604.35
646.888	57703.78
647.24	57668.3
647.593	57744.46
647.945	57640.28
648.298	57513.73
648.65	57447.29
649.002	57284.81
649.355	57394.86
649.707	57244.58
650.059	57271.47
650.411	57599.38
650.763	57701.97
651.115	58087.5
651.467	57946.03
651.819	57927.73
652.171	57836.66
652.523	57758.24
652.875	57773.38
653.227	57710.56
653.578	57892.02
653.93	57857
654.282	57636.21
654.633	57626.72
654.985	57713.95
655.337	57699.03
655.688	57659.49
656.039	57795.75
656.391	57409.55
656.742	57570.45
657.094	57545.37
657.445	57598.92
657.796	57572.71
658.147	57558.7
658.498	57513.73
658.849	57580.84
659.2	57446.38
659.551	57382.88
659.902	57541.3
660.253	57351.25
660.604	57420.4
660.955	57297.24
661.306	57363.22
661.656	57203.23
662.007	57324.13
662.358	57329.78
662.708	57349.89
663.059	57249.33
663.409	57091.82
663.76	57298.59
664.11	57306.5
664.461	57315.31
664.811	57286.84
665.161	57289.1
665.511	57206.84
665.862	57218.82
666.212	57284.36
666.562	57273.28
666.912	57192.61
667.262	57136.11
667.612	57188.54
667.962	57179.5
668.312	57060.86
668.662	57248.88
669.011	57170.91
669.361	57139.73
669.711	57160.52
670.06	57080.29
670.41	57047.98
670.76	57049.79
671.109	57181.31
671.459	57099.95
671.808	57049.79
672.157	57144.7
672.507	56916.68
672.856	56911.94
673.205	57061.31
673.554	57092.72
673.904	56936.34
674.253	57100.18
674.602	57041.42
674.951	56631.49
675.3	56526.41
675.649	56988.54
675.998	56943.57
676.346	56939.96
676.695	56983.12
677.044	56807.98
677.393	56936.34
677.741	56936.79
678.09	56903.12
678.438	56801.43
678.787	56846.4
679.135	56912.16
679.484	56760.3
679.832	56806.85
680.181	56734.77
680.529	56742.22
680.877	56655.22
681.225	56652.96
681.573	56814.99
681.922	56625.16
682.27	56506.52
682.618	56617.25
682.966	56542.23
683.314	56549.69
683.661	56534.54
684.009	56396.02
684.357	56408.67
684.705	56327.32
685.053	56372.51
685.4	56269.24
685.748	56276.92
686.095	56267.88
686.443	56054.78
686.79	56069.7
687.138	56168.68
687.485	56124.16
687.832	56036.48
688.18	56027.67
688.527	55942.47
688.874	55968.01
689.221	55822.47
689.568	55830.38
689.915	55731.63
690.262	55767.11
690.609	55700.67
690.956	55676.26
691.303	55610.95
691.65	55523.95
691.997	55422.48
692.344	55361.69
692.69	55306.78
693.037	55341.81
693.383	55074.7
693.73	55184.07
694.077	54977.98
694.423	55045.32
694.769	54980.24
695.116	54922.38
695.462	54757.87
695.808	54673.58
696.155	54859.79
696.501	54565.33
696.847	54692.11
697.193	54446.24
697.539	54524.88
697.885	54309.52
698.231	54175.51
698.577	54233.59
698.923	54199.24
699.269	53996.98
699.614	54004.89
699.96	53872.02
700.306	53896.42
700.651	53768.52
700.997	53714.51
701.342	53563.78
701.688	53602.42
702.033	53425.25
702.379	53410.33
702.724	53267.51
703.069	53405.36
703.415	53105.48
703.76	53090.12
704.105	53070
704.45	52915.88
704.795	52852.16
705.14	52747.53
705.485	52762.89
705.83	52476.57
706.175	52639.96
706.52	52519.06
706.865	52414.65
707.209	52412.85
707.554	52290.81
707.899	52209.69
708.243	52087.43
708.588	52074.55
708.932	51894.89
709.277	52018.05
709.621	51794.1
709.966	51693.09
710.31	51653.99
710.654	51491.29
710.998	51602.24
711.342	51583.71
711.687	51434.34
712.031	51342.36
712.375	51230.73
712.719	51226.21
713.063	51157.06
713.407	51225.08
713.75	51032.54
714.094	50979.44
714.438	50854.02
714.782	50778.76
715.125	50627.58
715.469	50786.45
715.812	50501.93
716.156	50524.31
716.499	50531.99
716.843	50589.39
717.186	50363.86
717.53	50489.51
717.873	50442.5
718.216	50269.62
718.559	50137.65
718.902	49881.61
719.246	49971.78
719.589	49908.96
719.932	49680.71
720.275	49799.81
720.617	49845.68
720.96	49650.21
721.303	49715.29
721.646	49769.3
721.989	49503.54
722.331	49534.05
722.674	49525.01
723.016	49411.12
723.359	49266.04
723.701	49194.62
724.044	49218.8
724.386	49069.88
724.729	49202.53
725.071	49107.62
725.413	49080.96
725.755	48957.79
726.097	48697.91
726.439	48731.13
726.782	48659.27
727.124	48882.99
727.465	48666.28
727.807	48645.94
728.149	48534.08
728.491	48458.82
728.833	48468.99
729.175	48372.73
729.516	48356.23
729.858	48398.49
730.199	48474.19
730.541	48283.91
730.882	48190.13
731.224	48205.95
731.565	48056.12
731.906	48092.51
732.248	48098.16
732.589	47819.52
732.93	47847.77
733.271	47869.46
733.612	47824.27
733.953	47902.23
734.294	47669.24
734.635	47655.68
734.976	47767.77
735.317	47576.14
735.658	47668.56
735.999	47447.55
736.339	47498.4
736.68	47435.8
737.021	47437.16
737.361	47327.78
737.702	47551.28
738.042	47246.43
738.383	47337.27
738.723	47327.56
739.063	47220.67
739.404	47291.17
739.744	47153.55
740.084	46964.63
740.424	47080.33
740.764	47068.8
741.104	47202.36
741.444	46742.71
741.784	46833.78
742.124	46877.62
742.464	46835.82
742.804	46832.88
743.143	46502.27
743.483	46677.18
743.823	46535.94
744.162	46647.57
744.502	46582.04
744.841	46459.33
745.181	46575.94
745.52	46377.75
745.86	46472.66
746.199	46360.57
746.538	46248.04
746.877	46362.38
747.216	46462.27
747.556	46109.06
747.895	46227.02
748.234	46218.43
748.573	46045.1
748.911	45946.12
749.25	45969.17
749.589	45727.15
749.928	45962.39
750.267	45861.6
750.605	45745.22
750.944	45745.9
751.283	45543.42
751.621	45812.11
751.96	45525.57
752.298	45434.72
752.636	45504.78
752.975	45492.8
753.313	45196.54
753.651	45483.08
753.989	45100.49
754.327	45217.55
754.666	44869.54
