Data from 13-0850_FLMS001491_008.txt Node
Date: Thu Apr 12 17:08:34 BST 2018
User: hsy
Spectrometer: FLMS00149
Trigger mode: 0
Integration Time (sec): 1.000000E-2
Scans to average: 10
Electric dark correction enabled: true
Nonlinearity correction enabled: false
Boxcar width: 0
XAxis mode: Wavelengths
Number of Pixels in Spectrum: 2048
>>>>>Begin Spectral Data<<<<<
341.393	-15.65
341.776	-15.65
342.16	-15.65
342.543	-68.53
342.927	-59.49
343.31	-52.03
343.693	-72.37
344.077	-68.08
344.46	-69.21
344.843	-59.26
345.226	-53.61
345.61	-35.76
345.993	-23.56
346.376	10.79
346.759	15.99
347.142	37.68
347.525	21.41
347.908	63.9
348.291	84.24
348.674	93.27
349.057	106.61
349.44	124.46
349.823	138.7
350.206	171.92
350.588	230.67
350.971	254.17
351.354	260.73
351.737	269.99
352.119	297.34
352.502	302.08
352.884	300.73
353.267	318.81
353.65	317.9
354.032	320.16
354.414	336.88
354.797	345.25
355.179	366.04
355.562	342.08
355.944	374.17
356.326	378.92
356.709	381.63
357.091	399.71
357.473	379.14
357.855	392.48
358.238	385.92
358.62	389.99
359.002	383.44
359.384	401.74
359.766	397.22
360.148	390.67
360.53	392.7
360.912	377.33
361.294	384.34
361.676	366.94
362.057	394.28
362.439	379.37
362.821	381.18
363.203	362.42
363.584	372.82
363.966	367.84
364.348	349.09
364.729	397.22
365.111	388.63
365.493	363.78
365.874	367.84
366.256	370.78
366.637	366.04
367.019	354.06
367.4	368.52
367.781	364.45
368.163	365.36
368.544	377.56
368.925	371.69
369.306	381.18
369.688	356.77
370.069	387.5
370.45	379.14
370.831	382.08
371.212	377.79
371.593	369.65
371.974	372.82
372.355	363.32
372.736	382.31
373.117	382.08
373.498	377.11
373.879	383.66
374.26	364.91
374.641	367.39
375.021	401.97
375.402	402.64
375.783	382.53
376.163	390.44
376.544	398.35
376.925	388.86
377.305	405.13
377.686	394.74
378.066	393.83
378.447	407.84
378.827	384.57
379.208	393.83
379.588	390.89
379.968	400.61
380.349	418.92
380.729	418.24
381.109	421.4
381.489	426.15
381.87	431.57
382.25	422.76
382.63	412.36
383.01	416.66
383.39	416.2
383.77	441.06
384.15	441.51
384.53	426.6
384.91	452.36
385.29	445.81
385.67	440.61
386.049	455.75
386.429	453.04
386.809	442.19
387.189	453.72
387.568	450.33
387.948	446.49
388.328	473.6
388.707	471.34
389.087	441.51
389.466	460.72
389.846	490.1
390.225	487.61
390.605	477.9
390.984	462.76
391.363	481.96
391.743	483.09
392.122	478.12
392.501	487.84
392.881	516.31
393.26	511.79
393.639	507.05
394.018	513.15
394.397	517.44
394.776	516.31
395.155	515.64
395.534	523.32
395.913	505.01
396.292	528.74
396.671	536.65
397.05	526.48
397.429	531.23
397.808	539.14
398.186	546.37
398.565	550.66
398.944	565.58
399.323	554.51
399.701	567.16
400.08	561.28
400.458	536.2
400.837	580.49
401.215	553.6
401.594	571.68
401.972	573.49
402.351	590.89
402.729	584.79
403.107	591.11
403.486	613.71
403.864	602.19
404.242	591.79
404.62	632.47
404.999	605.58
405.377	624.56
405.755	619.59
406.133	626.82
406.511	641.06
406.889	622.07
407.267	657.55
407.645	631.11
408.023	645.8
408.401	655.29
408.779	657.1
409.156	687.84
409.534	673.6
409.912	701.85
410.29	681.06
410.667	705.01
411.045	730.55
411.422	738.23
411.8	749.3
412.178	738.91
412.555	746.14
412.933	757.44
413.31	775.97
413.687	774.61
414.065	785.01
414.442	789.3
414.819	803.09
415.197	829.3
415.574	853.03
415.951	807.83
416.328	802.18
416.705	859.81
417.082	859.58
417.46	848.96
417.837	847.38
418.214	869.3
418.591	881.05
418.967	890.77
419.344	855.51
419.721	899.81
420.098	895.97
420.475	900.71
420.852	897.1
421.228	912.24
421.605	939.81
421.982	928.05
422.358	923.08
422.735	947.26
423.111	945.68
423.488	962.86
423.864	956.08
424.241	949.98
424.617	971.9
424.994	963.76
425.37	1012.8
425.746	1006.02
426.123	982.97
426.499	1024.1
426.875	1037.88
427.251	1054.15
427.627	1063.87
428.003	1057.54
428.379	1067.49
428.756	1078.56
429.132	1097.99
429.507	1095.28
429.883	1122.17
430.259	1135.28
430.635	1153.59
431.011	1143.42
431.387	1167.14
431.763	1183.42
432.138	1193.13
432.514	1194.49
432.89	1225
433.265	1267.93
433.641	1256.18
434.016	1269.97
434.392	1263.19
434.767	1292.34
435.143	1302.96
435.518	1306.58
435.894	1313.13
436.269	1329.17
436.644	1349.51
437.02	1332.34
437.395	1366.24
437.77	1352.68
438.145	1403.3
438.52	1405.56
438.895	1384.54
439.271	1420.25
439.646	1437.19
440.021	1438.78
440.395	1452.79
440.77	1411.43
441.145	1438.78
441.52	1490.07
441.895	1491.43
442.27	1505.89
442.645	1512.22
443.019	1530.07
443.394	1506.57
443.769	1512.45
444.143	1522.39
444.518	1551.77
444.892	1554.93
445.267	1523.52
445.641	1552.67
446.016	1577.08
446.39	1559.45
446.764	1579.79
447.139	1586.34
447.513	1612.1
447.887	1613.23
448.262	1617.3
448.636	1636.74
449.01	1643.97
449.384	1640.35
449.758	1696.17
450.132	1693.68
450.506	1716.51
450.88	1691.42
451.254	1741.82
451.628	1744.98
452.002	1776.17
452.376	1794.92
452.75	1819.33
453.123	1808.48
453.497	1845.77
453.871	1840.57
454.244	1895.71
454.618	1908.14
454.992	1925.99
455.365	1932.1
455.739	1973.68
456.112	1959.89
456.486	1998.54
456.859	1999.89
457.232	2063.39
457.606	2081.92
457.979	2092.54
458.352	2096.84
458.725	2164.41
459.099	2218.19
459.472	2201.92
459.845	2275.36
460.218	2246.21
460.591	2287.79
460.964	2293.22
461.337	2320.33
461.71	2371.86
462.083	2392.87
462.456	2384.29
462.829	2416.83
463.201	2442.59
463.574	2445.98
463.947	2496.83
464.32	2561.01
464.692	2577.28
465.065	2572.76
465.438	2640.1
465.81	2670.16
466.183	2657.73
466.555	2730.04
466.928	2756.93
467.3	2773.88
467.672	2810.27
468.045	2835.58
468.417	2851.62
468.789	2867.89
469.161	2920.09
469.534	2982.69
469.906	2992.18
470.278	3013.65
470.65	3079.64
471.022	3148.79
471.394	3207.77
471.766	3212.97
472.138	3252.51
472.51	3282.34
472.882	3395.11
473.253	3389.01
473.625	3462.68
473.997	3504.48
474.369	3523.69
474.74	3572.5
475.112	3596.01
475.484	3679.17
475.855	3725.95
476.227	3785.38
476.598	3880.75
476.97	3944.7
477.341	4004.58
477.713	4107.63
478.084	4125.26
478.455	4239.15
478.827	4238.02
479.198	4395.31
479.569	4432.82
479.94	4530.22
480.311	4603.21
480.682	4698.35
481.053	4813.6
481.424	4885.46
481.795	4954.62
482.166	5045.46
482.537	5150.32
482.908	5309.86
483.279	5386.02
483.65	5501.49
484.021	5565.45
484.391	5666.01
484.762	5807.02
485.133	5862.61
485.503	5936.74
485.874	6105.77
486.244	6237.97
486.615	6394.58
486.985	6452.2
487.356	6630.28
487.726	6727
488.097	6927.67
488.467	7050.38
488.837	7202.47
489.207	7252.86
489.578	7476.81
489.948	7658.27
490.318	7798.83
490.688	7855.78
491.058	8126.51
491.428	8208.09
491.798	8402.21
492.168	8530.34
492.538	8735.98
492.908	8955.87
493.278	9194.73
493.648	9243.32
494.017	9469.3
494.387	9627.26
494.757	9819.12
495.126	9957.2
495.496	10132.78
495.866	10333.68
496.235	10527.35
496.605	10701.58
496.974	10975.7
497.344	11152.64
497.713	11356.03
498.082	11549.92
498.452	11683.93
498.821	11916.92
499.19	12073.98
499.559	12384.7
499.928	12513.74
500.298	12680.74
500.667	13006.38
501.036	13122.08
501.405	13329.08
501.774	13630.77
502.143	13853.82
502.512	13999.35
502.88	14287.25
503.249	14512.56
503.618	14679.78
503.987	14915.71
504.356	15116.83
504.724	15309.82
505.093	15558.86
505.462	15719.76
505.83	16023.25
506.199	16307.31
506.567	16561.32
506.936	16764.93
507.304	17002.43
507.672	17240.62
508.041	17492.36
508.409	17762.19
508.777	17989.98
509.145	18252.34
509.514	18416.63
509.882	18673.8
510.25	18872.89
510.618	19081.7
510.986	19316.05
511.354	19555.59
511.722	19944.73
512.09	20065.4
512.458	20181.79
512.826	20535.67
513.193	20607.09
513.561	20934.76
513.929	21063.8
514.297	21318.48
514.664	21520.96
515.032	21776.77
515.4	22031.68
515.767	22240.04
516.135	22538.56
516.502	22366.59
516.869	22950.53
517.237	23180.8
517.604	23077.53
517.972	23577.4
518.339	23627.12
518.706	23850.62
519.073	24015.36
519.44	24298.51
519.808	24576.92
520.175	24681.1
520.542	25022.11
520.909	25201.99
521.276	25315.44
521.643	25789.32
522.009	25897.12
522.376	26209.65
522.743	26211.01
523.11	26718.79
523.477	26966.24
523.843	27191.77
524.21	27477.64
524.577	27768.48
524.943	28009.83
525.31	28115.59
525.676	28544.5
526.043	28716.7
526.409	28866.08
526.776	29241.66
527.142	29395.1
527.508	29522.33
527.874	29919.38
528.241	30022.43
528.607	30137.23
528.973	30608.18
529.339	30557.33
529.705	31103.76
530.071	31245
530.437	31399.34
530.803	31716.4
531.169	31941.48
531.535	31984.87
531.901	32123.62
532.267	32226.67
532.632	32575.58
532.998	32675.47
533.364	33015.12
533.73	33237.26
534.095	33367.43
534.461	33371.27
534.826	33626.63
535.192	33748.43
535.557	34046.73
535.923	34070.91
536.288	34240.17
536.653	34295.54
537.019	34475.65
537.384	34569.43
537.749	34601.07
538.114	34823.21
538.479	34848.97
538.845	35140.71
539.21	35022.98
539.575	35232.46
539.94	35361.95
540.305	35722.62
540.67	35648.95
541.034	35721.72
541.399	35886.46
541.764	36015.95
542.129	36253.68
542.494	36350.4
542.858	36446.44
543.223	36355.37
543.587	36812.53
543.952	36717.4
544.316	36892.31
544.681	36871.74
545.045	37156.03
545.41	37355.8
545.774	37079.87
546.138	37375.46
546.503	37460.65
546.867	37523.25
547.231	37839.17
547.595	37974.09
547.959	38092.95
548.324	38088.21
548.688	38088.43
549.052	38398.26
549.416	38394.41
549.779	38417.24
550.143	38596.67
550.507	38793.5
550.871	38796.21
551.235	38948.3
551.599	39270.32
551.962	39322.75
552.326	39457.21
552.689	39535.85
553.053	39477.78
553.417	39717.77
553.78	40029.63
554.143	40121.37
554.507	40290.64
554.87	40362.95
555.234	40576.73
555.597	40558.65
555.96	40718.42
556.323	40985.31
556.686	40998.41
557.05	41205.19
557.413	41356.6
557.776	41293.32
558.139	41744.16
558.502	41792.97
558.865	41859.18
559.228	42059.63
559.59	42343.01
559.953	42423.91
560.316	42782.32
560.679	42809.21
561.041	43202.2
561.404	43303.66
561.767	43472.25
562.129	43348.63
562.492	43889.86
562.854	44013.7
563.217	44104.09
563.579	44118.78
563.941	44460.24
564.304	44680.12
564.666	44985.2
565.028	45043.05
565.39	45153.56
565.753	45386.77
566.115	45499.76
566.477	45825.63
566.839	45764.84
567.201	46110.14
567.563	46106.08
567.925	46669.45
568.287	46491.6
568.648	46650.92
569.01	46937.24
569.372	47228.98
569.734	47153.28
570.095	47510.78
570.457	47672.14
570.819	47715.53
571.18	47841.4
571.542	48101.28
571.903	48162.07
572.265	48316.87
572.626	48562.96
572.987	48533.81
573.349	48761.15
573.71	48959.56
574.071	49106.45
574.432	49264.41
574.794	49515.03
575.155	49609.49
575.516	49562.03
575.877	49663.72
576.238	49757.96
576.599	50033.88
576.96	50070.49
577.32	50187.55
577.681	50331.28
578.042	50461.22
578.403	50518.39
578.763	50546.64
579.124	50752.96
579.485	50895.33
579.845	51086.74
580.206	51005.83
580.566	51176.45
580.927	51161.08
581.287	51381.87
581.648	51334.19
582.008	51533.73
582.368	51658.25
582.728	51772.82
583.089	51760.62
583.449	51893.27
583.809	51938.24
584.169	52081.74
584.529	52013.72
584.889	52350.88
585.249	52209.64
585.609	52227.04
585.969	52521.5
586.329	52486.93
586.688	52633.14
587.048	52537.77
587.408	52654.15
587.768	52782.51
588.127	52903.41
588.487	52871.1
588.846	53135.72
589.206	52933.47
589.565	53040.13
589.925	53402.83
590.284	53327.35
590.643	53424.53
591.003	53458.65
591.362	53731.64
591.721	53700.9
592.08	53725.08
592.44	53967.34
592.799	53897.06
593.158	54010.05
593.517	53979.32
593.876	54229.03
594.235	54154.9
594.593	54314
594.952	54388.34
595.311	54409.59
595.67	54572.07
596.029	54768.45
596.387	54857.03
596.746	54953.98
597.104	54786.3
597.463	54846.19
597.822	55024.26
598.18	55008.21
598.538	55072.85
598.897	55284.82
599.255	55165.5
599.613	55556.9
599.972	55397.81
600.33	55482.78
600.688	55480.74
601.046	55645.03
601.404	55847.97
601.762	55785.14
602.12	55993.95
602.478	56021.07
602.836	56095.19
603.194	55939.72
603.552	56015.87
603.91	56091.8
604.268	56209.31
604.625	56243.21
604.983	56471.68
605.341	56350.33
605.698	56595.97
606.056	56637.78
606.413	56627.16
606.771	56806.13
607.128	56744.89
607.485	56733.14
607.843	56909.86
608.2	57003.87
608.557	57144.66
608.914	57090.65
609.272	57247.93
609.629	57348.49
609.986	57410.64
610.343	57440.02
610.7	57633.91
611.057	57639.33
611.414	57580.35
611.771	57769.27
612.127	57795.49
612.484	57807.01
612.841	57911.64
613.198	57934.92
613.554	57892.21
613.911	58148.02
614.267	58087
614.624	58108.47
614.98	58258.52
615.337	58414.23
615.693	58398.41
616.05	58368.35
616.406	58481.12
616.762	58451.51
617.118	58472.76
617.475	58536.48
617.831	58720.43
618.187	58727.21
618.543	58705.29
618.899	58853.31
619.255	58843.59
619.611	58842.69
619.967	58997.71
620.323	59077.71
620.678	58924.72
621.034	58888.34
621.39	58972.4
621.746	59035.45
622.101	59315.45
622.457	59084.04
622.812	59272.06
623.168	59260.53
623.523	59273.41
623.879	59310.7
624.234	59214.88
624.589	59388.66
624.945	59337.37
625.3	59346.63
625.655	59382.56
626.01	59397.03
626.365	59469.57
626.72	59397.48
627.075	59409.91
627.43	59407.87
627.785	59404.48
628.14	59464.37
628.495	59435.67
628.85	59477.48
629.205	59449
629.559	59538.49
629.914	59364.94
630.269	59434.99
630.623	59320.87
630.978	59318.16
631.332	59400.19
631.687	59430.25
632.041	59367.65
632.396	59415.56
632.75	59357.7
633.104	59354.32
633.459	59276.13
633.813	59262.79
634.167	59279.51
634.521	59269.57
634.875	59259.4
635.229	59246.3
635.583	59131.04
635.937	59123.36
636.291	59153.19
636.645	59136.02
636.999	59037.26
637.352	59105.28
637.706	58950.03
638.06	59092.85
638.413	59004.04
638.767	58918.17
639.121	59006.98
639.474	58844.72
639.828	58827.78
640.181	58766.99
640.534	58890.6
640.888	58784.84
641.241	58654.22
641.594	58710.04
641.947	58777.16
642.301	58716.14
642.654	58696.25
643.007	58630.72
643.36	58746.42
643.713	58617.84
644.066	58754.78
644.419	58600.21
644.771	58279.99
645.124	58145.08
645.477	58003.39
645.83	57931.3
646.182	57890.62
646.535	57891.3
646.888	57913.22
647.24	57858.31
647.593	57999.1
647.945	57891.98
648.298	57693.79
648.65	57713.91
649.002	57554.14
649.355	57500.35
649.707	57536.74
650.059	57529.96
650.411	57847.46
650.763	57901.92
651.115	58286.55
651.467	58161.58
651.819	58145.31
652.171	58138.08
652.523	57966.33
652.875	58022.15
653.227	57947.35
653.578	58129.49
653.93	57992.32
654.282	57904.64
654.633	57874.81
654.985	57944.18
655.337	57950.06
655.688	57835.48
656.039	57858.99
656.391	57750.52
656.742	57757.07
657.094	57762.27
657.445	57843.62
657.796	57765.66
658.147	57715.71
658.498	57742.83
658.849	57781.7
659.2	57703.51
659.551	57621.03
659.902	57763.85
660.253	57621.25
660.604	57686.11
660.955	57609.5
661.306	57680.46
661.656	57598.66
662.007	57634.59
662.358	57565.44
662.708	57527.92
663.059	57525.21
663.409	57486.12
663.76	57593.46
664.11	57573.57
664.461	57588.03
664.811	57529.96
665.161	57521.82
665.511	57544.42
665.862	57432.33
666.212	57475.27
666.562	57496.74
666.912	57510.52
667.262	57397.76
667.612	57367.93
667.962	57446.34
668.312	57388.94
668.662	57482.73
669.011	57458.55
669.361	57426.23
669.711	57405.44
670.06	57371.09
670.41	57240.47
670.76	57237.53
671.109	57345.78
671.459	57328.83
671.808	57355.95
672.157	57354.37
672.507	57233.24
672.856	57222.85
673.205	57270.3
673.554	57254.71
673.904	57218.55
674.253	57396.4
674.602	57266.46
674.951	56889.3
675.3	56757.1
675.649	57216.74
675.998	57187.59
676.346	57153.92
676.695	57214.48
677.044	57079.57
677.393	57133.58
677.741	57236.86
678.09	57095.62
678.438	57040.7
678.787	57077.99
679.135	57149.18
679.484	56983.08
679.832	57120.93
680.181	57003.19
680.529	56993.25
680.877	56939.24
681.225	56866.7
681.573	57099.01
681.922	56863.31
682.27	56846.13
682.618	56834.61
682.966	56787.6
683.314	56830.77
683.661	56785.12
684.009	56623.77
684.357	56591.22
684.705	56606.59
685.053	56621.96
685.4	56525.46
685.748	56533.6
686.095	56455.41
686.443	56326.15
686.79	56378.57
687.138	56408.86
687.485	56385.13
687.832	56261.29
688.18	56273.27
688.527	56203.44
688.874	56173.61
689.221	56219.71
689.568	56072.37
689.915	56071.69
690.262	56067.85
690.609	55959.6
690.956	55863.11
691.303	55855.2
691.65	55771.13
691.997	55678.71
692.344	55617.24
692.69	55574.3
693.037	55607.97
693.383	55368.43
693.73	55482.78
694.077	55330.24
694.423	55379.96
694.769	55220.86
695.116	55276.23
695.462	55148.32
695.808	55026.07
696.155	55083.01
696.501	54889.12
696.847	54939.97
697.193	54768.45
697.539	54836.02
697.885	54634.67
698.231	54521.45
698.577	54605.06
698.923	54553.54
699.269	54329.14
699.614	54276.26
699.96	54297.27
700.306	54184.73
700.651	54044.62
700.997	53975.93
701.342	53954.23
701.688	53868.36
702.033	53789.26
702.379	53763.95
702.724	53630.17
703.069	53781.13
703.415	53360.57
703.76	53386.11
704.105	53393.79
704.45	53326.45
704.795	53189.28
705.14	53088.72
705.485	53151.09
705.83	52957.65
706.175	53053.24
706.52	52926.01
706.865	52819.35
707.209	52614.15
707.554	52677.65
707.899	52689.18
708.243	52502.97
708.588	52437.66
708.932	52309.3
709.277	52372.58
709.621	52237.44
709.966	52008.29
710.31	52077.44
710.654	51898.47
710.998	51903.21
711.342	51940.5
711.687	51752.48
712.031	51642.88
712.375	51610.79
712.719	51590.23
713.063	51476.33
713.407	51627.96
713.75	51408.31
714.094	51444.69
714.438	51308.2
714.782	51252.38
715.125	51016
715.469	51168.09
715.812	50978.26
716.156	50904.59
716.499	50954.99
716.843	50866.85
717.186	50705.73
717.53	50970.58
717.873	50830.02
718.216	50703.92
718.559	50572.63
718.902	50254.67
719.246	50469.8
719.589	50271.39
719.932	50227.78
720.275	50262.35
720.617	50204.27
720.96	50199.98
721.303	50160.43
721.646	50154.33
721.989	49989.59
722.331	50021.45
722.674	49932.19
723.016	49983.04
723.359	49777.62
723.701	49733.78
724.044	49665.98
724.386	49581.92
724.729	49607.9
725.071	49437.74
725.413	49492.88
725.755	49488.13
726.097	49302.6
726.439	49146.9
726.782	49129.27
727.124	49322.04
727.465	49209.95
727.807	49032.1
728.149	49082.49
728.491	48987.13
728.833	48947.81
729.175	48922.05
729.516	48788.72
729.858	48841.15
730.199	48993.01
730.541	48758.89
730.882	48688.38
731.224	48745.1
731.565	48579.91
731.906	48519.12
732.248	48622.39
732.589	48411.55
732.93	48374.94
733.271	48400.7
733.612	48250.2
733.953	48317.77
734.294	48218.11
734.635	48092.46
734.976	48392.8
735.317	48109.19
735.658	48071.67
735.999	47977.67
736.339	47996.87
736.68	47986.7
737.021	47924.79
737.361	47781.96
737.702	47931.56
738.042	47818.57
738.383	47841.17
738.723	47893.83
739.063	47595.3
739.404	47827.39
739.744	47590.56
740.084	47421.07
740.424	47558.24
740.764	47368.64
741.104	47422.2
741.444	47421.52
741.784	47349.43
742.124	47365.7
742.464	47195.31
742.804	47272.6
743.143	47181.3
743.483	47252.03
743.823	47059.5
744.162	47040.29
744.502	47061.98
744.841	46936.56
745.181	47165.48
745.52	47019.05
745.86	46992.38
746.199	46923.91
746.538	46999.61
746.877	47025.6
747.216	46905.6
747.556	46867.86
747.895	46828.09
748.234	46803.46
748.573	46705.61
748.911	46599.4
749.25	46551.94
749.589	46406.18
749.928	46593.97
750.267	46516.01
750.605	46332.06
750.944	46395.11
751.283	46118.96
751.621	46374.09
751.96	46109.47
752.298	46253.42
752.636	46073.99
752.975	46016.13
753.313	45862.69
753.651	46066.08
753.989	45702.92
754.327	45742.47
754.666	45445.08
