Data from 13-0850_FLMS001491_007.txt Node
Date: Thu Apr 12 17:08:32 BST 2018
User: hsy
Spectrometer: FLMS00149
Trigger mode: 0
Integration Time (sec): 1.000000E-2
Scans to average: 10
Electric dark correction enabled: true
Nonlinearity correction enabled: false
Boxcar width: 0
XAxis mode: Wavelengths
Number of Pixels in Spectrum: 2048
>>>>>Begin Spectral Data<<<<<
341.393	-7.73
341.776	-7.73
342.16	-7.73
342.543	-60.38
342.927	-82.53
343.31	-54.5
343.693	-57.67
344.077	-66.26
344.46	-68.06
344.843	-40.49
345.226	-47.95
345.61	-63.77
345.993	-19.02
346.376	-1.17
346.759	11.71
347.142	29.79
347.525	56.91
347.908	60.07
348.291	68.43
348.674	102.33
349.057	89.67
349.44	143.46
349.823	133.74
350.206	156.79
350.588	246.96
350.971	245.6
351.354	253.96
351.737	262.55
352.119	285.15
352.502	294.19
352.884	313.17
353.267	312.27
353.65	340.06
354.032	315.2
354.414	331.02
354.797	383
355.179	352.94
355.562	374.19
355.944	363.11
356.326	365.15
356.709	376.22
357.091	397.01
357.473	383.45
357.855	398.14
358.238	370.8
358.62	385.71
359.002	375.54
359.384	399.27
359.766	403.11
360.148	389.78
360.53	388.42
360.912	387.74
361.294	384.13
361.676	388.2
362.057	386.16
362.439	367.18
362.821	382.55
363.203	373.28
363.584	381.19
363.966	376.22
364.348	376.9
364.729	359.72
365.111	383.45
365.493	389.1
365.874	354.98
366.256	374.86
366.637	360.17
367.019	367.41
367.4	371.02
367.781	357.91
368.163	354.98
368.544	374.86
368.925	384.58
369.306	371.93
369.688	383.45
370.069	360.4
370.45	393.85
370.831	359.95
371.212	366.73
371.593	385.26
371.974	375.09
372.355	375.09
372.736	390.91
373.117	387.52
373.498	356.56
373.879	379.16
374.26	365.82
374.641	387.29
375.021	373.73
375.402	411.92
375.783	383
376.163	401.3
376.544	420.51
376.925	398.37
377.305	396.78
377.686	412.38
378.066	399.04
378.447	387.07
378.827	387.52
379.208	404.47
379.588	409.89
379.968	393.62
380.349	407.4
380.729	399.72
381.109	417.35
381.489	425.94
381.87	424.35
382.25	427.97
382.63	406.73
383.01	432.04
383.39	441.98
383.77	422.09
384.15	443.11
384.53	440.62
384.91	443.79
385.29	457.8
385.67	435.65
386.049	461.41
386.429	445.37
386.809	455.76
387.189	462.77
387.568	461.87
387.948	447.18
388.328	481.07
388.707	469.78
389.087	466.61
389.466	486.5
389.846	485.37
390.225	510
390.605	486.95
390.984	480.62
391.363	514.29
391.743	459.61
392.122	518.81
392.501	487.85
392.881	501.64
393.26	506.61
393.639	532.15
394.018	517.01
394.397	525.14
394.776	536.21
395.155	548.87
395.534	512.94
395.913	561.98
396.292	548.64
396.671	545.71
397.05	542.54
397.429	523.79
397.808	526.5
398.186	554.75
398.565	544.12
398.944	568.53
399.323	556.55
399.701	533.05
400.08	565.59
400.458	557.01
400.837	581.41
401.215	589.77
401.594	581.19
401.972	566.27
402.351	576.67
402.729	597.91
403.107	597.91
403.486	612.14
403.864	620.51
404.242	607.4
404.62	618.02
404.999	616.66
405.377	651.69
405.755	648.53
406.133	639.26
406.511	661.18
406.889	664.35
407.267	678.36
407.645	677.45
408.023	682.2
408.401	660.05
408.779	697.79
409.156	685.59
409.534	704.8
409.912	703.89
410.29	713.84
410.667	715.42
411.045	740.73
411.422	735.76
411.8	759.03
412.178	757.9
412.555	773.27
412.933	773.27
413.31	790.22
413.687	804.46
414.065	819.6
414.442	803.1
414.819	813.04
415.197	809.43
415.574	831.35
415.951	840.16
416.328	854.85
416.705	842.65
417.082	858.69
417.46	870.67
417.837	881.74
418.214	882.87
418.591	903.21
418.967	890.1
419.344	908.63
419.721	905.02
420.098	888.75
420.475	934.62
420.852	936.88
421.228	953.38
421.605	933.04
421.982	942.76
422.358	971.91
422.735	983.66
423.111	987.05
423.488	988.18
423.864	990.89
424.241	997.45
424.617	1003.1
424.994	1054.39
425.37	1027.28
425.746	1050.78
426.123	1040.16
426.499	1053.72
426.875	1058.91
427.251	1063.66
427.627	1092.36
428.003	1082.42
428.379	1093.71
428.756	1120.61
429.132	1142.75
429.507	1132.58
429.883	1184.79
430.259	1161.96
430.635	1194.5
431.011	1202.64
431.387	1206.25
431.763	1231.56
432.138	1255.07
432.514	1257.33
432.89	1251
433.265	1281.05
433.641	1294.39
434.016	1293.71
434.392	1317.66
434.767	1335.29
435.143	1343.2
435.518	1377.1
435.894	1378.23
436.269	1382.52
436.644	1384.55
437.02	1393.59
437.395	1418
437.77	1439.92
438.145	1449.41
438.52	1470.43
438.895	1476.53
439.271	1459.58
439.646	1505.91
440.021	1512.69
440.395	1495.51
440.77	1510.43
441.145	1521.27
441.52	1544.1
441.895	1537.54
442.27	1535.06
442.645	1556.53
443.019	1559.01
443.394	1606.47
443.769	1582.06
444.143	1587.26
444.518	1590.42
444.892	1587.03
445.267	1613.93
445.641	1632.68
446.016	1618.22
446.39	1662.96
446.764	1684.43
447.139	1672.23
447.513	1699.12
447.887	1691.89
448.262	1708.39
448.636	1689.18
449.01	1756.3
449.384	1729.18
449.758	1759.69
450.132	1766.69
450.506	1771.89
450.88	1809.85
451.254	1820.25
451.628	1829.51
452.002	1872.68
452.376	1858.67
452.75	1880.81
453.123	1886.46
453.497	1910.87
453.871	1909.74
454.244	1967.36
454.618	2010.98
454.992	1998.78
455.365	2003.75
455.739	2060.47
456.112	2084.65
456.486	2090.3
456.859	2123.29
457.232	2187.7
457.606	2196.96
457.979	2188.37
458.352	2261.59
458.725	2254.14
459.099	2286
459.472	2305.66
459.845	2346.34
460.218	2347.01
460.591	2394.02
460.964	2426.79
461.337	2449.38
461.71	2486.45
462.083	2540.46
462.456	2518.31
462.829	2565.99
463.201	2607.8
463.574	2582.26
463.947	2630.17
464.32	2708.59
464.692	2679.44
465.065	2742.48
465.438	2753.33
465.81	2784.97
466.183	2817.96
466.555	2869.26
466.928	2905.87
467.3	2859.54
467.672	2937.51
468.045	3015.47
468.417	2987.9
468.789	3001.23
469.161	3069.26
469.534	3118.29
469.906	3153.1
470.278	3187.9
470.65	3218.63
471.022	3318.74
471.394	3335.92
471.766	3382.69
472.138	3428.57
472.51	3485.06
472.882	3583.59
473.253	3572.97
473.625	3607.09
473.997	3699.07
474.369	3719.63
474.74	3770.93
475.112	3821.55
475.484	3936.13
475.855	3951.49
476.227	4024.03
476.598	4107.87
476.97	4164.37
477.341	4201.88
477.713	4293.86
478.084	4371.37
478.455	4504.92
478.827	4497.47
479.198	4612.94
479.569	4657.24
479.94	4786.72
480.311	4841.41
480.682	4979.26
481.053	5028.75
481.424	5209.99
481.795	5231.46
482.166	5334.28
482.537	5424.22
482.908	5531.79
483.279	5652.24
483.65	5732.69
484.021	5905.57
484.391	6043.19
484.762	6045.9
485.133	6173.81
485.503	6313.69
485.874	6436.17
486.244	6555.72
486.615	6723.17
486.985	6763.85
487.356	6932.88
487.726	7071.41
488.097	7259.43
488.467	7385.3
488.837	7568.35
489.207	7635.69
489.578	7871.62
489.948	8000.65
490.318	8180.08
490.688	8260.08
491.058	8533.74
491.428	8677.92
491.798	8743.91
492.168	9003.11
492.538	9134.18
492.908	9324.91
493.278	9485.58
493.648	9671.79
494.017	9898.68
494.387	9963.99
494.757	10215.28
495.126	10467.48
495.496	10613.24
495.866	10833.35
496.235	10937.75
496.605	11221.81
496.974	11458.87
497.344	11492.76
497.713	11720.78
498.082	12011.62
498.452	12198.73
498.821	12507.88
499.19	12561.21
499.559	12869.45
499.928	13093.62
500.298	13250.46
500.667	13532.48
501.036	13713.72
501.405	13976.31
501.774	14120.04
502.143	14345.12
502.512	14612.23
502.88	14884.76
503.249	15021.26
503.618	15263.96
503.987	15479.1
504.356	15759.32
504.724	15970.84
505.093	16171.74
505.462	16377.38
505.83	16559.97
506.199	16860.08
506.567	17172.39
506.936	17376.45
507.304	17657.8
507.672	17889.2
508.041	18065.92
508.409	18300.95
508.777	18599.69
509.145	18891.21
509.514	19002.4
509.882	19293.91
510.25	19511.31
510.618	19733.68
510.986	19869.72
511.354	20169.82
511.722	20456.37
512.09	20759.64
512.458	20824.27
512.826	21275.78
513.193	21247.08
513.561	21538.6
513.929	21756
514.297	22091.58
514.664	22334.29
515.032	22438.01
515.4	22771.79
515.767	23028.96
516.135	23102.85
516.502	23226.92
516.869	23623.74
517.237	23779.22
517.604	23775.15
517.972	24272.77
518.339	24515.47
518.706	24718.4
519.073	24886.08
519.44	24923.14
519.808	25375.11
520.175	25521.55
520.542	25800.86
520.909	26004.7
521.276	25982.33
521.643	26521.07
522.009	26711.8
522.376	27030.43
522.743	27232.91
523.11	27493.47
523.477	27794.93
523.843	27984.76
524.21	28361.25
524.577	28529.83
524.943	28782.48
525.31	28930.5
525.676	29338.85
526.043	29718.05
526.409	29796.69
526.776	30183.12
527.142	30208.43
527.508	30428.54
527.874	30843.89
528.241	30999.82
528.607	31194.17
528.973	31641.16
529.339	31599.8
529.705	32012.9
530.071	32207.7
530.437	32375.15
530.803	32646.78
531.169	32920
531.535	32922.71
531.901	33150.5
532.267	33237.95
532.632	33676.81
532.998	33689.02
533.364	33936.01
533.73	34023.47
534.095	34372.39
534.461	34299.85
534.826	34606.96
535.192	34805.37
535.557	35136.21
535.923	35102.76
536.288	35230.22
536.653	35546.59
537.019	35375.75
537.384	35613.71
537.749	35578.46
538.114	35896.19
538.479	35939.13
538.845	36200.81
539.21	36206.46
539.575	36472.44
539.94	36515.83
540.305	36777.52
540.67	36692.1
541.034	36817.75
541.399	36960.12
541.764	37136.16
542.129	37325.98
542.494	37387.9
542.858	37566.88
543.223	37474.23
543.587	37815.69
543.952	37493.21
544.316	37829.47
544.681	37935.23
545.045	38143.59
545.41	38213.42
545.774	38283.02
546.138	38358.05
546.503	38503.35
546.867	38653.86
547.231	38894.08
547.595	39012.27
547.959	39207.97
548.324	39170.23
548.688	39259.04
549.052	39513.49
549.416	39501.29
549.779	39669.65
550.143	39751
550.507	39991
550.871	40111.9
551.235	40119.58
551.599	40356.18
551.962	40373.59
552.326	40531.32
552.689	40660.81
553.053	40520.47
553.417	40814.03
553.78	41192.77
554.143	41171.53
554.507	41427.79
554.87	41475.7
555.234	41747.56
555.597	41609.26
555.96	41909.82
556.323	42076.14
556.686	42198.17
557.05	42380.76
557.413	42639.51
557.776	42586.18
558.139	42848.77
558.502	42958.6
558.865	43183.68
559.228	43353.17
559.59	43522.43
559.953	43573.5
560.316	44097.33
560.679	44033.15
561.041	44363.54
561.404	44590.65
561.767	44791.55
562.129	44701.83
562.492	45168.94
562.854	45166.23
563.217	45281.25
563.579	45366.67
563.941	45663.62
564.304	45786.32
564.666	46189.93
565.028	46163.72
565.39	46212.75
565.753	46549.02
566.115	46561.67
566.477	46826.75
566.839	47124.59
567.201	47470.8
567.563	47359.39
567.925	47714.18
568.287	47751.24
568.648	47848.64
569.01	48083.67
569.372	48394.39
569.734	48391.45
570.095	48657.44
570.457	48863.08
570.819	48895.85
571.18	48954.15
571.542	49281.6
571.903	49343.97
572.265	49419
572.626	49710.97
572.987	49743.06
573.349	49844.75
573.71	50032.31
574.071	50072.09
574.432	50434.56
574.794	50558.85
575.155	50581
575.516	50592.75
575.877	50844.5
576.238	50914.55
576.599	51034.32
576.96	51149.57
577.32	51209.01
577.681	51252.85
578.042	51499.85
578.403	51580.97
578.763	51458.04
579.124	51711.37
579.485	51953.85
579.845	51996.56
580.206	51887.63
580.566	52063.67
580.927	52060.96
581.287	52312.25
581.648	52240.39
582.008	52522.42
582.368	52552.25
582.728	52562.64
583.089	52619.59
583.449	52662.53
583.809	52760.6
584.169	52918.34
584.529	52847.83
584.889	53130.76
585.249	52945.23
585.609	53046.02
585.969	53288.05
586.329	53133.48
586.688	53437.65
587.048	53393.36
587.408	53418.67
587.768	53486.69
588.127	53620.24
588.487	53591.77
588.846	53795.83
589.206	53670.18
589.565	53831.31
589.925	54020.68
590.284	54003.96
590.643	54088.03
591.003	54114.24
591.362	54356.04
591.721	54334.8
592.08	54483.04
592.44	54554.46
592.799	54529.6
593.158	54636.94
593.517	54653.66
593.876	54833.32
594.235	54720.55
594.593	54904.95
594.952	54959.87
595.311	54907.89
595.67	55132.29
596.029	55298.84
596.387	55356.69
596.746	55420.87
597.104	55354.66
597.463	55413.19
597.822	55682.79
598.18	55544.94
598.538	55665.84
598.897	55825.83
599.255	55705.61
599.613	56035.09
599.972	55927.53
600.33	55961.88
600.688	55964.14
601.046	56169.55
601.404	56441.19
601.762	56365.03
602.12	56459.94
602.478	56508.75
602.836	56619.49
603.194	56501.75
603.552	56581.97
603.91	56582.88
604.268	56771.35
604.625	56724.12
604.983	56932.92
605.341	56816.99
605.698	57042.3
606.056	57185.35
606.413	57048.85
606.771	57259.69
607.128	57306.25
607.485	57233.26
607.843	57263.99
608.2	57484.1
608.557	57540.14
608.914	57554.83
609.272	57688.16
609.629	57708.72
609.986	57874.82
610.343	57862.62
610.7	57998.43
611.057	58000.01
611.414	57952.78
611.771	58073.01
612.127	58204.3
612.484	58284.75
612.841	58282.04
613.198	58190.07
613.554	58261.93
613.911	58474.13
614.267	58535.82
614.624	58475.71
614.98	58580.79
615.337	58752.31
615.693	58741.69
616.05	58783.72
616.406	58908.69
616.762	58801.8
617.118	58883.61
617.475	58908.69
617.831	59025.75
618.187	59065.98
618.543	59130.61
618.899	59241.34
619.255	59190.94
619.611	59199.31
619.967	59299.64
620.323	59350.94
620.678	59312.52
621.034	59284.05
621.39	59272.3
621.746	59332.18
622.101	59606.98
622.457	59363.82
622.812	59521.56
623.168	59543.25
623.523	59568.79
623.879	59637.71
624.234	59563.59
624.589	59631.38
624.945	59662.12
625.3	59789.12
625.655	59664.15
626.01	59722.46
626.365	59790.48
626.72	59684.26
627.075	59707.99
627.43	59722.23
627.785	59705.51
628.14	59776.01
628.495	59766.3
628.85	59824.6
629.205	59750.25
629.559	59867.08
629.914	59730.14
630.269	59783.92
630.623	59637.26
630.978	59592.06
631.332	59776.24
631.687	59816.69
632.041	59638.62
632.396	59692.17
632.75	59613.76
633.104	59709.12
633.459	59633.87
633.813	59598.16
634.167	59495.79
634.521	59634.32
634.875	59539.64
635.229	59498.05
635.583	59362.92
635.937	59461.22
636.291	59413.31
636.645	59494.66
636.999	59384.16
637.352	59421.22
637.706	59294.67
638.06	59409.69
638.413	59345.06
638.767	59205.86
639.121	59232.3
639.474	59183.94
639.828	59169.93
640.181	59138.29
640.534	59183.03
640.888	59123.37
641.241	58999.99
641.594	59061.23
641.947	59131.06
642.301	59061
642.654	59087.9
643.007	59043.83
643.36	59060.33
643.713	58901.69
644.066	59047.22
644.419	58827.11
644.771	58600.22
645.124	58310.06
645.477	58291.98
645.83	58220.57
646.182	58275.71
646.535	58114.81
646.888	58244.98
647.24	58144.19
647.593	58315.94
647.945	58159.78
648.298	58051.76
648.65	57935.16
649.002	57870.53
649.355	57831.43
649.707	57751.66
650.059	57819.91
650.411	58133.57
650.763	58242.04
651.115	58573.11
651.467	58486.1
651.819	58447.01
652.171	58391.64
652.523	58339.21
652.875	58341.93
653.227	58186.45
653.578	58383.51
653.93	58261.48
654.282	58163.4
654.633	58158.88
654.985	58193.23
655.337	58211.76
655.688	58145.1
656.039	58235.94
656.391	57938.55
656.742	58082.5
657.094	58007.7
657.445	58065.78
657.796	58038.66
658.147	57997.75
658.498	58080.69
658.849	58055.61
659.2	57944.65
659.551	57968.38
659.902	58134.25
660.253	57945.55
660.604	58053.35
660.955	57891.77
661.306	57955.95
661.656	57897.64
662.007	57929.28
662.358	57883.18
662.708	57861.94
663.059	57816.74
663.409	57686.8
663.76	57827.36
664.11	57848.15
664.461	57915.5
664.811	57844.76
665.161	57823.3
665.511	57790.53
665.862	57811.32
666.212	57816.74
666.562	57861.26
666.912	57797.53
667.262	57700.36
667.612	57694.71
667.962	57769.29
668.312	57663.53
668.662	57760.47
669.011	57726.8
669.361	57670.98
669.711	57666.69
670.06	57682.06
670.41	57577.65
670.76	57578.1
671.109	57699.91
671.459	57675.05
671.808	57557.09
672.157	57669.85
672.507	57520.48
672.856	57478.67
673.205	57582.4
673.554	57566.35
673.904	57541.72
674.253	57636.63
674.602	57508.28
674.951	57200.94
675.3	57083.43
675.649	57511.89
675.998	57455.4
676.346	57530.87
676.695	57502.63
677.044	57382.63
677.393	57424.21
677.741	57483.19
678.09	57424.21
678.438	57473.7
678.787	57447.26
679.135	57392.57
679.484	57284.1
679.832	57388.96
680.181	57291.11
680.529	57275.97
680.877	57262.41
681.225	57212.24
681.573	57386.7
681.922	57118.91
682.27	57165.23
682.618	57147.38
682.966	57182.18
683.314	57111.68
683.661	57087.27
684.009	57036.65
684.357	56972.24
684.705	56845.47
685.053	56922.3
685.4	56833.72
685.748	56789.88
686.095	56858.8
686.443	56636.43
686.79	56688.64
687.138	56773.83
687.485	56689.09
687.832	56527.51
688.18	56540.84
688.527	56511.92
688.874	56497.23
689.221	56491.58
689.568	56389.21
689.915	56323.45
690.262	56402.77
690.609	56208.65
690.956	56239.61
691.303	56291.81
691.65	56141.31
691.997	56074.64
692.344	55991.71
692.69	55875.55
693.037	55904.7
693.383	55720.53
693.73	55845.04
694.077	55696.35
694.423	55711.49
694.769	55646.4
695.116	55591.49
695.462	55384.04
695.808	55358.73
696.155	55455.22
696.501	55210.26
696.847	55285.28
697.193	55063.59
697.539	55179.3
697.885	54900.89
698.231	54850.27
698.577	54862.47
698.923	54847.1
699.269	54645.75
699.614	54571.63
699.96	54490.73
700.306	54535.47
700.651	54380
700.997	54289.15
701.342	54182.26
701.688	54173
702.033	54048.25
702.379	54126.22
702.724	53929.84
703.069	53980.69
703.415	53691.88
703.76	53742.5
704.105	53738.88
704.45	53646.68
704.795	53572.11
705.14	53520.13
705.485	53441.04
705.83	53180.93
706.175	53312.45
706.52	53236.07
706.865	53087.6
707.209	52957.89
707.554	52943.88
707.899	53043.08
708.243	52783.65
708.588	52766.48
708.932	52624.34
709.277	52673.37
709.621	52518.35
709.966	52295.53
710.31	52438.8
710.654	52185.93
710.998	52217.34
711.342	52261.41
711.687	52190.68
712.031	52102.54
712.375	51892.38
712.719	51924.92
713.063	51906.84
713.407	51914.75
713.75	51790.01
714.094	51679.73
714.438	51619.62
714.782	51635.44
715.125	51389.11
715.469	51559.05
715.812	51202.91
716.156	51316.8
716.499	51172.62
716.843	51258.27
717.186	51064.38
717.53	51305.05
717.873	51146.18
718.216	51012.18
718.559	50956.81
718.902	50621.68
719.246	50728.34
719.589	50541.45
719.932	50569.7
720.275	50527.89
720.617	50597.95
720.96	50435.02
721.303	50484.28
721.646	50491.96
721.989	50247.68
722.331	50404.96
722.674	50387.33
723.016	50287
723.359	50153.22
723.701	50193.89
724.044	50029.83
724.386	49814.02
724.729	49990.28
725.071	49863.51
725.413	49801.59
725.755	49776.05
726.097	49744.86
726.439	49548.26
726.782	49474.81
727.124	49708.48
727.465	49638.88
727.807	49493.57
728.149	49479.79
728.491	49383.97
728.833	49429.39
729.175	49339.45
729.516	49203.41
729.858	49112.56
730.199	49221.49
730.541	49176.52
730.882	49049.52
731.224	49035.96
731.565	48892.68
731.906	48895.17
732.248	48944.43
732.589	48751.67
732.93	48654.27
733.271	48728.62
733.612	48783.99
733.953	48649.75
734.294	48606.36
734.635	48564.33
734.976	48684.1
735.317	48429.19
735.658	48511.68
735.999	48242.76
736.339	48320.04
736.68	48272.36
737.021	48393.94
737.361	48202.08
737.702	48387.84
738.042	48197.33
738.383	48165.7
738.723	48219.48
739.063	48022.2
739.404	48246.15
739.744	48054.06
740.084	47911.47
740.424	47961.18
740.764	47858.81
741.104	48088.86
741.444	47859.94
741.784	47720.06
742.124	47820.17
742.464	47845.03
742.804	47624.47
743.143	47628.31
743.483	47597.12
743.823	47475.09
744.162	47442.55
744.502	47506.73
744.841	47438.71
745.181	47422.67
745.52	47298.15
745.86	47230.13
746.199	47320.52
746.538	47180.41
746.877	47357.81
747.216	47276.45
747.556	47115.1
747.895	47140.19
748.234	47163.46
748.573	47074.2
748.911	46912.17
749.25	46932.51
749.589	46761.44
749.928	46879.63
750.267	46787.2
750.605	46690.03
750.944	46633.99
751.283	46615.91
751.621	46637.38
751.96	46483.71
752.298	46381.79
752.636	46522.12
752.975	46266.99
753.313	46184.73
753.651	46360.77
753.989	46158.07
754.327	46110.16
754.666	45805.53
755.004	46028.35
