Data from 13-0850_FLMS001491_004.txt Node
Date: Thu Apr 12 17:08:26 BST 2018
User: hsy
Spectrometer: FLMS00149
Trigger mode: 0
Integration Time (sec): 1.000000E-2
Scans to average: 10
Electric dark correction enabled: true
Nonlinearity correction enabled: false
Boxcar width: 0
XAxis mode: Wavelengths
Number of Pixels in Spectrum: 2048
>>>>>Begin Spectral Data<<<<<
341.393	-15.23
341.776	-15.23
342.16	-15.23
342.543	-55.45
342.927	-60.65
343.31	-52.06
343.693	-86.64
344.077	-71.95
344.46	-57.71
344.843	-38.28
345.226	-36.92
345.61	-40.76
345.993	-20.88
346.376	-11.61
346.759	11.44
347.142	26.81
347.525	48.5
347.908	40.59
348.291	83.53
348.674	84.88
349.057	121.04
349.44	132.79
349.823	140.93
350.206	172.11
350.588	255.5
350.971	252.79
351.354	263.41
351.737	307.48
352.119	297.99
352.502	301.15
352.884	311.32
353.267	316.97
353.65	323.52
354.032	338.89
354.414	341.6
354.797	365.78
355.179	358.78
355.562	349.74
355.944	390.64
356.326	369.62
356.709	368.27
357.091	390.87
357.473	399.68
357.855	386.57
358.238	399.23
358.62	395.61
359.002	380.47
359.384	397.64
359.766	372.56
360.148	374.37
360.53	406.91
360.912	374.14
361.294	394.93
361.676	406.01
362.057	374.14
362.439	391.09
362.821	379.11
363.203	361.49
363.584	379.79
363.966	367.14
364.348	382.96
364.729	363.52
365.111	377.53
365.493	379.57
365.874	372.79
366.256	391.32
366.637	390.41
367.019	382.5
367.4	374.59
367.781	390.87
368.163	386.12
368.544	372.79
368.925	375.95
369.306	373.69
369.688	369.17
370.069	382.05
370.45	368.95
370.831	368.72
371.212	380.47
371.593	386.57
371.974	395.16
372.355	396.29
372.736	381.37
373.117	372.56
373.498	382.5
373.879	385.89
374.26	388.15
374.641	389.51
375.021	376.63
375.402	390.87
375.783	393.35
376.163	384.31
376.544	407.81
376.925	397.87
377.305	414.14
377.686	412.11
378.066	399.68
378.447	393.13
378.827	420.24
379.208	407.36
379.588	408.04
379.968	432.67
380.349	419.34
380.729	429.51
381.109	409.85
381.489	421.83
381.87	422.95
382.25	402.84
382.63	417.98
383.01	434.71
383.39	430.64
383.77	423.18
384.15	424.31
384.53	431.77
384.91	430.64
385.29	434.03
385.67	445.78
386.049	443.29
386.429	438.1
386.809	442.84
387.189	453.91
387.568	453.91
387.948	463.41
388.328	489.85
388.707	450.98
389.087	458.66
389.466	468.15
389.846	471.32
390.225	471.32
390.605	487.13
390.984	475.38
391.363	497.76
391.743	494.37
392.122	507.92
392.501	522.16
392.881	493.91
393.26	497.53
393.639	501.6
394.018	511.77
394.397	511.77
394.776	532.1
395.155	521.48
395.534	503.4
395.913	519.9
396.292	530.97
396.671	515.16
397.05	518.77
397.429	530.52
397.808	546.12
398.186	546.12
398.565	530.3
398.944	548.83
399.323	552.9
399.701	535.95
400.08	571.88
400.458	548.38
400.837	557.41
401.215	571.88
401.594	543.4
401.972	602.84
402.351	599.22
402.729	588.37
403.107	576.17
403.486	592.89
403.864	607.36
404.242	603.97
404.62	603.97
404.999	619.33
405.377	626.79
405.755	617.53
406.133	645.32
406.511	630.86
406.889	647.13
407.267	652.33
407.645	663.17
408.023	649.84
408.401	660.46
408.779	669.95
409.156	667.92
409.534	699.33
409.912	686.68
410.29	737.52
410.667	704.98
411.045	705.89
411.422	726.9
411.8	740.91
412.178	731.87
412.555	761.93
412.933	761.48
413.31	780.01
413.687	769.61
414.065	779.33
414.442	811.19
414.819	813.23
415.197	798.09
415.574	814.81
415.951	844.19
416.328	852.1
416.705	848.03
417.082	863.85
417.46	863.85
417.837	874.24
418.214	862.04
418.591	875.15
418.967	884.86
419.344	921.92
419.721	874.02
420.098	919.67
420.475	892.55
420.852	932.77
421.228	914.24
421.605	934.58
421.982	927.12
422.358	960.79
422.735	947.91
423.111	945.43
423.488	938.65
423.864	991.3
424.241	987.46
424.617	1020
424.994	980.23
425.37	993.79
425.746	1003.96
426.123	1022.04
426.499	1033.33
426.875	1070.4
427.251	1043.05
427.627	1060.23
428.003	1032.66
428.379	1102.94
428.756	1134.57
429.132	1123.73
429.507	1137.29
429.883	1145.87
430.259	1129.38
430.635	1164.4
431.011	1153.33
431.387	1179.55
431.763	1198.75
432.138	1197.85
432.514	1211.41
432.89	1235.36
433.265	1246.44
433.641	1253.89
434.016	1283.5
434.392	1302.03
434.767	1310.62
435.143	1304.97
435.518	1309.26
435.894	1330.5
436.269	1338.64
436.644	1361.24
437.02	1366.66
437.395	1367.11
437.77	1378.64
438.145	1418.86
438.52	1446.66
438.895	1460.89
439.271	1440.33
439.646	1458.63
440.021	1500.21
440.395	1470.16
440.77	1455.7
441.145	1488.92
441.52	1499.54
441.895	1501.57
442.27	1535.24
442.645	1506.99
443.019	1531.63
443.394	1525.75
443.769	1532.76
444.143	1516.03
444.518	1551.06
444.892	1516.94
445.267	1526.88
445.641	1571.63
446.016	1601.23
446.39	1616.6
446.764	1609.59
447.139	1636.71
447.513	1645.07
447.887	1675.35
448.262	1644.39
448.636	1653.43
449.01	1678.06
449.384	1710.38
449.758	1722.13
450.132	1716.93
450.506	1736.37
450.88	1725.07
451.254	1767.1
451.628	1755.58
452.002	1793.09
452.376	1813.65
452.75	1820.21
453.123	1826.53
453.497	1831.51
453.871	1886.42
454.244	1900.43
454.618	1940.66
454.992	1952.63
455.365	1975.91
455.739	1992.86
456.112	2005.74
456.486	2053.42
456.859	2043.25
457.232	2111.72
457.606	2149.24
457.979	2148.79
458.352	2181.78
458.725	2180.65
459.099	2229.46
459.472	2242.79
459.845	2310.81
460.218	2287.31
460.591	2313.75
460.964	2334.09
461.337	2332.28
461.71	2423.81
462.083	2409.34
462.456	2449.12
462.829	2466.74
463.201	2497.48
463.574	2504.93
463.947	2549.45
464.32	2556.23
464.692	2597.81
465.065	2645.27
465.438	2675.1
465.81	2704.25
466.183	2696.34
466.555	2749.45
466.928	2814.76
467.3	2804.36
467.672	2833.97
468.045	2869.67
468.417	2916.22
468.789	2934.75
469.161	2971.59
469.534	2975.66
469.906	3062.89
470.278	3059.27
470.65	3141.98
471.022	3174.75
471.394	3217.23
471.766	3295.65
472.138	3301.75
472.51	3349.21
472.882	3399.15
473.253	3466.26
473.625	3495.64
473.997	3538.35
474.369	3587.39
474.74	3641.4
475.112	3706.48
475.484	3765.92
475.855	3813.83
476.227	3854.28
476.598	3965.46
476.97	3954.39
477.341	4090.2
477.713	4115.97
478.084	4228.05
478.455	4283.87
478.827	4325
479.198	4445.9
479.569	4445.9
479.94	4591.66
480.311	4692.9
480.682	4788.26
481.053	4912.55
481.424	5011.08
481.795	5059.44
482.166	5186.45
482.537	5234.35
482.908	5389.6
483.279	5444.52
483.65	5573.33
484.021	5686.09
484.391	5755.02
484.762	5846.99
485.133	6008.57
485.503	6076.37
485.874	6239.98
486.244	6345.96
486.615	6518.61
486.985	6621.21
487.356	6720.42
487.726	6792.05
488.097	7028.66
488.467	7155.43
488.837	7320.85
489.207	7479.72
489.578	7600.85
489.948	7769.88
490.318	7900.95
490.688	8000.38
491.058	8219.36
491.428	8438.79
491.798	8577.99
492.168	8741.61
492.538	8969.4
492.908	9111.54
493.278	9283.74
493.648	9414.13
494.017	9636.72
494.387	9733.9
494.757	9958.98
495.126	10116.26
495.496	10259.08
495.866	10509.7
496.235	10662.69
496.605	10998.95
496.974	11046.63
497.344	11306.06
497.713	11390.35
498.082	11663.34
498.452	11924.35
498.821	12200.95
499.19	12316.43
499.559	12520.49
499.928	12741.05
500.298	12879.58
500.667	13221.04
501.036	13384.87
501.405	13558.88
501.774	13849.72
502.143	14018.76
502.512	14268.69
502.88	14522.92
503.249	14604.05
503.618	14980.09
503.987	15220.31
504.356	15429.34
504.724	15649.45
505.093	15904.36
505.462	16153.16
505.83	16391.12
506.199	16507.96
506.567	16961.05
506.936	16999.69
507.304	17314.94
507.672	17592
508.041	17722.16
508.409	18076.5
508.777	18377.51
509.145	18709.93
509.514	18703.83
509.882	19040.54
510.25	19207.55
510.618	19396.02
510.986	19612.51
511.354	19956.68
511.722	20203.9
512.09	20450.22
512.458	20564.57
512.826	20930.66
513.193	21014.05
513.561	21303.31
513.929	21401.61
514.297	21763.41
514.664	21995.27
515.032	22217.64
515.4	22526.33
515.767	22725.87
516.135	22805.64
516.502	22869.6
516.869	23327.44
517.237	23590.26
517.604	23477.49
517.972	23983.24
518.339	24098.94
518.706	24310.69
519.073	24490.57
519.44	24755.42
519.808	25159.93
520.175	25167.62
520.542	25479.25
520.909	25720.14
521.276	25809.86
521.643	26024.09
522.009	26427.92
522.376	26574.81
522.743	26863.62
523.11	27316.71
523.477	27445.3
523.843	27713.54
524.21	28040.99
524.577	28311.94
524.943	28512.39
525.31	28643.46
525.676	29116.66
526.043	29175.87
526.409	29302.2
526.776	29679.59
527.142	29891.11
527.508	29960.71
527.874	30563.86
528.241	30600.92
528.607	30831.65
528.973	31170.17
529.339	31272.54
529.705	31587.79
530.071	31935.57
530.437	32096.7
530.803	32328.56
531.169	32487.65
531.535	32665.95
531.901	32754.31
532.267	32897.13
532.632	33093.73
532.998	33270
533.364	33437
533.73	33600.39
534.095	33989.3
534.461	34032.92
534.826	34353.81
535.192	34507.93
535.557	34769.4
535.923	34770.98
536.288	34898.88
536.653	35129.16
537.019	35109.95
537.384	35269.27
537.749	35515.14
538.114	35612.54
538.479	35547.91
538.845	35789.93
539.21	35657.73
539.575	36066.76
539.94	36084.16
540.305	36392.86
540.67	36328.9
541.034	36626.07
541.399	36721.21
541.764	36816.8
542.129	36789.91
542.494	36996
542.858	37161.2
543.223	37231.93
543.587	37488.65
543.952	37414.3
544.316	37599.15
544.681	37598.25
545.045	37929.99
545.41	37971.35
545.774	38003.21
546.138	38055.19
546.503	38140.83
546.867	38196.65
547.231	38655.4
547.595	38509.86
547.959	38750.31
548.324	38788.5
548.688	38844.32
549.052	39038.66
549.416	39122.05
549.779	39150.52
550.143	39398.65
550.507	39642.04
550.871	39718.42
551.235	39751.41
551.599	40098.07
551.962	40226.88
552.326	40236.15
552.689	40326.99
553.053	40173.55
553.417	40435.46
553.78	40893.08
554.143	40871.83
554.507	40955.45
554.87	41182.34
555.234	41451.25
555.597	41264.37
555.96	41335.1
556.323	41635.43
556.686	41713.39
557.05	42120.62
557.413	42145.02
557.776	42292.14
558.139	42613.03
558.502	42550.21
558.865	42667.72
559.228	42984.55
559.59	43174.6
559.953	43211.66
560.316	43710.4
560.679	43756.05
561.041	43815.49
561.404	44194.69
561.767	44543.38
562.129	44274.23
562.492	44801.9
562.854	44792.18
563.217	44928.68
563.579	44990.82
563.941	45227.88
564.304	45581.09
564.666	45902.44
565.028	45814.08
565.39	45945.37
565.753	46247.74
566.115	46340.84
566.477	46573.15
566.839	46689.08
567.201	47070.54
567.563	46944.67
567.925	47248.39
568.287	47389.63
568.648	47540.81
569.01	47736.29
569.372	47984.64
569.734	48095.6
570.095	48361.36
570.457	48444.29
570.819	48534.23
571.18	48551.18
571.542	48820.55
571.903	48882.47
572.265	49094.22
572.626	49243.59
572.987	49418.5
573.349	49564.94
573.71	49656.69
574.071	49787.53
574.432	50019.62
574.794	50201.08
575.155	50107.98
575.516	50283.11
575.877	50545.48
576.238	50576.44
576.599	50740.05
576.96	50669.32
577.32	50895.75
577.681	51005.58
578.042	51257.1
578.403	51222.75
578.763	51236.53
579.124	51484.44
579.485	51712.91
579.845	51689.4
580.206	51771.21
580.566	51814.82
580.927	51854.15
581.287	52008.49
581.648	51959.45
582.008	52156.28
582.368	52183.63
582.728	52306.79
583.089	52265.89
583.449	52406.9
583.809	52500.91
584.169	52698.64
584.529	52567.8
584.889	52898.64
585.249	52657.51
585.609	52686.89
585.969	52967.11
586.329	52873.1
586.688	53133.66
587.048	53194.67
587.408	53106.77
587.768	53234
588.127	53296.59
588.487	53253.2
588.846	53573.65
589.206	53346.99
589.565	53564.38
589.925	53781.1
590.284	53709.69
590.643	53775.68
591.003	53901.32
591.362	54175.44
591.721	54035.1
592.08	54127.31
592.44	54271.71
592.799	54301.99
593.158	54331.82
593.517	54343.35
593.876	54602.32
594.235	54626.95
594.593	54638.03
594.952	54619.95
595.311	54716.44
595.67	54877.34
596.029	55079.14
596.387	55065.81
596.746	55268.07
597.104	55159.14
597.463	55112.14
597.822	55388.97
598.18	55335.41
598.538	55429.87
598.897	55638.9
599.255	55471.9
599.613	55862.63
599.972	55687.72
600.33	55820.14
600.688	55755.74
601.046	55906.69
601.404	56134.03
601.762	56045.9
602.12	56256.74
602.478	56206.12
602.836	56310.98
603.194	56235.05
603.552	56344.65
603.91	56296.51
604.268	56469.62
604.625	56505.1
604.983	56662.15
605.341	56529.05
605.698	56793.9
606.056	57006.1
606.413	56867.35
606.771	57110.5
607.128	57079.32
607.485	57037.51
607.843	57106.89
608.2	57228.69
608.557	57310.05
608.914	57327.22
609.272	57426.65
609.629	57534.9
609.986	57593.88
610.343	57609.25
610.7	57821.22
611.057	57769.02
611.414	57719.98
611.771	57864.38
612.127	57989.58
612.484	57997.71
612.841	58119.29
613.198	58015.56
613.554	58080.87
613.911	58239.51
614.267	58267.31
614.624	58337.82
614.98	58408.55
615.337	58524.93
615.693	58501.65
616.05	58540.75
616.406	58639.5
616.762	58641.54
617.118	58724.92
617.475	58672.27
617.831	58837.92
618.187	58830.23
618.543	58852.61
618.899	59067.74
619.255	58999.72
619.611	58958.82
619.967	59094.18
620.323	59194.29
620.678	59154.29
621.034	59072.26
621.39	59133.5
621.746	59137.57
622.101	59459.37
622.457	59233.61
622.812	59404.68
623.168	59393.38
623.523	59370.11
623.879	59491.23
624.234	59339.37
624.589	59492.59
624.945	59444.68
625.3	59479.03
625.655	59560.38
626.01	59488.75
626.365	59604
626.72	59486.71
627.075	59518.12
627.43	59539.82
627.785	59518.8
628.14	59551.8
628.495	59561.29
628.85	59528.29
629.205	59508.41
629.559	59669.98
629.914	59571.68
630.269	59619.14
630.623	59443.55
630.978	59412.82
631.332	59587.73
631.687	59598.8
632.041	59531.01
632.396	59557.45
632.75	59456.66
633.104	59539.37
633.459	59386.6
633.813	59416.66
634.167	59430.67
634.521	59320.62
634.875	59345.93
635.229	59345.93
635.583	59247.85
635.937	59204.23
636.291	59271.13
636.645	59258.24
636.999	59139.38
637.352	59230.9
637.706	59041.75
638.06	59146.61
638.413	59163.78
638.767	58984.13
639.121	59108.42
639.474	58926.28
639.828	58964.69
640.181	59009.21
640.534	59020.28
640.888	58900.97
641.241	58829.78
641.594	58884.69
641.947	58924.47
642.301	58845.6
642.654	58914.98
643.007	58772.16
643.36	58831.59
643.713	58832.27
644.066	58849.89
644.419	58684.25
644.771	58398.38
645.124	58153.64
645.477	58197.48
645.83	58024.83
646.182	58082.46
646.535	58002.91
646.888	58037.71
647.24	57998.84
647.593	58042
647.945	57945.51
648.298	57888.34
648.65	57838.17
649.002	57648.79
649.355	57664.16
649.707	57637.04
650.059	57587.33
650.411	57958.84
650.763	58063.25
651.115	58364.26
651.467	58264.37
651.819	58327.2
652.171	58230.02
652.523	58141.44
652.875	58218.05
653.227	57995.45
653.578	58279.06
653.93	58160.19
654.282	57988.45
654.633	58024.6
654.985	58054.66
655.337	57961.78
655.688	57978.73
656.039	58097.82
656.391	57812.41
656.742	57942.8
657.094	57952.06
657.445	57949.8
657.796	57907.77
658.147	57882.01
658.498	57881.56
658.849	57946.19
659.2	57821.45
659.551	57686.31
659.902	57943.93
660.253	57727.44
660.604	57782.35
660.955	57661.45
661.306	57800.88
661.656	57669.13
662.007	57678.4
662.358	57710.71
662.708	57669.81
663.059	57625.74
663.409	57498.06
663.76	57704.61
664.11	57662.13
664.461	57717.72
664.811	57711.39
665.161	57594.56
665.511	57621
665.862	57625.29
666.212	57744.16
666.562	57596.37
666.912	57670.04
667.262	57567.44
667.612	57448.57
667.962	57529.93
668.312	57494
668.662	57653.31
669.011	57571.28
669.361	57517.5
669.711	57534.67
670.06	57511.62
670.41	57432.08
670.76	57356.6
671.109	57554.11
671.459	57498.74
671.808	57555.92
672.157	57482.92
672.507	57327.9
672.856	57377.84
673.205	57378.52
673.554	57444.73
673.904	57354.57
674.253	57462.36
674.602	57345.53
674.951	57086.1
675.3	56955.93
675.649	57421.46
675.998	57377.84
676.346	57344.62
676.695	57356.6
677.044	57178.3
677.393	57256.26
677.741	57320.67
678.09	57205.42
678.438	57157.51
678.787	57235.25
679.135	57211.52
679.484	57095.14
679.832	57149.15
680.181	57085.65
680.529	57098.3
680.877	57084.74
681.225	57077.74
681.573	57209.71
681.922	57029.38
682.27	56924.97
682.618	57015.59
682.966	56862.6
683.314	56862.37
683.661	56861.25
684.009	56818.08
684.357	56747.35
684.705	56721.59
685.053	56754.13
685.4	56628.93
685.748	56612.44
686.095	56548.48
686.443	56488.15
686.79	56516.4
687.138	56541.93
687.485	56507.81
687.832	56471.2
688.18	56411.77
688.527	56241.15
688.874	56299.45
689.221	56296.74
689.568	56134.94
689.915	56122.51
690.262	56176.07
690.609	56165.44
690.956	55999.8
691.303	55993.02
691.65	55855.17
691.997	55880.03
692.344	55722.97
692.69	55637.77
693.037	55712.57
693.383	55443.43
693.73	55565.69
694.077	55488.63
694.423	55467.38
694.769	55356.65
695.116	55384.22
695.462	55310.33
695.808	55152.59
696.155	55159.82
696.501	54960.05
696.847	55066.94
697.193	54884.57
697.539	54963.89
697.885	54769.32
698.231	54659.72
698.577	54646.61
698.923	54674.86
699.269	54546.28
699.614	54401.87
699.96	54331.14
700.306	54337.24
700.651	54177.02
700.997	54130.02
701.342	54018.38
701.688	53923.02
702.033	53849.12
702.379	53812.74
702.724	53709.01
703.069	53789.69
703.415	53466.08
703.76	53489.58
704.105	53559.86
704.45	53435.8
704.795	53294.11
705.14	53114.45
705.485	53257.72
705.83	53032.19
706.175	53083.49
706.52	52930.27
706.865	52836.72
707.209	52682.82
707.554	52747
707.899	52739.32
708.243	52615.48
708.588	52608.02
708.932	52405.77
709.277	52428.14
709.621	52354.7
709.966	52090.97
710.31	52097.98
710.654	51900.02
710.998	51986.57
711.342	52032.9
711.687	51867.48
712.031	51819.34
712.375	51684.43
712.719	51671.78
713.063	51617.32
713.407	51823.19
713.75	51480.14
714.094	51462.97
714.438	51291.67
714.782	51309.3
715.125	51150.21
715.469	51417.77
715.812	50971
716.156	51041.29
716.499	50950.21
716.843	50989.76
717.186	50741.18
717.53	51041.29
717.873	50970.33
718.216	50745.47
718.559	50732.37
718.902	50396.1
719.246	50627.51
719.589	50490.57
719.932	50231.14
720.275	50415.99
720.617	50428.65
720.96	50276.33
721.303	50342.32
721.646	50268.42
721.989	50071.14
722.331	50091.93
722.674	50001.99
723.016	49977.58
723.359	49909.56
723.701	49974.87
724.044	49837.25
724.386	49574.66
724.729	49763.8
725.071	49715.22
725.413	49693.75
725.755	49639.74
726.097	49493.76
726.439	49333.76
726.782	49321.78
727.124	49442.01
727.465	49397.71
727.807	49194.33
728.149	49277.04
728.491	49036.14
728.833	49069.13
729.175	49107.78
729.516	48914.56
729.858	48794.34
730.199	49065.29
730.541	48879.76
730.882	48770.16
731.224	48882.92
731.565	48772.42
731.906	48802.02
732.248	48810.61
732.589	48576.49
732.93	48412.2
733.271	48483.61
733.612	48460.79
733.953	48596.15
734.294	48364.29
734.635	48223.28
734.976	48486.32
735.317	48195.94
735.658	48204.98
735.999	48105.09
736.339	48028.71
736.68	48098.09
737.021	48038.65
737.361	47845.21
737.702	48111.42
738.042	47960.01
738.383	47905.1
738.723	47914.59
739.063	47691.77
739.404	47936.73
739.744	47692.9
740.084	47592.79
740.424	47688.6
740.764	47489.29
741.104	47792.78
741.444	47533.81
741.784	47354.38
742.124	47483.41
742.464	47484.99
742.804	47360.93
743.143	47243.42
743.483	47445
743.823	47210.65
744.162	47298.11
744.502	47282.97
744.841	46999.58
745.181	47271.44
745.52	47105.8
745.86	47091.56
746.199	46931.56
746.538	46976.31
746.877	47172.23
747.216	46944.22
747.556	46871.68
747.895	46874.84
748.234	46617.45
748.573	46712.81
748.911	46627.39
749.25	46649.99
749.589	46459.26
749.928	46659.25
750.267	46612.02
750.605	46471.69
750.944	46428.07
751.283	46317.34
751.621	46517.79
751.96	46206.61
752.298	46228.53
752.636	46223.56
752.975	45961.87
753.313	45959.84
753.651	46134.07
753.989	45856.79
754.327	45935.43
754.666	45584.93
755.004	45782.21
