Data from 13-0850_FLMS001491_009.txt Node
Date: Thu Apr 12 17:08:36 BST 2018
User: hsy
Spectrometer: FLMS00149
Trigger mode: 0
Integration Time (sec): 1.000000E-2
Scans to average: 10
Electric dark correction enabled: true
Nonlinearity correction enabled: false
Boxcar width: 0
XAxis mode: Wavelengths
Number of Pixels in Spectrum: 2048
>>>>>Begin Spectral Data<<<<<
341.393	0.85
341.776	0.85
342.16	0.85
342.543	-50.9
342.927	-50.68
343.31	-63.33
343.693	-66.27
344.077	-70.34
344.46	-59.04
344.843	-61.52
345.226	-21.75
345.61	-36.67
345.993	-23.33
346.376	-1.86
346.759	2.43
347.142	7.17
347.525	37.91
347.908	79.94
348.291	67.96
348.674	98.92
349.057	109.77
349.44	142.31
349.823	143.89
350.206	182.54
350.588	237.45
350.971	267.96
351.354	245.36
351.737	280.16
352.119	306.6
352.502	313.16
352.884	321.74
353.267	315.42
353.65	339.37
354.032	350.67
354.414	366.49
354.797	351.8
355.179	359.26
355.562	360.61
355.944	364.45
356.326	381.4
356.709	375.07
357.091	396.09
357.473	375.75
357.855	384.11
358.238	390.89
358.62	385.24
359.002	377.79
359.384	376.43
359.766	393.38
360.148	387.73
360.53	380.05
360.912	386.15
361.294	374.4
361.676	407.62
362.057	377.11
362.439	383.44
362.821	382.08
363.203	377.33
363.584	395.64
363.966	390.22
364.348	373.94
364.729	361.29
365.111	391.12
365.493	391.57
365.874	397.22
366.256	385.24
366.637	365.13
367.019	367.17
367.4	385.7
367.781	371.69
368.163	390.67
368.544	373.04
368.925	369.43
369.306	377.11
369.688	384.57
370.069	373.04
370.45	381.63
370.831	396.09
371.212	389.54
371.593	375.53
371.974	383.89
372.355	368.07
372.736	399.48
373.117	381.63
373.498	385.24
373.879	394.28
374.26	367.39
374.641	401.06
375.021	376.88
375.402	405.81
375.783	394.74
376.163	422.53
376.544	404.68
376.925	399.71
377.305	413.72
377.686	420.95
378.066	445.13
378.447	404.23
378.827	439.93
379.208	408.97
379.588	402.19
379.968	409.88
380.349	408.75
380.729	431.12
381.109	402.87
381.489	429.99
381.87	408.75
382.25	427.5
382.63	432.47
383.01	419.14
383.39	426.6
383.77	434.06
384.15	456.2
384.53	423.21
384.91	440.61
385.29	435.41
385.67	447.84
386.049	457.56
386.429	467.28
386.809	468.86
387.189	438.58
387.568	458.01
387.948	451.01
388.328	458.24
388.707	471.34
389.087	471.12
389.466	476.77
389.846	460.72
390.225	489.87
390.605	492.59
390.984	503.43
391.363	488.74
391.743	503.21
392.122	481.74
392.501	526.71
392.881	503.43
393.26	505.24
393.639	492.81
394.018	514.73
394.397	510.21
394.776	490.33
395.155	516.99
395.534	514.96
395.913	519.7
396.292	541.85
396.671	519.25
397.05	529.65
397.429	549.08
397.808	536.2
398.186	548.63
398.565	564.45
398.944	552.92
399.323	551.34
399.701	546.82
400.08	555.41
400.458	549.76
400.837	580.95
401.215	582.08
401.594	564.67
401.972	558.8
402.351	576.43
402.729	571.45
403.107	599.25
403.486	585.01
403.864	591.11
404.242	583.66
404.62	616.2
404.999	591.57
405.377	613.94
405.755	616.2
406.133	617.78
406.511	629.31
406.889	635.18
407.267	627.95
407.645	647.84
408.023	658.23
408.401	658.46
408.779	670.66
409.156	695.97
409.534	681.28
409.912	686.25
410.29	700.26
410.667	708.17
411.045	714.73
411.422	714.95
411.8	721.51
412.178	741.17
412.555	721.73
412.933	769.87
413.31	764.9
413.687	768.06
414.065	748.17
414.442	779.36
414.819	797.44
415.197	803.31
415.574	808.06
415.951	808.74
416.328	848.51
416.705	832.01
417.082	820.71
417.46	836.98
417.837	867.27
418.214	860.94
418.591	856.87
418.967	880.37
419.344	856.19
419.721	884.44
420.098	898
420.475	890.32
420.852	904.1
421.228	923.08
421.605	886.7
421.982	906.13
422.358	937.55
422.735	933.93
423.111	926.7
423.488	951.56
423.864	972.57
424.241	970.54
424.617	957.43
424.994	1004.89
425.37	982.52
425.746	974.83
426.123	1007.6
426.499	1029.29
426.875	1037.88
427.251	1028.84
427.627	1058.45
428.003	1066.36
428.379	1075.85
428.756	1086.02
429.132	1086.02
429.507	1109.52
429.883	1116.52
430.259	1114.94
430.635	1127.82
431.011	1124.43
431.387	1147.48
431.763	1172.12
432.138	1188.61
432.514	1188.39
432.89	1195.62
433.265	1241.49
433.641	1227.93
434.016	1258.22
434.392	1259.35
434.767	1271.32
435.143	1251.44
435.518	1265.67
435.894	1288.95
436.269	1304.09
436.644	1327.59
437.02	1326.24
437.395	1350.87
437.77	1360.36
438.145	1372.11
438.52	1370.53
438.895	1402.84
439.271	1377.53
439.646	1395.84
440.021	1447.82
440.395	1418.44
440.77	1428.61
441.145	1443.75
441.52	1454.59
441.895	1467.48
442.27	1486.46
442.645	1495.5
443.019	1499.79
443.394	1483.52
443.769	1518.77
444.143	1499.34
444.518	1520.36
444.892	1515.16
445.267	1524.88
445.641	1529.85
446.016	1590.86
446.39	1560.13
446.764	1562.84
447.139	1556.74
447.513	1590.64
447.887	1616.85
448.262	1603.52
448.636	1636.96
449.01	1643.29
449.384	1645.32
449.758	1653.46
450.132	1654.36
450.506	1703.85
450.88	1712.44
451.254	1685.77
451.628	1715.15
452.002	1745.43
452.376	1768.26
452.75	1763.96
453.123	1757.86
453.497	1807.81
453.871	1817.97
454.244	1853
454.618	1880.35
454.992	1909.72
455.365	1906.33
455.739	1957.41
456.112	1973.22
456.486	1996.73
456.859	1963.28
457.232	2012.55
457.606	2047.35
457.979	2061.36
458.352	2101.13
458.725	2158.53
459.099	2143.16
459.472	2174.8
459.845	2230.62
460.218	2236.49
460.591	2256.61
460.964	2239.66
461.337	2279.66
461.71	2317.62
462.083	2379.99
462.456	2361.46
462.829	2384.06
463.201	2443.5
463.574	2444.85
463.947	2424.29
464.32	2523.27
464.692	2514.45
465.065	2525.75
465.438	2558.29
465.81	2611.63
466.183	2628.8
466.555	2666.31
466.928	2716.93
467.3	2692.08
467.672	2749.02
468.045	2805.29
468.417	2807.1
468.789	2827.67
469.161	2839.87
469.534	2920.09
469.906	2950.15
470.278	2986.98
470.65	3027.43
471.022	3092.97
471.394	3086.87
471.766	3160.99
472.138	3154.44
472.51	3237.37
472.882	3265.17
473.253	3319.18
473.625	3320.53
473.997	3432.85
474.369	3436.01
474.74	3495.22
475.112	3569.79
475.484	3619.51
475.855	3648.44
476.227	3709.22
476.598	3807.75
476.97	3862.67
477.341	3923.46
477.713	4008.2
478.084	4027.18
478.455	4113.73
478.827	4179.72
479.198	4358.02
479.569	4307.4
479.94	4445.48
480.311	4521.18
480.682	4586.72
481.053	4755.52
481.424	4799.37
481.795	4887.27
482.166	4975.86
482.537	5002.75
482.908	5185.34
483.279	5223.53
483.65	5413.81
484.021	5478.9
484.391	5504.43
484.762	5635.5
485.133	5734.26
485.503	5835.04
485.874	5988.94
486.244	6096.28
486.615	6203.85
486.985	6324.3
487.356	6454.69
487.726	6630.73
488.097	6748.47
488.467	6839.76
488.837	7036.37
489.207	7074.33
489.578	7338.51
489.948	7490.59
490.318	7623.7
490.688	7653.75
491.058	7878.61
491.428	8053.74
491.798	8211.7
492.168	8417.8
492.538	8508.65
492.908	8739.15
493.278	8918.35
493.648	9022.98
494.017	9262.75
494.387	9395.63
494.757	9555.17
495.126	9714.72
495.496	9911.32
495.866	10217.08
496.235	10340.91
496.605	10488.93
496.974	10713.33
497.344	10948.58
497.713	11081.23
498.082	11308.8
498.452	11521
498.821	11619.98
499.19	11897.03
499.559	12104.48
499.928	12367.53
500.298	12552.61
500.667	12657.69
501.036	12860.4
501.405	13177
501.774	13266.71
502.143	13567.5
502.512	13746.25
502.88	14098.1
503.249	14167.03
503.618	14468.04
503.987	14658.09
504.356	14809.05
504.724	15090.85
505.093	15222.37
505.462	15427.79
505.83	15769.02
506.199	15905.06
506.567	16248.56
506.936	16408.78
507.304	16636.79
507.672	16865.71
508.041	17116.1
508.409	17379.37
508.777	17595.64
509.145	17870.66
509.514	17909.53
509.882	18247.15
510.25	18356.97
510.618	18733.91
510.986	18913.8
511.354	19136.62
511.722	19487.57
512.09	19773.66
512.458	19683.95
512.826	20167.77
513.193	20331.16
513.561	20433.08
513.929	20673.75
514.297	21025.38
514.664	21086.62
515.032	21398.25
515.4	21557.57
515.767	21782.87
516.135	22063.32
516.502	22104.9
516.869	22513.02
517.237	22776.29
517.604	22658.56
517.972	23064.2
518.339	23286.79
518.706	23558.87
519.073	23556.61
519.44	23787.11
519.808	24186.88
520.175	24266.88
520.542	24571.27
520.909	24845.62
521.276	24923.58
521.643	25249.9
522.009	25525.15
522.376	25814.18
522.743	25985.02
523.11	26222.76
523.477	26443.09
523.843	26657.32
524.21	27007.14
524.577	27222.05
524.943	27425.21
525.31	27632.21
525.676	27916.72
526.043	28206.21
526.409	28347.67
526.776	28760.09
527.142	28803.25
527.508	29095
527.874	29407.53
528.241	29698.6
528.607	29672.61
528.973	30009.1
529.339	30041.87
529.705	30469.65
530.071	30706.93
530.437	30954.61
530.803	31115.96
531.169	31400.25
531.535	31352.79
531.901	31581.94
532.267	31699.9
532.632	32040.23
532.998	32195.93
533.364	32346.44
533.73	32648.35
534.095	32882.47
534.461	32844.05
534.826	33068.68
535.192	33158.62
535.557	33455.79
535.923	33532.17
536.288	33584.37
536.653	33839.28
537.019	33843.35
537.384	33990.46
537.749	34129.67
538.114	34445.37
538.479	34371.02
538.845	34557
539.21	34670.9
539.575	34659.6
539.94	34842.19
540.305	35045.58
540.67	34893.26
541.034	35151.56
541.399	35276.76
541.764	35325.12
542.129	35516.52
542.494	35692.79
542.858	35847.81
543.223	35815.72
543.587	36031.99
543.952	36210.06
544.316	36298.88
544.681	36361.93
545.045	36520.11
545.41	36708.13
545.774	36687.34
546.138	36785.64
546.503	36994.45
546.867	36993.77
547.231	37290.04
547.595	37268.57
547.959	37561.67
548.324	37529.58
548.688	37759.18
549.052	37707.43
549.416	37799.18
549.779	37869.68
550.143	37950.13
550.507	38139.05
550.871	38441.42
551.235	38345.38
551.599	38756.89
551.962	38718.47
552.326	38904.46
552.689	39025.58
553.053	38855.19
553.417	39123.89
553.78	39701.72
554.143	39724.55
554.507	39698.33
554.87	39835.05
555.234	40068.27
555.597	40008.84
555.96	40200.02
556.323	40342.16
556.686	40472.55
557.05	40753.67
557.413	40682.26
557.776	40917.74
558.139	41246.09
558.502	41143.49
558.865	41361.79
559.228	41674.33
559.59	41748.68
559.953	41851.72
560.316	42163.58
560.679	42218.95
561.041	42512.72
561.404	42769.89
561.767	43059.83
562.129	43058.7
562.492	43362.19
562.854	43461.63
563.217	43365.58
563.579	43561.96
563.941	43890.31
564.304	44149.97
564.666	44493.91
565.028	44424.31
565.39	44590.41
565.753	44874.02
566.115	45068.59
566.477	45240.79
566.839	45340.22
567.201	45749.25
567.563	45626.99
567.925	45923.93
568.287	46011.84
568.648	46161.44
569.01	46337.71
569.372	46626.97
569.734	46611.6
570.095	46896.56
570.457	47159.83
570.819	47125.71
571.18	47320.06
571.542	47581.74
571.903	47609.09
572.265	47868.06
572.626	48179.24
572.987	48167.72
573.349	48361.16
573.71	48418.33
574.071	48614.26
574.432	48820.13
574.794	49084.3
575.155	49033
575.516	49063.51
575.877	49265.09
576.238	49291.08
576.599	49661.46
576.96	49541.69
577.32	49619.2
577.681	49834.79
578.042	50064.62
578.403	50088.8
578.763	50173.54
579.124	50241.11
579.485	50499.41
579.845	50635.45
580.206	50556.35
580.566	50719.74
580.927	50638.84
581.287	50907.76
581.648	50807.87
582.008	51188.43
582.368	51198.15
582.728	51232.95
583.089	51307.52
583.449	51298.93
583.809	51421.19
584.169	51582.99
584.529	51570.34
584.889	51887.17
585.249	51663.9
585.609	51607.63
585.969	51871.35
586.329	51816.21
586.688	52048.29
587.048	52060.04
587.408	52177.1
587.768	52168.29
588.127	52226.37
588.487	52281.51
588.846	52643.98
589.206	52371
589.565	52509.98
589.925	52802.4
590.284	52727.14
590.643	52859.57
591.003	52929.17
591.362	53134.14
591.721	52976.63
592.08	53158.32
592.44	53361.7
592.799	53234.02
593.158	53330.29
593.517	53385.66
593.876	53540.91
594.235	53594.24
594.593	53594.24
594.952	53757.63
595.311	53756.27
595.67	53914.01
596.029	54011.86
596.387	54116.71
596.746	54169.37
597.104	54153.77
597.463	54263.83
597.822	54483.93
598.18	54390.6
598.538	54437.83
598.897	54593.31
599.255	54527.32
599.613	54845.73
599.972	54725.51
600.33	54845.51
600.688	54848.67
601.046	55016.35
601.404	55148.55
601.762	55150.81
602.12	55315.33
602.478	55325.49
602.836	55419.5
603.194	55282.56
603.552	55385.15
603.91	55436.68
604.268	55497.69
604.625	55611.36
604.983	55752.38
605.341	55609.33
605.698	55858.59
606.056	56011.8
606.413	55892.03
606.771	56149.2
607.128	56091.58
607.485	56075.31
607.843	56165.7
608.2	56319.14
608.557	56421.06
608.914	56339.25
609.272	56515.52
609.629	56602.75
609.986	56649.3
610.343	56691.79
610.7	56864.44
611.057	56886.13
611.414	56864.21
611.771	57056.3
612.127	57061.27
612.484	57119.35
612.841	57200.7
613.198	57074.38
613.554	57148.05
613.911	57376.74
614.267	57438.43
614.624	57370.41
614.98	57441.6
615.337	57542.39
615.693	57529.28
616.05	57619.67
616.406	57734.7
616.762	57712.1
617.118	57747.13
617.475	57787.58
617.831	57901.02
618.187	57933.56
618.543	58003.62
618.899	58113.9
619.255	58063.5
619.611	58060.79
619.967	58178.75
620.323	58268.24
620.678	58285.87
621.034	58194.35
621.39	58185.53
621.746	58275.93
622.101	58464.39
622.457	58345.75
622.812	58469.82
623.168	58489.48
623.523	58527.22
623.879	58567.67
624.234	58474.79
624.589	58581.91
624.945	58566.31
625.3	58597.95
625.655	58607.89
626.01	58662.36
626.365	58715.46
626.72	58624.62
627.075	58585.07
627.43	58710.72
627.785	58654.67
628.14	58676.59
628.495	58662.13
628.85	58749.59
629.205	58652.64
629.559	58732.18
629.914	58657.84
630.269	58672.3
630.623	58524.73
630.978	58440.89
631.332	58665.52
631.687	58605.86
632.041	58624.39
632.396	58634.56
632.75	58534.68
633.104	58672.3
633.459	58521.34
633.813	58444.96
634.167	58411.29
634.521	58488.12
634.875	58569.93
635.229	58491.51
635.583	58374.91
635.937	58397.96
636.291	58388.92
636.645	58372.87
636.999	58243.16
637.352	58336.71
637.706	58163.61
638.06	58303.5
638.413	58234.12
638.767	58224.18
639.121	58259.43
639.474	58160.67
639.828	58112.54
640.181	58083.39
640.534	58126.78
640.888	57982.37
641.241	57902.15
641.594	58001.58
641.947	58054.46
642.301	57964.07
642.654	57996.61
643.007	57862.83
643.36	57992.54
643.713	57856.5
644.066	57964.3
644.419	57767.92
644.771	57520.24
645.124	57301.49
645.477	57219.46
645.83	57123.87
646.182	57127.25
646.535	57071.21
646.888	57155.05
647.24	57052
647.593	57216.29
647.945	57093.13
648.298	56925.68
648.65	56847.04
649.002	56710.09
649.355	56753.03
649.707	56696.76
650.059	56704.22
650.411	57029.63
650.763	57136.29
651.115	57483.4
651.467	57446.34
651.819	57445.66
652.171	57298.1
652.523	57242.51
652.875	57251.77
653.227	57106.24
653.578	57296.29
653.93	57240.02
654.282	57089.29
654.633	57042.29
654.985	57089.97
655.337	57054.94
655.688	57021.5
656.039	57122.06
656.391	56863.31
656.742	56972.91
657.094	56883.65
657.445	56973.81
657.796	56965
658.147	56876.87
658.498	56949.86
658.849	56962.29
659.2	56898.56
659.551	56773.14
659.902	56958.67
660.253	56856.98
660.604	56994.38
660.955	56818.79
661.306	56922.51
661.656	56832.57
662.007	56777.21
662.358	56828.51
662.708	56819.01
663.059	56778.79
663.409	56565.01
663.76	56752.12
664.11	56762.07
664.461	56778.56
664.811	56754.16
665.161	56721.62
665.511	56663.76
665.862	56737.66
666.212	56679.81
666.562	56641.84
666.912	56678
667.262	56594.39
667.612	56598.46
667.962	56652.24
668.312	56512.81
668.662	56712.12
669.011	56639.58
669.361	56544.22
669.711	56547.84
670.06	56466.93
670.41	56462.41
670.76	56491.57
671.109	56504.45
671.459	56486.37
671.808	56510.32
672.157	56545.8
672.507	56319.82
672.856	56371.34
673.205	56414.96
673.554	56504.67
673.904	56380.38
674.253	56577.89
674.602	56334.96
674.951	56005.02
675.3	55894.75
675.649	56399.14
675.998	56373.15
676.346	56356.88
676.695	56424.9
677.044	56275.53
677.393	56371.34
677.741	56414.05
678.09	56343.09
678.438	56226.71
678.787	56241.4
679.135	56306.49
679.484	56122.31
679.832	56323.89
680.181	56137.22
680.529	56121.86
680.877	56106.94
681.225	56123.44
681.573	56226.49
681.922	56116.43
682.27	56031.92
682.618	56026.04
682.966	55930.68
683.314	56023.1
683.661	55984.01
684.009	55813.17
684.357	55750.12
684.705	55783.11
685.053	55818.36
685.4	55750.57
685.748	55655.88
686.095	55656.11
686.443	55494.3
686.79	55459.05
687.138	55582.89
687.485	55496.79
687.832	55509.44
688.18	55435.1
688.527	55395.78
688.874	55347.64
689.221	55283.91
689.568	55245.27
689.915	55164.59
690.262	55260.86
690.609	55182
690.956	55024.49
691.303	55031.94
691.65	54964.6
691.997	54907.65
692.344	54788.56
692.69	54780.88
693.037	54814.55
693.383	54569.81
693.73	54647.32
694.077	54508.57
694.423	54472.18
694.769	54410.94
695.116	54425.18
695.462	54266.09
695.808	54199.87
696.155	54205.98
696.501	54010.5
696.847	54049.14
697.193	53841.92
697.539	53902.93
697.885	53777.74
698.231	53666.1
698.577	53666.56
698.923	53621.58
699.269	53443.74
699.614	53273.12
699.96	53208.04
700.306	53378.43
700.651	53196.96
700.997	53038.77
701.342	53036.74
701.688	52915.39
702.033	52917.2
702.379	52834.94
702.724	52676.98
703.069	52830.42
703.415	52402.86
703.76	52360.37
704.105	52401.73
704.45	52292.81
704.795	52243.09
705.14	52121.28
705.485	52063.21
705.83	51936.88
706.175	51994.73
706.52	51898.24
706.865	51739.37
707.209	51664.57
707.554	51618.25
707.899	51670
708.243	51550.68
708.588	51406.5
708.932	51285.6
709.277	51366.95
709.621	51224.59
709.966	50950.02
710.31	51075.66
710.654	50856.69
710.998	50905.5
711.342	50925.16
711.687	50729.01
712.031	50718.16
712.375	50479.97
712.719	50507.54
713.063	50482.91
713.407	50514.32
713.75	50265.51
714.094	50334.21
714.438	50060.77
714.782	50176.25
715.125	49969.7
715.469	50104.39
715.812	49850.61
716.156	49749.6
716.499	49772.65
716.843	49892.42
717.186	49511.86
717.53	49741.01
717.873	49742.82
718.216	49583.5
718.559	49442.71
718.902	49099.9
719.246	49192.77
719.589	49228.03
719.932	48983.74
720.275	49126.56
720.617	48997.98
720.96	48821.94
721.303	49080.23
721.646	48951.65
721.989	48801.82
722.331	48875.04
722.674	48645.44
723.016	48709.17
723.359	48522.96
723.701	48462.62
724.044	48355.96
724.386	48221.95
724.729	48410.65
725.071	48223.53
725.413	48210.88
725.755	48221.05
726.097	48077.1
726.439	47974.28
726.782	47789.42
727.124	48129.07
727.465	48003.43
727.807	47767.73
728.149	47766.15
728.491	47770.21
728.833	47709.88
729.175	47660.61
729.516	47541.74
729.858	47580.39
730.199	47661.52
730.541	47482.76
730.882	47413.16
731.224	47365.48
731.565	47346.04
731.906	47317.34
732.248	47310.11
732.589	47080.51
732.93	47139.04
733.271	47177.46
733.612	47118.48
733.953	47243.9
734.294	47023.11
734.635	46931.36
734.976	47121.87
735.317	46971.14
735.658	46898.37
735.999	46756.91
736.339	46723.91
736.68	46713.74
737.021	46759.84
737.361	46656.34
737.702	46828.77
738.042	46615.67
738.383	46592.39
738.723	46657.93
739.063	46509.91
739.404	46592.84
739.744	46406.86
740.084	46286.18
740.424	46457.48
740.764	46272.17
741.104	46512.39
741.444	46283.25
741.784	46071.05
742.124	46325.73
742.464	46244.38
742.804	46156.24
743.143	45937.94
743.483	46209.35
743.823	45899.98
744.162	45989.24
744.502	45970.26
744.841	45758.74
745.181	45914.22
745.52	45735.92
745.86	45787.21
746.199	45623.38
746.538	45668.12
746.877	45773.88
747.216	45550.84
747.556	45591.74
747.895	45620.44
748.234	45498.18
748.573	45334.8
748.911	45381.35
749.25	45315.14
749.589	45043.5
749.928	45311.97
750.267	45204.63
750.605	45123.05
750.944	45049.61
751.283	44857.75
751.621	45008.48
751.96	44752.89
752.298	44760.35
752.636	44762.83
752.975	44617.53
753.313	44550.41
753.651	44721.03
753.989	44391.77
754.327	44441.26
754.666	44220.25
755.004	44339.79
