Data from 14-0852_FLMS001491_010.txt Node
Date: Thu Apr 12 17:07:20 BST 2018
User: hsy
Spectrometer: FLMS00149
Trigger mode: 0
Integration Time (sec): 1.000000E-2
Scans to average: 10
Electric dark correction enabled: true
Nonlinearity correction enabled: false
Boxcar width: 0
XAxis mode: Wavelengths
Number of Pixels in Spectrum: 2048
>>>>>Begin Spectral Data<<<<<
341.393	-23.9
341.776	-23.9
342.16	-23.9
342.543	-70.45
342.927	-78.36
343.31	-75.65
343.693	-64.57
344.077	-93.27
344.46	-76.78
344.843	-56.89
345.226	-46.27
345.61	-28.19
345.993	2.54
346.376	5.48
346.759	14.75
347.142	19.94
347.525	40.28
347.908	64.91
348.291	85.25
348.674	90
349.057	118.47
349.44	144.23
349.823	142.43
350.206	179.03
350.588	233.5
350.971	233.27
351.354	269.88
351.737	275.53
352.119	279.82
352.502	309.2
352.884	303.55
353.267	327.28
353.65	332.7
354.032	360.95
354.414	330.22
354.797	349.65
355.179	345.81
355.562	357.79
355.944	367.05
356.326	394.62
356.709	379.03
357.091	380.61
357.473	389.42
357.855	388.07
358.238	373.83
358.62	368.86
359.002	382.19
359.384	390.55
359.766	395.07
360.148	384.23
360.53	381.97
360.912	395.07
361.294	371.57
361.676	387.39
362.057	372.93
362.439	388.75
362.821	380.39
363.203	365.92
363.584	374.51
363.966	392.81
364.348	370.44
364.729	387.39
365.111	372.48
365.493	389.65
365.874	379.93
366.256	360.27
366.637	368.41
367.019	367.73
367.4	364.34
367.781	371.57
368.163	366.6
368.544	364.57
368.925	365.7
369.306	349.43
369.688	362.98
370.069	366.15
370.45	364.79
370.831	381.06
371.212	379.03
371.593	373.15
371.974	390.33
372.355	373.15
372.736	380.16
373.117	393.49
373.498	376.09
373.879	367.73
374.26	377.22
374.641	343.1
375.021	384.23
375.402	396.88
375.783	389.2
376.163	401.4
376.544	395.75
376.925	391.23
377.305	400.05
377.686	414.51
378.066	388.07
378.447	400.5
378.827	394.17
379.208	400.95
379.588	410.67
379.968	423.77
380.349	440.04
380.729	415.41
381.109	408.86
381.489	409.54
381.87	412.02
382.25	418.35
382.63	423.55
383.01	423.1
383.39	419.71
383.77	420.61
384.15	428.52
384.53	417.67
384.91	439.59
385.29	446.37
385.67	436.66
386.049	432.36
386.429	440.72
386.809	440.27
387.189	456.54
387.568	459.93
387.948	456.77
388.328	475.75
388.707	469.87
389.087	458.12
389.466	475.07
389.846	461.74
390.225	453.15
390.605	484.11
390.984	483.21
391.363	483.89
391.743	490.44
392.122	495.18
392.501	480.5
392.881	504.22
393.26	508.07
393.639	505.58
394.018	494.05
394.397	515.3
394.776	515.07
395.155	516.2
395.534	502.87
395.913	522.75
396.292	513.72
396.671	536.77
397.05	529.31
397.429	538.8
397.808	511.46
398.186	529.31
398.565	509.42
398.944	532.47
399.323	533.6
399.701	532.02
400.08	518.01
400.458	555.75
400.837	543.55
401.215	552.58
401.594	548.97
401.972	546.26
402.351	562.53
402.729	567.27
403.107	572.7
403.486	583.54
403.864	561.17
404.242	587.16
404.62	570.66
404.999	585.35
405.377	586.48
405.755	587.84
406.133	594.39
406.511	619.7
406.889	627.38
407.267	623.99
407.645	623.99
408.023	646.37
408.401	623.77
408.779	637.33
409.156	656.08
409.534	649.3
409.912	653.15
410.29	687.5
410.667	670.77
411.045	680.94
411.422	680.04
411.8	697.67
412.178	682.75
412.555	682.98
412.933	713.48
413.31	712.13
413.687	712.13
414.065	711
414.442	732.24
414.819	741.96
415.197	744.22
415.574	739.25
415.951	752.81
416.328	753.03
416.705	737.89
417.082	750.55
417.46	768.62
417.837	756.42
418.214	783.31
418.591	800.71
418.967	788.06
419.344	792.13
419.721	801.62
420.098	798.91
420.475	795.06
420.852	834.16
421.228	822.18
421.605	814.05
421.982	859.47
422.358	840.03
422.735	835.51
423.111	830.32
423.488	851.33
423.864	868.96
424.241	861.5
424.617	872.58
424.994	878.23
425.37	876.87
425.746	864.89
426.123	923.87
426.499	894.27
426.875	909.86
427.251	906.7
427.627	934.95
428.003	934.27
428.379	960.48
428.756	973.36
429.132	962.74
429.507	962.52
429.883	987.15
430.259	1005.68
430.635	1009.52
431.011	992.35
431.387	1028.96
431.763	1030.99
432.138	1033.25
432.514	1048.16
432.89	1076.19
433.265	1083.64
433.641	1109.18
434.016	1101.5
434.392	1099.69
434.767	1130.65
435.143	1117.54
435.518	1112.34
435.894	1145.34
436.269	1148.5
436.644	1166.13
437.02	1188.27
437.395	1169.74
437.77	1181.27
438.145	1231.44
438.52	1204.54
438.895	1247.93
439.271	1240.48
439.646	1245.9
440.021	1249.97
440.395	1265.79
440.77	1235.5
441.145	1274.15
441.52	1258.55
441.895	1289.51
442.27	1273.24
442.645	1283.41
443.019	1311.89
443.394	1298.33
443.769	1314.37
444.143	1297.88
444.518	1325.9
444.892	1342.39
445.267	1342.85
445.641	1359.57
446.016	1351.66
446.39	1353.02
446.764	1363.64
447.139	1349.4
447.513	1387.14
447.887	1392.34
448.262	1377.42
448.636	1421.94
449.01	1445.44
449.384	1436.18
449.758	1451.77
450.132	1481.37
450.506	1453.58
450.88	1460.36
451.254	1507.14
451.628	1497.64
452.002	1507.59
452.376	1527.7
452.75	1558.89
453.123	1567.92
453.497	1573.12
453.871	1571.77
454.244	1584.42
454.618	1627.36
454.992	1663.74
455.365	1664.19
455.739	1681.14
456.112	1709.16
456.486	1698.99
456.859	1738.32
457.232	1760.24
457.606	1774.47
457.979	1807.92
458.352	1825.77
458.725	1833
459.099	1872.55
459.472	1880.69
459.845	1925.66
460.218	1928.37
460.591	1932.44
460.964	1928.37
461.337	1970.4
461.71	2011.98
462.083	2040
462.456	2039.1
462.829	2073.67
463.201	2091.53
463.574	2110.51
463.947	2143.28
464.32	2153.45
464.692	2193.9
465.065	2191.86
465.438	2207.91
465.81	2210.62
466.183	2246.33
466.555	2304.18
466.928	2268.7
467.3	2330.84
467.672	2358.64
468.045	2377.85
468.417	2406.55
468.789	2416.94
469.161	2463.27
469.534	2508.47
469.906	2535.58
470.278	2535.13
470.65	2570.38
471.022	2635.24
471.394	2657.61
471.766	2700.55
472.138	2743.94
472.51	2775.12
472.882	2841.79
473.253	2869.36
473.625	2880.21
473.997	2925.63
474.369	2969.7
474.74	3020.99
475.112	3068.68
475.484	3087.88
475.855	3151.39
476.227	3159.52
476.598	3251.27
476.97	3298.5
477.341	3365.39
477.713	3393.19
478.084	3480.87
478.455	3558.38
478.827	3588.66
479.198	3675.67
479.569	3663.24
479.94	3794.31
480.311	3822.1
480.682	3922.21
481.053	4059.84
481.424	4066.16
481.795	4154.3
482.166	4284.46
482.537	4274.75
482.908	4402.88
483.279	4463.89
483.65	4522.65
484.021	4653.27
484.391	4755.64
484.762	4821.85
485.133	4863.88
485.503	4972.81
485.874	5074.73
486.244	5115.18
486.615	5286.7
486.985	5390.88
487.356	5547.03
487.726	5582.28
488.097	5754.48
488.467	5836.74
488.837	5946.11
489.207	6069.28
489.578	6260.23
489.948	6327.35
490.318	6484.41
490.688	6560.11
491.058	6686.89
491.428	6861.35
491.798	6984.96
492.168	7204.84
492.538	7342.91
492.908	7488.22
493.278	7640.99
493.648	7748.33
494.017	7938.6
494.387	8131.82
494.757	8279.84
495.126	8405.03
495.496	8545.14
495.866	8718.47
496.235	8946.04
496.605	9082.3
496.974	9227.84
497.344	9462.63
497.713	9560.03
498.082	9794.38
498.452	10009.51
498.821	10236.85
499.19	10291.99
499.559	10632.55
499.928	10671.41
500.298	10920.45
500.667	11174.23
501.036	11320.21
501.405	11567.21
501.774	11714.1
502.143	11965.17
502.512	12210.81
502.88	12481.99
503.249	12639.72
503.618	12921.52
503.987	12974.4
504.356	13284.23
504.724	13546.59
505.093	13711.33
505.462	13887.6
505.83	14133.47
506.199	14318.55
506.567	14696.17
506.936	14786.79
507.304	15116.95
507.672	15269.94
508.041	15458.86
508.409	15805.97
508.777	16006.64
509.145	16284.6
509.514	16437.14
509.882	16690.92
510.25	16861.53
510.618	17117.8
510.986	17231.24
511.354	17540.16
511.722	17890.43
512.09	18184.21
512.458	18155.06
512.826	18466.46
513.193	18670.53
513.561	18857.41
513.929	19075.94
514.297	19348.93
514.664	19602.7
515.032	19736.71
515.4	20014.22
515.767	20063.94
516.135	20403.14
516.502	20265.51
516.869	20845.61
517.237	20972.16
517.604	20934.42
517.972	21472.49
518.339	21589.32
518.706	21746.83
519.073	21906.15
519.44	22084.67
519.808	22427.26
520.175	22508.62
520.542	22862.51
520.909	22962.39
521.276	23168.26
521.643	23417.29
522.009	23665.2
522.376	23853.44
522.743	24158.07
523.11	24466.31
523.477	24748.33
523.843	24869.69
524.21	25230.81
524.577	25348.54
524.943	25527.75
525.31	25658.59
525.676	26070.33
526.043	26318.91
526.409	26405.01
526.776	26880.48
527.142	26907.15
527.508	27117.54
527.874	27448.15
528.241	27586.22
528.607	27680.23
528.973	28082.48
529.339	28211.52
529.705	28613.32
530.071	28728.34
530.437	28907.32
530.803	29043.36
531.169	29268.67
531.535	29396.35
531.901	29602.67
532.267	29730.12
532.632	29991.58
532.998	30205.82
533.364	30427.96
533.73	30425.47
534.095	30773.71
534.461	30795.86
534.826	30916.08
535.192	31001.95
535.557	31329.18
535.923	31538.21
536.288	31534.82
536.653	31940.91
537.019	31922.15
537.384	31992.21
537.749	32078.99
538.114	32164.63
538.479	32289.6
538.845	32419.32
539.21	32464.06
539.575	32633.32
539.94	32668.35
540.305	32970.49
540.67	32951.96
541.034	33092.75
541.399	33238.96
541.764	33311.27
542.129	33432.17
542.494	33596.46
542.858	33811.37
543.223	33812.95
543.587	33995.09
543.952	33828.55
544.316	34164.58
544.681	34069.44
545.045	34331.13
545.41	34624.23
545.774	34560.73
546.138	34632.14
546.503	34661.74
546.867	34960.49
547.231	35005.01
547.595	35123.43
547.959	35266.93
548.324	35228.73
548.688	35479.8
549.052	35583.3
549.416	35588.27
549.779	35598.22
550.143	35753.24
550.507	36045.66
550.871	36077.53
551.235	36175.6
551.599	36567.23
551.962	36498.08
552.326	36638.19
552.689	36602.26
553.053	36518.42
553.417	36813.55
553.78	37213.09
554.143	37158.85
554.507	37343.26
554.87	37508.9
555.234	37759.97
555.597	37660.76
555.96	37813.3
556.323	37948.44
556.686	38091.03
557.05	38460.06
557.413	38430.01
557.776	38477.69
558.139	38772.37
558.502	38956.32
558.865	38726.95
559.228	39275.18
559.59	39485.12
559.953	39428.85
560.316	39822.06
560.679	39769.63
561.041	40071.77
561.404	40211.88
561.767	40565.09
562.129	40479.44
562.492	40845.08
562.854	40869.72
563.217	40869.94
563.579	41075.36
563.941	41538.63
564.304	41476.03
564.666	42142.68
565.028	41979.52
565.39	42074.66
565.753	42285.72
566.115	42426.06
566.477	42640.97
566.839	42840.29
567.201	43117.34
567.563	43021.3
567.925	43421.74
568.287	43313.27
568.648	43609.08
569.01	43887.94
569.372	44206.13
569.734	44016.53
570.095	44421.94
570.457	44642.95
570.819	44799.78
571.18	44808.82
571.542	45322.93
571.903	45044.3
572.265	45481.8
572.626	45760.89
572.987	45720.66
573.349	46004.95
573.71	46015.8
574.071	46221.21
574.432	46482.45
574.794	46758.6
575.155	46832.95
575.516	46847.41
575.877	47124.02
576.238	47094.64
576.599	47352.71
576.96	47566.94
577.32	47538.92
577.681	47760.38
578.042	47923.54
578.403	48045.12
578.763	48152.01
579.124	48260.03
579.485	48587.48
579.845	48691.21
580.206	48672.22
580.566	48909.5
580.927	48975.27
581.287	49142.95
581.648	49237.63
582.008	49537.96
582.368	49515.82
582.728	49784.74
583.089	49723.27
583.449	49855.69
583.809	49990.38
584.169	50217.04
584.529	50171.84
584.889	50575.45
585.249	50410.93
585.609	50455.68
585.969	50824.03
586.329	50933.86
586.688	51060.18
587.048	51085.94
587.408	51205.04
587.768	51320.74
588.127	51496.1
588.487	51513.5
588.846	51895.87
589.206	51722.76
589.565	51938.58
589.925	52265.35
590.284	52140.15
590.643	52285.91
591.003	52473.25
591.362	52672.57
591.721	52776.52
592.08	52875.73
592.44	53073.69
592.799	53033.46
593.158	53168.83
593.517	53214.02
593.876	53437.3
594.235	53426.9
594.593	53598.87
594.952	53790.96
595.311	53811.52
595.67	53962.71
596.029	54154.34
596.387	54320.66
596.746	54534.44
597.104	54347.78
597.463	54492.41
597.822	54780.76
598.18	54702.57
598.538	54824.15
598.897	55060.76
599.255	54951.38
599.613	55385.04
599.972	55266.63
600.33	55453.74
600.688	55470.46
601.046	55580.74
601.404	55798.59
601.762	55851.47
602.12	56041.97
602.478	56096.89
602.836	56227.5
603.194	56061.86
603.552	56188.41
603.91	56258.46
604.268	56438.12
604.625	56499.81
604.983	56684.22
605.341	56568.51
605.698	56809.86
606.056	56979.8
606.413	56935.06
606.771	57118.78
607.128	57108.39
607.485	57133.47
607.843	57222.73
608.2	57381.37
608.557	57514.48
608.914	57515.83
609.272	57663.63
609.629	57879.66
609.986	57935.93
610.343	57913.56
610.7	58115.59
611.057	58097.06
611.414	58125.31
611.771	58311.97
612.127	58366.66
612.484	58439.2
612.841	58454.11
613.198	58432.64
613.554	58438.75
613.911	58700.43
614.267	58723.94
614.624	58730.04
614.98	58875.12
615.337	59000.09
615.693	59027.21
616.05	59067.43
616.406	59225.17
616.762	59194.66
617.118	59242.11
617.475	59238.72
617.831	59401.21
618.187	59393.3
618.543	59434.88
618.899	59596.46
619.255	59599.17
619.611	59596.46
619.967	59667.41
620.323	59803
620.678	59700.86
621.034	59744.93
621.39	59703.35
621.746	59800.07
622.101	60079.61
622.457	59859.95
622.812	60049.33
623.168	60114.18
623.523	60042.55
623.879	60141.53
624.234	60050.45
624.589	60095.88
624.945	60205.25
625.3	60196.44
625.655	60283.22
626.01	60301.52
626.365	60266.04
626.72	60229.43
627.075	60190.34
627.43	60273.05
627.785	60269.21
628.14	60271.01
628.495	60250.68
628.85	60391.01
629.205	60177.68
629.559	60385.14
629.914	60239.15
630.269	60244.12
630.623	60207.51
630.978	60176.33
631.332	60303.56
631.687	60325.7
632.041	60280.51
632.396	60240.73
632.75	60262.88
633.104	60268.75
633.459	60121.19
633.813	60171.58
634.167	60192.82
634.521	60092.49
634.875	60165.71
635.229	60123.45
635.583	60024.69
635.937	60053.39
636.291	60073.73
636.645	60011.81
636.999	59940.85
637.352	60071.47
637.706	59920.74
638.06	59960.51
638.413	59906.28
638.767	59851.59
639.121	59880.29
639.474	59836.45
639.828	59784.93
640.181	59792.83
640.534	59839.39
640.888	59692.05
641.241	59648.88
641.594	59612.5
641.947	59698.83
642.301	59609.56
642.654	59677.13
643.007	59552.16
643.36	59637.36
643.713	59563.91
644.066	59674.42
644.419	59522.79
644.771	59195.79
645.124	59005.06
645.477	58993.99
645.83	58920.77
646.182	58876.02
646.535	58828.34
646.888	58905.85
647.24	58824.05
647.593	58956.02
647.945	58871.05
648.298	58734.11
648.65	58653.2
649.002	58510.38
649.355	58499.31
649.707	58409.37
650.059	58466.77
650.411	58764.61
650.763	58845.29
651.115	59243.92
651.467	59103.36
651.819	59116.92
652.171	59044.61
652.523	59027.43
652.875	58966.64
653.227	58865.4
653.578	59046.87
653.93	58943.37
654.282	58790.15
654.633	58777.27
654.985	58868.11
655.337	58858.85
655.688	58813.43
656.039	58852.75
656.391	58650.72
656.742	58723.48
657.094	58675.8
657.445	58752.64
657.796	58670.38
658.147	58643.94
658.498	58708.34
658.849	58693.43
659.2	58611.62
659.551	58486.2
659.902	58665.63
660.253	58537.27
660.604	58619.31
660.955	58437.16
661.306	58583.83
661.656	58527.11
662.007	58482.36
662.358	58495.02
662.708	58514.45
663.059	58448.24
663.409	58382.7
663.76	58534.11
664.11	58464.28
664.461	58476.26
664.811	58475.13
665.161	58419.54
665.511	58344.96
665.862	58362.59
666.212	58426.99
666.562	58430.16
666.912	58415.92
667.262	58263.61
667.612	58339.99
667.962	58378.41
668.312	58270.39
668.662	58457.5
669.011	58304.06
669.361	58288.69
669.711	58344.74
670.06	58243.72
670.41	58245.3
670.76	58184.52
671.109	58238.75
671.459	58190.39
671.808	58193.55
672.157	58278.75
672.507	58104.07
672.856	58118.3
673.205	58227.45
673.554	58158.98
673.904	58093.22
674.253	58317.39
674.602	58154.46
674.951	57839.67
675.3	57686.9
675.649	58110.17
675.998	58214.57
676.346	58114.69
676.695	58119.43
677.044	57988.81
677.393	58098.64
677.741	58187.68
678.09	58019.77
678.438	57934.13
678.787	58033.78
679.135	58061.58
679.484	57898.65
679.832	57999.66
680.181	57891.87
680.529	57957.18
680.877	57904.3
681.225	57826.11
681.573	58048.47
681.922	57868.37
682.27	57779.78
682.618	57751.31
682.966	57647.35
683.314	57690.74
683.661	57736.62
684.009	57676.96
684.357	57549.96
684.705	57510.18
685.053	57568.03
685.4	57468.38
685.748	57507.92
686.095	57451.2
686.443	57378.66
686.79	57324.88
687.138	57404.87
687.485	57292.79
687.832	57156.29
688.18	57231.77
688.527	57222.51
688.874	57205.11
689.221	57126.69
689.568	57023.87
689.915	57017.99
690.262	56980.03
690.609	56955.85
690.956	56818.9
691.303	56913.14
691.65	56742.29
691.997	56753.59
692.344	56609.19
692.69	56571.22
693.037	56613.48
693.383	56388.18
693.73	56480.61
694.077	56362.19
694.423	56366.94
694.769	56264.57
695.116	56346.6
695.462	56161.29
695.808	56134.63
696.155	56108.19
696.501	55947.96
696.847	55972.14
697.193	55846.05
697.539	55918.13
697.885	55654.86
698.231	55615.54
698.577	55652.15
698.923	55671.81
699.269	55429.33
699.614	55388.2
699.96	55272.95
700.306	55328.09
700.651	55196.35
700.997	55090.13
701.342	55032.06
701.688	55039.06
702.033	54971.72
702.379	54904.83
702.724	54777.15
703.069	54866.86
703.415	54540.32
703.76	54622.58
704.105	54567.21
704.45	54406.54
704.795	54315.01
705.14	54293.77
705.485	54259.42
705.83	54144.62
706.175	54242.92
706.52	54031.4
706.865	54030.73
707.209	53902.82
707.554	53844.29
707.899	53893.33
708.243	53680.68
708.588	53646.33
708.932	53568.37
709.277	53615.82
709.621	53414.7
709.966	53316.39
710.31	53326.79
710.654	53142.16
710.998	53183.52
711.342	53198.21
711.687	53154.37
712.031	52973.58
712.375	52880.25
712.719	52861.49
713.063	52835.5
713.407	52922.05
713.75	52759.12
714.094	52685
714.438	52613.36
714.782	52567.49
715.125	52320.94
715.469	52561.84
715.812	52233.03
716.156	52228.29
716.499	52242.75
716.843	52270.09
717.186	52119.59
717.53	52161.62
717.873	52170.66
718.216	52034.85
718.559	51929.54
718.902	51757.57
719.246	51873.49
719.589	51641.41
719.932	51584.01
720.275	51572.03
720.617	51615.2
720.96	51475.99
721.303	51515.31
721.646	51515.99
721.989	51254.3
722.331	51456.78
722.674	51262.21
723.016	51186.96
723.359	51204.59
723.701	51168.43
724.044	51035.55
724.386	50812.28
724.729	50948.1
725.071	50860.87
725.413	50903.58
725.755	50822.45
726.097	50711.72
726.439	50570.03
726.782	50565.96
727.124	50676.46
727.465	50531.61
727.807	50445.74
728.149	50414.1
728.491	50270.37
728.833	50393.08
729.175	50197.83
729.516	50261.11
729.858	50171.62
730.199	50211.84
730.541	50170.49
730.882	50001.45
731.224	50058.63
731.565	49860.44
731.906	49949.03
732.248	50036.48
732.589	49764.85
732.93	49691.86
733.271	49770.95
733.612	49645.3
733.953	49775.02
734.294	49584.52
734.635	49549.49
734.976	49638.98
735.317	49440.56
735.658	49464.29
735.999	49247.12
736.339	49382.03
736.68	49269.95
737.021	49293.9
737.361	49136.39
737.702	49322.6
738.042	49168.71
738.383	49255.48
738.723	49227.24
739.063	48998.99
739.404	49190.63
739.744	48928.04
740.084	48830.64
740.424	48983.18
740.764	48824.31
741.104	48995.6
741.444	48792.45
741.784	48663.41
742.124	48837.64
742.464	48624.31
742.804	48598.33
743.143	48531.44
743.483	48448.95
743.823	48410.76
744.162	48429.07
744.502	48465.45
744.841	48162.18
745.181	48364.21
745.52	48146.14
745.86	48262.52
746.199	48180.48
746.538	48130.09
746.877	48102.52
747.216	48108.62
747.556	47929.42
747.895	48015.97
748.234	47975.07
748.573	47807.61
748.911	47673.83
749.25	47659.37
749.589	47521.29
749.928	47576.66
750.267	47523.78
750.605	47412.37
750.944	47414.85
751.283	47285.59
751.621	47426.38
751.96	47147.52
752.298	47181.19
752.636	47212.6
752.975	46928.31
753.313	46847.19
753.651	47038.14
753.989	46726.74
754.327	46781.65
754.666	46549.79
