Data from 14-0848_FLMS001491_002.txt Node
Date: Thu Apr 19 16:08:10 BST 2018
User: hsy
Spectrometer: FLMS00149
Trigger mode: 0
Integration Time (sec): 1.000000E-2
Scans to average: 10
Electric dark correction enabled: true
Nonlinearity correction enabled: false
Boxcar width: 0
XAxis mode: Wavelengths
Number of Pixels in Spectrum: 2048
>>>>>Begin Spectral Data<<<<<
341.393	7.77
341.776	7.77
342.16	7.77
342.543	-69.29
342.927	-65.9
343.31	-83.75
343.693	-31.55
344.077	-72.68
344.46	-48.28
344.843	-43.3
345.226	-38.33
345.61	-35.39
345.993	-30.2
346.376	-30.87
346.759	17.94
347.142	19.75
347.525	44.15
347.908	54.32
348.291	72.85
348.674	103.81
349.057	101.55
349.44	142.68
349.823	136.58
350.206	190.14
350.588	240.53
350.971	255.45
351.354	263.13
351.737	284.37
352.119	303.35
352.502	285.5
352.884	318.27
353.267	311.71
353.65	337.93
354.032	368.89
354.414	338.38
354.797	341.32
355.179	360.53
355.562	364.37
355.944	371.37
356.326	371.6
356.709	375.22
357.091	370.02
357.473	396.46
357.855	398.27
358.238	386.52
358.62	394.42
359.002	400.07
359.384	384.03
359.766	381.54
360.148	395.78
360.53	393.52
360.912	401.88
361.294	383.58
361.676	380.19
362.057	371.37
362.439	362.79
362.821	379.96
363.203	379.74
363.584	386.06
363.966	370.24
364.348	349
364.729	367.08
365.111	377.7
365.493	359.62
365.874	366.4
366.256	368.66
366.637	369.34
367.019	363.92
367.4	385.84
367.781	375.67
368.163	379.28
368.544	384.71
368.925	363.24
369.306	387.65
369.688	371.83
370.069	380.19
370.45	377.93
370.831	390.81
371.212	377.48
371.593	398.72
371.974	381.54
372.355	389.68
372.736	378.15
373.117	379.06
373.498	364.37
373.879	390.13
374.26	382.9
374.641	380.87
375.021	395.1
375.402	392.39
375.783	392.62
376.163	415.67
376.544	407.08
376.925	408.66
377.305	402.33
377.686	400.98
378.066	402.33
378.447	423.12
378.827	400.53
379.208	407.08
379.588	412.5
379.968	420.64
380.349	408.66
380.729	412.5
381.109	424.03
381.489	438.49
381.87	427.87
382.25	421.77
382.63	431.71
383.01	424.93
383.39	436.91
383.77	417.93
384.15	417.93
384.53	398.27
384.91	424.03
385.29	444.37
385.67	438.04
386.049	444.82
386.429	425.16
386.809	457.25
387.189	454.08
387.568	448.89
387.948	457.93
388.328	449.34
388.707	475.1
389.087	452.73
389.466	485.04
389.846	480.3
390.225	483.46
390.605	492.5
390.984	468.1
391.363	466.06
391.743	463.8
392.122	480.52
392.501	480.07
392.881	513.52
393.26	490.02
393.639	507.64
394.018	506.06
394.397	507.87
394.776	497.7
395.155	500.86
395.534	512.16
395.913	537.02
396.292	501.31
396.671	537.02
397.05	534.53
397.429	537.02
397.808	531.82
398.186	509.45
398.565	520.98
398.944	514.87
399.323	537.25
399.701	526.62
400.08	540.64
400.458	552.39
400.837	540.86
401.215	554.87
401.594	548.54
401.972	555.78
402.351	564.59
402.729	565.95
403.107	579.73
403.486	567.75
403.864	586.28
404.242	591.48
404.62	617.24
404.999	600.97
405.377	577.24
405.755	607.3
406.133	630.12
406.511	610.69
406.889	621.09
407.267	627.86
407.645	631.48
408.023	666.28
408.401	645.27
408.779	648.2
409.156	650.46
409.534	649.11
409.912	668.99
410.29	670.58
410.667	687.52
411.045	700.63
411.422	704.02
411.8	708.99
412.178	722.1
412.555	710.8
412.933	723.68
413.31	728.2
413.687	748.09
414.065	754.19
414.442	749.9
414.819	785.37
415.197	751.25
415.574	782.66
415.951	787.18
416.328	802.1
416.705	791.48
417.082	790.35
417.46	816.11
417.837	828.99
418.214	813.4
418.591	838.48
418.967	820.18
419.344	853.17
419.721	877.12
420.098	865.6
420.475	859.72
420.852	891.13
421.228	887.75
421.605	866.95
421.982	886.39
422.358	890
422.735	900.17
423.111	908.08
423.488	909.89
423.864	927.52
424.241	952.6
424.617	923.9
424.994	945.14
425.37	967.52
425.746	967.52
426.123	946.73
426.499	955.77
426.875	1001.64
427.251	984.92
427.627	1012.71
428.003	991.25
428.379	978.14
428.756	1005.71
429.132	1036.67
429.507	1043
429.883	1055.65
430.259	1091.13
430.635	1082.32
431.011	1081.19
431.387	1094.52
431.763	1113.05
432.138	1102.88
432.514	1130.45
432.89	1132.48
433.265	1169.55
433.641	1197.12
434.016	1185.14
434.392	1183.78
434.767	1227.4
435.143	1194.18
435.518	1207.74
435.894	1255.87
436.269	1259.49
436.644	1283.89
437.02	1286.38
437.395	1278.7
437.77	1292.71
438.145	1310.78
438.52	1311.69
438.895	1331.35
439.271	1324.34
439.646	1343.78
440.021	1343.1
440.395	1369.31
440.77	1361.4
441.145	1393.27
441.52	1386.71
441.895	1377.22
442.27	1384.46
442.645	1414.74
443.019	1440.27
443.394	1423.55
443.769	1442.08
444.143	1432.59
444.518	1452.7
444.892	1412.03
445.267	1453.15
445.641	1467.62
446.016	1490.67
446.39	1478.24
446.764	1482.31
447.139	1528.18
447.513	1506.71
447.887	1513.94
448.262	1539.25
448.636	1523.21
449.01	1573.15
449.384	1559.59
449.758	1561.63
450.132	1624.22
450.506	1603.66
450.88	1622.87
451.254	1610.44
451.628	1611.79
452.002	1664.22
452.376	1686.14
452.75	1697.22
453.123	1685.92
453.497	1755.97
453.871	1714.62
454.244	1789.19
454.618	1787.16
454.992	1792.13
455.365	1821.73
455.739	1837.1
456.112	1867.83
456.486	1895.18
456.859	1899.24
457.232	1944.67
457.606	1915.74
457.979	1965.91
458.352	2023.31
458.725	2039.35
459.099	1992.8
459.472	2051.1
459.845	2101.05
460.218	2117.09
460.591	2090.88
460.964	2118.22
461.337	2157.09
461.71	2226.01
462.083	2224.66
462.456	2214.26
462.829	2245.22
463.201	2281.15
463.574	2283.64
463.947	2326.8
464.32	2396.86
464.692	2410.87
465.065	2416.74
465.438	2445.44
465.81	2473.69
466.183	2444.77
466.555	2526.8
466.928	2535.61
467.3	2573.58
467.672	2571.77
468.045	2627.36
468.417	2632.11
468.789	2705.32
469.161	2699.45
469.534	2727.24
469.906	2750.07
470.278	2785.1
470.65	2816.73
471.022	2885.43
471.394	2934.02
471.766	2944.64
472.138	2969.05
472.51	3021.25
472.882	3048.14
473.253	3126.1
473.625	3159.78
473.997	3184.41
474.369	3234.58
474.74	3247.23
475.112	3296.5
475.484	3372.43
475.855	3451.75
476.227	3476.38
476.598	3604.06
476.97	3616.26
477.341	3672.76
477.713	3735.58
478.084	3812.19
478.455	3872.53
478.827	3903.48
479.198	4037.49
479.569	4053.76
479.94	4179.18
480.311	4161.11
480.682	4288.56
481.053	4386.18
481.424	4447.43
481.795	4529.68
482.166	4603.81
482.537	4684.48
482.908	4770.13
483.279	4855.78
483.65	4972.38
484.021	5092.38
484.391	5159.05
484.762	5277.69
485.133	5328.53
485.503	5412.37
485.874	5573.95
486.244	5624.8
486.615	5774.17
486.985	5892.36
487.356	6019.36
487.726	6081.05
488.097	6231.56
488.467	6331.22
488.837	6506.58
489.207	6571.89
489.578	6702.73
489.948	6854.59
490.318	7004.65
490.688	7080.12
491.058	7258.42
491.428	7404.64
491.798	7423.84
492.168	7732.99
492.538	7898.41
492.908	8035.13
493.278	8300.88
493.648	8243.48
494.017	8461.78
494.387	8609.58
494.757	8802.11
495.126	8938.15
495.496	9056.34
495.866	9264.7
496.235	9381.53
496.605	9640.74
496.974	9774.29
497.344	9885.7
497.713	10099.03
498.082	10273.03
498.452	10484.33
498.821	10676.19
499.19	10817.88
499.559	10963.19
499.928	11108.49
500.298	11288.15
500.667	11603.85
501.036	11641.36
501.405	11904.4
501.774	11998.41
502.143	12352.53
502.512	12455.58
502.88	12703.25
503.249	12801.78
503.618	13029.8
503.987	13206.52
504.356	13468.43
504.724	13590.91
505.093	13728.09
505.462	13935.54
505.83	14239.03
506.199	14406.03
506.567	14622.53
506.936	14780.94
507.304	15066.36
507.672	15271.55
508.041	15392.67
508.409	15696.4
508.777	15830.63
509.145	16060
509.514	16125.76
509.882	16361.01
510.25	16597.16
510.618	16778.4
510.986	16909.02
511.354	17199.86
511.722	17404.37
512.09	17615.89
512.458	17679.39
512.826	18020.85
513.193	18080.29
513.561	18204.8
513.929	18454.51
514.297	18630.78
514.664	18881.62
515.032	19024.44
515.4	19201.16
515.767	19386.02
516.135	19523.19
516.502	19532.9
516.869	19919.79
517.237	20118.88
517.604	20096.05
517.972	20482.71
518.339	20565.42
518.706	20683.61
519.073	20937.39
519.44	20920.21
519.808	21351.61
520.175	21413.08
520.542	21752.51
520.909	21917.47
521.276	22016.23
521.643	22314.98
522.009	22446.95
522.376	22679.94
522.743	22842.42
523.11	23151.79
523.477	23353.82
523.843	23298.23
524.21	23854.82
524.577	23980.7
524.943	24116.74
525.31	24128.49
525.676	24609.83
526.043	24644.41
526.409	24904.06
526.776	25156.26
527.142	25266.09
527.508	25538.17
527.874	25792.63
528.241	25944.71
528.607	26100.64
528.973	26335.44
529.339	26443.23
529.705	26699.95
530.071	26897.91
530.437	27040.28
530.803	27189.65
531.169	27371.57
531.535	27456.76
531.901	27588.96
532.267	27694.27
532.632	28003.19
532.998	28071.89
533.364	28218.55
533.73	28363.41
534.095	28673.23
534.461	28592.55
534.826	28885.43
535.192	28886.1
535.557	29187.79
535.923	29126.78
536.288	29381.46
536.653	29461.46
537.019	29515.47
537.384	29644.73
537.749	29687.67
538.114	29857.38
538.479	29814.67
538.845	30090.14
539.21	30059.18
539.575	30160.2
539.94	30275.9
540.305	30411.26
540.67	30484.93
541.034	30579.17
541.399	30643.12
541.764	30751.14
542.129	30766.73
542.494	31092.6
542.858	31100.51
543.223	31019.61
543.587	31157.01
543.952	31201.75
544.316	31451.24
544.681	31413.04
545.045	31632.02
545.41	31704.11
545.774	31574.4
546.138	31770.55
546.503	31944.33
546.867	31953.14
547.231	32181.84
547.595	32149.3
547.959	32319.91
548.324	32324.43
548.688	32430.87
549.052	32532.79
549.416	32475.39
549.779	32555.39
550.143	32684.2
550.507	32906.34
550.871	32973
551.235	32958.77
551.599	33205.99
551.962	33328.7
552.326	33322.82
552.689	33403.5
553.053	33230.17
553.417	33441.92
553.78	33816.82
554.143	33844.62
554.507	33961.68
554.87	34042.35
555.234	34255.23
555.597	34105.4
555.96	34218.39
556.323	34527.54
556.686	34442.79
557.05	34746.06
557.413	34791.71
557.776	34813.63
558.139	35095.89
558.502	35145.38
558.865	35111.7
559.228	35585.59
559.59	35541.07
559.953	35700.16
560.316	36079.14
560.679	36000.27
561.041	36233.48
561.404	36392.35
561.767	36639.57
562.129	36587.15
562.492	36896.52
562.854	36805.67
563.217	36925.22
563.579	37085.44
563.941	37331.08
564.304	37449.04
564.666	37809.26
565.028	37755.93
565.39	37934.91
565.753	38248.57
566.115	38152.98
566.477	38476.36
566.839	38653.08
567.201	38890.81
567.563	38787.31
567.925	39112.05
568.287	39291.48
568.648	39241.76
569.01	39557.24
569.372	39798.59
569.734	39771.69
570.095	39985.02
570.457	40213.72
570.819	40311.34
571.18	40249.2
571.542	40664.55
571.903	40659.81
572.265	40987.26
572.626	41223.41
572.987	41129.17
573.349	41400.35
573.71	41429.28
574.071	41560.57
574.432	41955.37
574.794	42107.23
575.155	42158.07
575.516	42024.52
575.877	42361.91
576.238	42428.35
576.599	42633.99
576.96	42782.91
577.32	42829.92
577.681	43071.95
578.042	43353.07
578.403	43324.14
578.763	43342
579.124	43539.28
579.485	43674.42
579.845	43861.3
580.206	43960.74
580.566	44002.09
580.927	44148.08
581.287	44270.33
581.648	44272.37
582.008	44650.21
582.368	44706.93
582.728	44906.7
583.089	45010.65
583.449	45162.97
583.809	45334.49
584.169	45413.81
584.529	45447.93
584.889	45906.67
585.249	45746.23
585.609	45636.62
585.969	46118.19
586.329	46115.48
586.688	46439.54
587.048	46390.5
587.408	46490.39
587.768	46631.85
588.127	46659.2
588.487	46787.78
588.846	47179.86
589.206	47072.97
589.565	47361.33
589.925	47696.68
590.284	47688.55
590.643	47808.55
591.003	47989.78
591.362	48405.37
591.721	48409.66
592.08	48481.75
592.44	48782.98
592.799	48803.1
593.158	48882.87
593.517	49016.65
593.876	49258.68
594.235	49279.02
594.593	49402.18
594.952	49551.78
595.311	49616.41
595.67	49781.37
596.029	50060.69
596.387	50254.36
596.746	50446.67
597.104	50225.2
597.463	50356.05
597.822	50710.62
598.18	50756.49
598.538	50788.81
598.897	51112.41
599.255	51078.74
599.613	51396.02
599.972	51375.91
600.33	51437.83
600.688	51582.01
601.046	51725.73
601.404	52044.59
601.762	52109.22
602.12	52221.08
602.478	52232.61
602.836	52348.09
603.194	52115.78
603.552	52350.57
603.91	52472.6
604.268	52667.17
604.625	52673.73
604.983	52934.06
605.341	52782.65
605.698	53057.9
606.056	53374.95
606.413	53175.64
606.771	53429.87
607.128	53417.66
607.485	53513.25
607.843	53524.33
608.2	53714.83
608.557	53883.87
608.914	53915.28
609.272	53997.76
609.629	54218.32
609.986	54325.21
610.343	54329.28
610.7	54543.28
611.057	54603.62
611.414	54546.67
611.771	54719.1
612.127	54796.61
612.484	54850.39
612.841	54953.44
613.198	54877.29
613.554	54944.4
613.911	55140.78
614.267	55218.07
614.624	55122.03
614.98	55336.93
615.337	55494.9
615.693	55568.57
616.05	55548
616.406	55700.99
616.762	55697.38
617.118	55746.19
617.475	55739.41
617.831	55917.03
618.187	55946.18
618.543	56013.75
618.899	56170.59
619.255	56163.81
619.611	56146.18
619.967	56303.46
620.323	56453.52
620.678	56345.27
621.034	56319.06
621.39	56338.26
621.746	56337.13
622.101	56701.19
622.457	56481.09
622.812	56651.48
623.168	56606.96
623.523	56689.89
623.879	56730.12
624.234	56604.92
624.589	56696.22
624.945	56771.02
625.3	56853.05
625.655	56812.38
626.01	56828.87
626.365	56906.39
626.72	56812.83
627.075	56885.37
627.43	56851.25
627.785	56848.08
628.14	56816.9
628.495	56871.36
628.85	56975.76
629.205	56910.45
629.559	56964.69
629.914	56851.92
630.269	56922.66
630.623	56752.04
630.978	56711.36
631.332	56884.24
631.687	56833.17
632.041	56777.35
632.396	56818.25
632.75	56812.6
633.104	56837.69
633.459	56666.84
633.813	56643.34
634.167	56730.12
634.521	56740.06
634.875	56707.07
635.229	56598.14
635.583	56584.13
635.937	56555.89
636.291	56575.77
636.645	56551.82
636.999	56522.67
637.352	56545.04
637.706	56416.45
638.06	56541.2
638.413	56437.92
638.767	56363.57
639.121	56449
639.474	56265.27
639.828	56333.74
640.181	56346.85
640.534	56479.96
640.888	56206.97
641.241	56109.57
641.594	56206.06
641.947	56267.76
642.301	56189.57
642.654	56232.96
643.007	56130.36
643.36	56087.42
643.713	56112.96
644.066	56173.07
644.419	55953.42
644.771	55671.84
645.124	55391.85
645.477	55405.18
645.83	55308.69
646.182	55313.66
646.535	55249.48
646.888	55335.35
647.24	55268.46
647.593	55312.75
647.945	55199.76
648.298	55133.32
648.65	54972.2
649.002	54956.61
649.355	54943.5
649.707	54892.2
650.059	54905.53
650.411	55265.98
650.763	55374.67
651.115	55723.59
651.467	55619.41
651.819	55655.57
652.171	55568.79
652.523	55508.91
652.875	55534.9
653.227	55338.52
653.578	55658.28
653.93	55497.16
654.282	55430.04
654.633	55366.09
654.985	55386.88
655.337	55385.52
655.688	55280.21
656.039	55456.48
656.391	55167.9
656.742	55196.6
657.094	55250.84
657.445	55254
657.796	55263.04
658.147	55206.77
658.498	55240.67
658.849	55230.04
659.2	55112.99
659.551	55044.51
659.902	55214.9
660.253	55080.22
660.604	55131.06
660.955	55007.45
661.306	55184.17
661.656	55029.6
662.007	55048.58
662.358	55030.5
662.708	55079.54
663.059	55003.38
663.409	54897.4
663.76	54944.4
664.11	54998.86
664.461	55035.7
664.811	54970.16
665.161	55040.45
665.511	54943.5
665.862	55047.68
666.212	55092.42
666.562	55128.8
666.912	54977.62
667.262	54879.77
667.612	54993.44
667.962	54959.54
668.312	54856.95
668.662	54955.7
669.011	54944.85
669.361	54987.11
669.711	54959.77
670.06	54837.74
670.41	54833.9
670.76	54855.37
671.109	54961.8
671.459	54830.96
671.808	54835.93
672.157	54871.64
672.507	54709.38
672.856	54749.61
673.205	54773.11
673.554	54808.14
673.904	54730.17
674.253	54825.54
674.602	54765.88
674.951	54355.27
675.3	54165.44
675.649	54735.59
675.998	54657.63
676.346	54703.28
676.695	54744.86
677.044	54539.44
677.393	54597.29
677.741	54704.41
678.09	54551.19
678.438	54509.61
678.787	54516.62
679.135	54575.82
679.484	54426.45
679.832	54546.45
680.181	54381.25
680.529	54491.08
680.877	54311.65
681.225	54319.11
681.573	54592.77
681.922	54401.59
682.27	54244.53
682.618	54328.15
682.966	54264.42
683.314	54229.85
683.661	54214.03
684.009	54106.46
684.357	53986.91
684.705	54017.65
685.053	54114.82
685.4	53955.73
685.748	53876.41
686.095	53836.18
686.443	53714.83
686.79	53769.07
687.138	53839.35
687.485	53752.57
687.832	53716.19
688.18	53689.75
688.527	53495.18
688.874	53529.98
689.221	53482.29
689.568	53400.49
689.915	53359.36
690.262	53404.78
690.609	53294.5
690.956	53219.93
691.303	53164.79
691.65	53087.95
691.997	53007.5
692.344	52838.02
692.69	52860.16
693.037	52845.93
693.383	52517.12
693.73	52723.22
694.077	52489.33
694.423	52512.15
694.769	52388.54
695.116	52403.68
695.462	52246.62
695.808	52162.1
696.155	52246.39
696.501	52017.47
696.847	52094.76
697.193	51793.07
697.539	51826.97
697.885	51570.25
698.231	51514.21
698.577	51517.83
698.923	51459.3
699.269	51208.46
699.614	51108.57
699.96	51075.13
700.306	51170.49
700.651	50945.19
700.997	50822.93
701.342	50723.95
701.688	50694.12
702.033	50489.83
702.379	50524.86
702.724	50439.89
703.069	50466.55
703.415	50116.51
703.76	50024.31
704.105	50048.26
704.45	49888.72
704.795	49834.93
705.14	49646.24
705.485	49706.8
705.83	49472.46
706.175	49644.66
706.52	49468.16
706.865	49287.38
707.209	49168.96
707.554	49106.82
707.899	49176.42
708.243	48740.95
708.588	48887.16
708.932	48617.79
709.277	48766.26
709.621	48573.5
709.966	48414.63
710.31	48324.69
710.654	48203.56
710.998	48377.12
711.342	48194.98
711.687	48069.33
712.031	47868.43
712.375	47735.1
712.719	47719.51
713.063	47605.61
713.407	47705.27
713.75	47624.6
714.094	47598.61
714.438	47401.78
714.782	47369.69
715.125	47274.77
715.469	47420.76
715.812	47002.92
716.156	47077.94
716.499	47020.09
716.843	47009.7
717.186	46737.16
717.53	46985.52
717.873	46951.39
718.216	46787.1
718.559	46555.92
718.902	46275.7
719.246	46544.17
719.589	46389.37
719.932	46232.99
720.275	46225.08
720.617	46303.95
720.96	46138.31
721.303	46273.9
721.646	46171.53
721.989	45894.47
722.331	45980.57
722.674	45879.56
723.016	45873.45
723.359	45668.49
723.701	45717.3
724.044	45673.46
724.386	45340.14
724.729	45672.78
725.071	45495.39
725.413	45369.51
725.755	45485.89
726.097	45327.25
726.439	45183.3
726.782	45261.72
727.124	45394.15
727.465	45427.59
727.807	45092.01
728.149	45174.72
728.491	45027.6
728.833	45201.83
729.175	45007.04
729.516	44891.11
729.858	44949.64
730.199	44964.1
730.541	44789.87
730.882	44733.37
731.224	44807.72
731.565	44569.76
731.906	44513.26
732.248	44721.62
732.589	44425.81
732.93	44419.03
733.271	44521.4
733.612	44387.84
733.953	44593.04
734.294	44426.71
734.635	44333.61
734.976	44482.08
735.317	44311.69
735.658	44408.41
735.999	44319.6
736.339	44173.61
736.68	44315.98
737.021	44256.77
737.361	44130.22
737.702	44367.05
738.042	44001.41
738.383	44171.58
738.723	44155.99
739.063	44062.43
739.404	44215.19
739.744	44102.43
740.084	43943.79
740.424	44014.75
740.764	43880.29
741.104	43983.34
741.444	43837.35
741.784	43748.99
742.124	43977.91
742.464	43755.32
742.804	43803.68
743.143	43748.09
743.483	43795.54
743.823	43742.21
744.162	43667.19
744.502	43704.47
744.841	43627.64
745.181	43791.7
745.52	43679.16
745.86	43639.62
746.199	43591.03
746.538	43746.05
746.877	43689.78
747.216	43665.83
747.556	43480.52
747.895	43649.11
748.234	43655.43
748.573	43556
748.911	43428.55
749.25	43628.32
749.589	43425.61
749.928	43465.16
750.267	43588.77
750.605	43494.53
750.944	43559.84
751.283	43309
751.621	43553.97
751.96	43298.38
752.298	43405.05
752.636	43464.7
752.975	43241.66
753.313	43288.44
753.651	43506.96
753.989	43265.61
754.327	43302.22
754.666	43088.67
755.004	43274.88
755.342	43196.01
