Data from 14-0852_FLMS001491_008.txt Node
Date: Thu Apr 12 17:07:16 BST 2018
User: hsy
Spectrometer: FLMS00149
Trigger mode: 0
Integration Time (sec): 1.000000E-2
Scans to average: 10
Electric dark correction enabled: true
Nonlinearity correction enabled: false
Boxcar width: 0
XAxis mode: Wavelengths
Number of Pixels in Spectrum: 2048
>>>>>Begin Spectral Data<<<<<
341.393	-10.32
341.776	-10.32
342.16	-10.32
342.543	-44.9
342.927	-82.19
343.31	-78.8
343.693	-75.86
344.077	-72.24
344.46	-88.74
344.843	-51.45
345.226	-36.09
345.61	-28.18
345.993	-11.45
346.376	13.4
346.759	26.74
347.142	43.69
347.525	38.26
347.908	50.01
348.291	86.17
348.674	72.39
349.057	112.16
349.44	114.64
349.823	138.82
350.206	172.04
350.588	236
350.971	247.3
351.354	281.65
351.737	261.08
352.119	294.3
352.502	298.59
352.884	329.33
353.267	323.9
353.65	327.07
354.032	353.28
354.414	351.7
354.797	340.85
355.179	351.25
355.562	356.9
355.944	359.16
356.326	359.84
356.709	384.02
357.091	374.3
357.473	381.98
357.855	367.74
358.238	405.26
358.62	380.17
359.002	378.37
359.384	375.88
359.766	363.45
360.148	377.01
360.53	404.81
360.912	394.18
361.294	396.67
361.676	381.08
362.057	359.16
362.439	381.76
362.821	395.09
363.203	388.76
363.584	376.11
363.966	374.3
364.348	389.66
364.729	375.43
365.111	374.52
365.493	365.71
365.874	352.83
366.256	392.6
366.637	374.75
367.019	378.59
367.4	372.94
367.781	384.02
368.163	370.91
368.544	374.07
368.925	381.76
369.306	390.79
369.688	374.3
370.069	379.72
370.45	375.2
370.831	374.98
371.212	378.59
371.593	373.85
371.974	355.77
372.355	383.11
372.736	396.67
373.117	404.58
373.498	368.42
373.879	375.43
374.26	380.4
374.641	404.81
375.021	399.38
375.402	378.14
375.783	387.41
376.163	393.73
376.544	410.68
376.925	406.39
377.305	400.29
377.686	404.35
378.066	382.43
378.447	402.77
378.827	398.7
379.208	398.25
379.588	399.16
379.968	416.1
380.349	399.16
380.729	398.03
381.109	427.63
381.489	426.05
381.87	419.49
382.25	427.86
382.63	427.63
383.01	412.72
383.39	449.55
383.77	428.31
384.15	418.59
384.53	438.48
384.91	443.67
385.29	437.35
385.67	443.45
386.049	463.56
386.429	447.29
386.809	458.36
387.189	429.89
387.568	464.92
387.948	445.03
388.328	460.62
388.707	475.76
389.087	466.05
389.466	460.62
389.846	490.91
390.225	499.04
390.605	470.11
390.984	476.89
391.363	473.96
391.743	478.48
392.122	478.7
392.501	511.92
392.881	485.48
393.26	490.23
393.639	497.68
394.018	493.39
394.397	515.09
394.776	511.47
395.155	522.77
395.534	532.49
395.913	520.06
396.292	532.03
396.671	525.48
397.05	523.22
397.429	525.25
397.808	548.98
398.186	527.06
398.565	518.7
398.944	520.06
399.323	538.14
399.701	535.2
400.08	556.89
400.458	545.37
400.837	556.67
401.215	570.9
401.594	576.78
401.972	570
402.351	565.93
402.729	575.65
403.107	573.61
403.486	567.06
403.864	556.89
404.242	583.33
404.62	595.76
404.999	608.42
405.377	606.83
405.755	580.17
406.133	591.92
406.511	614.74
406.889	618.36
407.267	599.15
407.645	629.21
408.023	639.6
408.401	644.57
408.779	638.02
409.156	650.45
409.534	626.72
409.912	670.79
410.29	648.19
410.667	671.92
411.045	696.1
411.422	694.52
411.8	687.96
412.178	703.78
412.555	698.81
412.933	701.52
413.31	696.78
413.687	727.06
414.065	717.79
414.442	747.17
414.819	739.49
415.197	759.37
415.574	764.57
415.951	753.27
416.328	751.01
416.705	761.63
417.082	797.79
417.46	787.62
417.837	781.97
418.214	795.08
418.591	792.59
418.967	820.61
419.344	789.88
419.721	822.2
420.098	825.36
420.475	827.39
420.852	828.07
421.228	831.91
421.605	850.67
421.982	818.58
422.358	845.92
422.735	848.41
423.111	854.29
423.488	870.78
423.864	867.39
424.241	899.48
424.617	895.41
424.994	902.65
425.37	905.36
425.746	903.78
426.123	917.33
426.499	920.95
426.875	928.18
427.251	935.19
427.627	942.87
428.003	974.06
428.379	973.15
428.756	981.06
429.132	991.91
429.507	990.33
429.883	995.3
430.259	1010.89
430.635	1032.13
431.011	1034.39
431.387	1017.22
431.763	1071.91
432.138	1078.69
432.514	1048.4
432.89	1073.94
433.265	1124.33
433.641	1109.42
434.016	1105.58
434.392	1155.75
434.767	1152.13
435.143	1122.53
435.518	1172.92
435.894	1180.6
436.269	1204.56
436.644	1192.58
437.02	1186.93
437.395	1200.04
437.77	1230.55
438.145	1233.03
438.52	1234.61
438.895	1264.22
439.271	1240.26
439.646	1275.29
440.021	1270.77
440.395	1299.25
440.77	1303.77
441.145	1302.64
441.52	1333.14
441.895	1331.79
442.27	1345.8
442.645	1314.84
443.019	1374.5
443.394	1355.52
443.769	1363.42
444.143	1345.35
444.518	1362.29
444.892	1360.94
445.267	1348.51
445.641	1388.28
446.016	1398.68
446.39	1412.69
446.764	1431.9
447.139	1409.3
447.513	1447.49
447.887	1429.86
448.262	1454.04
448.636	1453.14
449.01	1470.09
449.384	1467.6
449.758	1505.34
450.132	1486.81
450.506	1506.47
450.88	1536.75
451.254	1521.84
451.628	1532.23
452.002	1563.87
452.376	1553.02
452.75	1614.72
453.123	1588.73
453.497	1631.44
453.871	1654.72
454.244	1628.5
454.618	1691.1
454.992	1680.48
455.365	1680.93
455.739	1734.94
456.112	1750.99
456.486	1791.44
456.859	1776.75
457.232	1804.09
457.606	1801.38
457.979	1851.77
458.352	1852.9
458.725	1893.58
459.099	1896.52
459.472	1923.64
459.845	1967.7
460.218	1992.11
460.591	1991.66
460.964	1998.66
461.337	2043.18
461.71	2070.98
462.083	2072.33
462.456	2092.9
462.829	2109.62
463.201	2133.57
463.574	2151.2
463.947	2194.59
464.32	2219
464.692	2244.98
465.065	2265.77
465.438	2268.49
465.81	2307.58
466.183	2295.83
466.555	2341.93
466.928	2369.05
467.3	2390.29
467.672	2403.17
468.045	2451.31
468.417	2469.61
468.789	2476.84
469.161	2529.27
469.534	2558.87
469.906	2628.7
470.278	2628.93
470.65	2628.93
471.022	2689.72
471.394	2735.37
471.766	2784.86
472.138	2760
472.51	2878.41
472.882	2894.01
473.253	2944.17
473.625	2959.54
473.997	2990.27
474.369	3048.58
474.74	3075.24
475.112	3122.02
475.484	3146.43
475.855	3209.93
476.227	3268.01
476.598	3379.42
476.97	3363.82
477.341	3386.2
477.713	3491.96
478.084	3507.55
478.455	3653.76
478.827	3625.51
479.198	3793.64
479.569	3779.86
479.94	3876.35
480.311	3971.04
480.682	4028.89
481.053	4091.71
481.424	4216.91
481.795	4239.06
482.166	4314.76
482.537	4365.38
482.908	4447.19
483.279	4558.59
483.65	4655.77
484.021	4794.75
484.391	4856.67
484.762	4926.04
485.133	5018.7
485.503	5118.58
485.874	5199.26
486.244	5264.34
486.615	5434.28
486.985	5563.77
487.356	5661.62
487.726	5714.95
488.097	5889.41
488.467	5948.84
488.837	6164.65
489.207	6205.56
489.578	6404.65
489.948	6531.65
490.318	6565.32
490.688	6660.69
491.058	6889.38
491.428	7065.65
491.798	7137.51
492.168	7332.53
492.538	7509.03
492.908	7592.41
493.278	7858.85
493.648	7947.88
494.017	8125.96
494.387	8252.06
494.757	8445.95
495.126	8558.04
495.496	8742.21
495.866	8942.89
496.235	9144.24
496.605	9184.01
496.974	9444.57
497.344	9642.75
497.713	9853.82
498.082	10009.07
498.452	10206.13
498.821	10386.24
499.19	10527.25
499.559	10788.71
499.928	10964.08
500.298	11188.48
500.667	11361.35
501.036	11537.85
501.405	11795.92
501.774	11908.68
502.143	12176.02
502.512	12383.25
502.88	12650.36
503.249	12761.99
503.618	13046.06
503.987	13138.71
504.356	13409.66
504.724	13780.5
505.093	13994.5
505.462	14222.3
505.83	14370.99
506.199	14624.09
506.567	14955.61
506.936	15115.38
507.304	15352.89
507.672	15543.39
508.041	15715.36
508.409	15991.74
508.777	16327.55
509.145	16537.49
509.514	16644.83
509.882	16975.22
510.25	17226.51
510.618	17449.1
510.986	17567.29
511.354	17791.69
511.722	18267.16
512.09	18489.53
512.458	18403.88
512.826	18809.29
513.193	18928.84
513.561	19266.68
513.929	19369.05
514.297	19734.92
514.664	19880.68
515.032	20059.43
515.4	20400.89
515.767	20579.42
516.135	20674.33
516.502	20732.63
516.869	21197.03
517.237	21361.54
517.604	21384.59
517.972	21856.45
518.339	22033.84
518.706	22213.27
519.073	22332.36
519.44	22613.26
519.808	22954.27
520.175	23062.52
520.542	23292.11
520.909	23613.91
521.276	23599.68
521.643	24043.51
522.009	24166.21
522.376	24408.92
522.743	24535.02
523.11	24967.55
523.477	25208
523.843	25315.34
524.21	25715.1
524.577	25961.2
524.943	26172.94
525.31	26404.8
525.676	26626.72
526.043	26911.23
526.409	26979.7
526.776	27307.38
527.142	27476.18
527.508	27635.73
527.874	28007.92
528.241	28182.38
528.607	28314.58
528.973	28657.4
529.339	28607.23
529.705	29183.94
530.071	29326.53
530.437	29561.78
530.803	29770.14
531.169	29924.03
531.535	30019.39
531.901	30228.43
532.267	30344.36
532.632	30646.04
532.998	30807.85
533.364	30954.51
533.73	31307.72
534.095	31353.82
534.461	31443.99
534.826	31690.76
535.192	31792.91
535.557	32045.33
535.923	32154.03
536.288	32322.84
536.653	32562.15
537.019	32454.13
537.384	32657.07
537.749	32720.11
538.114	32782.94
538.479	33047.11
538.845	33152.42
539.21	33147.9
539.575	33430.6
539.94	33432.64
540.305	33650.03
540.67	33783.59
541.034	33921.66
541.399	34043.7
541.764	34176.12
542.129	34080.76
542.494	34227.19
542.858	34565.04
543.223	34389.22
543.587	34711.93
543.952	34757.8
544.316	34843.45
544.681	34847.52
545.045	35162.76
545.41	35348.29
545.774	35448.18
546.138	35383.55
546.503	35598.91
546.867	35627.61
547.231	35820.15
547.595	36129.29
547.959	36096.97
548.324	36158.89
548.688	36275.95
549.052	36370.87
549.416	36345.1
549.779	36593.91
550.143	36612.22
550.507	36817.86
550.871	36963.62
551.235	36958.19
551.599	37290.84
551.962	37355.02
552.326	37472.76
552.689	37690.15
553.053	37541.46
553.417	37767.89
553.78	38007.88
554.143	38089.46
554.507	38359.29
554.87	38389.8
555.234	38666.85
555.597	38516.12
555.96	38816.68
556.323	38934.64
556.686	39037.24
557.05	39238.13
557.413	39338.02
557.776	39448.07
558.139	39631.8
558.502	39750.21
558.865	39836.54
559.228	40154.95
559.59	40215.96
559.953	40285.79
560.316	40813.46
560.679	40839.22
561.041	41157.41
561.404	41232.66
561.767	41681.46
562.129	41363.05
562.492	41754.9
562.854	41937.27
563.217	41904.51
563.579	42087.33
563.941	42380.88
564.304	42578.39
564.666	42941.99
565.028	42909.22
565.39	43066.51
565.753	43288.2
566.115	43356.9
566.477	43747.85
566.839	43741.29
567.201	44189.64
567.563	44156.2
567.925	44477.32
568.287	44419.92
568.648	44630.08
569.01	44918.21
569.372	45209.73
569.734	45121.6
570.095	45433.23
570.457	45680.68
570.819	45820.11
571.18	45769.49
571.542	46157.95
571.903	46231.62
572.265	46375.57
572.626	46627.77
572.987	46602.46
573.349	47004.71
573.71	47110.92
574.071	47188.89
574.432	47513.85
574.794	47715.88
575.155	47789.1
575.516	47774.63
575.877	48017.34
576.238	48243.77
576.599	48316.54
576.96	48576.42
577.32	48714.27
577.681	48798.34
578.042	48988.16
578.403	49007.82
578.763	49008.05
579.124	49122.62
579.485	49593.57
579.845	49700.01
580.206	49669.05
580.566	49750.17
580.927	49790.85
581.287	50075.82
581.648	50191.52
582.008	50424.51
582.368	50410.95
582.728	50636.03
583.089	50660.21
583.449	50792.63
583.809	50885.74
584.169	51067.43
584.529	51125.28
584.889	51511.26
585.249	51269.46
585.609	51318.72
585.969	51711.03
586.329	51563.01
586.688	51947.86
587.048	51926.39
587.408	52044.58
587.768	52096.55
588.127	52218.13
588.487	52377.9
588.846	52628.97
589.206	52487.05
589.565	52669.42
589.925	52902.86
590.284	52881.39
590.643	52941.5
591.003	53176.98
591.362	53467.59
591.721	53616.74
592.08	53555.5
592.44	53846.11
592.799	53747.13
593.158	53888.15
593.517	54044.53
593.876	54196.39
594.235	54127.46
594.593	54367.23
594.952	54479.99
595.311	54427.11
595.67	54708.91
596.029	54832.98
596.387	54966.31
596.746	55235.45
597.104	55123.37
597.463	55111.16
597.822	55403.13
598.18	55433.64
598.538	55471.83
598.897	55707.53
599.255	55642.22
599.613	56040.41
599.972	55928.09
600.33	56123.79
600.688	56122.44
601.046	56310.68
601.404	56489.21
601.762	56473.84
602.12	56684.68
602.478	56706.15
602.836	56762.87
603.194	56695.76
603.552	56948.86
603.91	56866.6
604.268	57036.09
604.625	57073.15
604.983	57320.15
605.341	57177.32
605.698	57404.89
606.056	57602.62
606.413	57502.06
606.771	57750.42
607.128	57750.42
607.485	57725.78
607.843	57827.02
608.2	58026.57
608.557	58167.58
608.914	58129.16
609.272	58301.36
609.629	58415.26
609.986	58536.38
610.343	58445.31
610.7	58714.91
611.057	58658.87
611.414	58743.61
611.771	58892.08
612.127	58890.5
612.484	58973.21
612.841	59123.04
613.198	59041.68
613.554	59052.3
613.911	59290.04
614.267	59272.18
614.624	59348.57
614.98	59481.22
615.337	59618.16
615.693	59586.3
616.05	59671.95
616.406	59749.91
616.762	59752.62
617.118	59752.85
617.475	59790.81
617.831	59956.23
618.187	59954.65
618.543	60005.05
618.899	60184.02
619.255	60109.45
619.611	60165.04
619.967	60313.96
620.323	60387.41
620.678	60291.59
621.034	60312.61
621.39	60301.54
621.746	60395.32
622.101	60601.64
622.457	60431.02
622.812	60596.67
623.168	60556.67
623.523	60566.84
623.879	60707.85
624.234	60515.54
624.589	60645.48
624.945	60753.05
625.3	60736.1
625.655	60816.55
626.01	60784.46
626.365	60813.16
626.72	60771.58
627.075	60759.6
627.43	60761.18
627.785	60810.22
628.14	60772.94
628.495	60851.58
628.85	60924.34
629.205	60815.42
629.559	60944.46
629.914	60876.21
630.269	60809.32
630.623	60785.82
630.978	60683.67
631.332	60806.61
631.687	60839.83
632.041	60765.7
632.396	60830.34
632.75	60772.48
633.104	60772.03
633.459	60681.41
633.813	60665.14
634.167	60673.73
634.521	60633.5
634.875	60725.03
635.229	60645.93
635.583	60589.21
635.937	60534.07
636.291	60570.46
636.645	60544.92
636.999	60517.12
637.352	60534.98
637.706	60401.19
638.06	60570.68
638.413	60459.27
638.767	60299.28
639.121	60425.37
639.474	60304.02
639.828	60281.88
640.181	60264.25
640.534	60327.3
640.888	60188.54
641.241	60181.09
641.594	60149.45
641.947	60200.97
642.301	60085.5
642.654	60168.88
643.007	60087.53
643.36	60094.99
643.713	60063.12
644.066	60145.16
644.419	59981.09
644.771	59742.23
645.124	59495.46
645.477	59478.96
645.83	59368.45
646.182	59361.67
646.535	59299.75
646.888	59405.97
647.24	59274.44
647.593	59413.65
647.945	59303.82
648.298	59209.81
648.65	59100.89
649.002	58960.1
649.355	58943.61
649.707	58854.12
650.059	58961.68
650.411	59279.19
650.763	59424.27
651.115	59688.67
651.467	59602.35
651.819	59601.22
652.171	59495.23
652.523	59389.02
652.875	59438.96
653.227	59322.13
653.578	59528.67
653.93	59401.22
654.282	59349.02
654.633	59277.83
654.985	59256.59
655.337	59351.05
655.688	59227.67
656.039	59401.67
656.391	59088.46
656.742	59175.46
657.094	59117.39
657.445	59194.67
657.796	59187.67
658.147	59104.96
658.498	59151.96
658.849	59162.36
659.2	59045.98
659.551	59071.06
659.902	59170.72
660.253	59096.14
660.604	59086.2
660.955	59001.23
661.306	59067.67
661.656	58971.63
662.007	58954
662.358	58956.03
662.708	58970.5
663.059	58943.15
663.409	58808.24
663.76	58918.52
664.11	58921.23
664.461	58980.67
664.811	59018.41
665.161	58897.73
665.511	58837.17
665.862	58925.53
666.212	58952.19
666.562	58881.46
666.912	58874.45
667.262	58776.6
667.612	58855.92
667.962	58820.44
668.312	58758.75
668.662	58939.31
669.011	58875.13
669.361	58779.09
669.711	58874.45
670.06	58773.89
670.41	58708.13
670.76	58701.58
671.109	58849.37
671.459	58660.9
671.808	58730.28
672.157	58759.2
672.507	58636.95
672.856	58667.23
673.205	58693.22
673.554	58786.77
673.904	58675.14
674.253	58834.91
674.602	58686.66
674.951	58317.63
675.3	58212.78
675.649	58677.4
675.998	58653.9
676.346	58671.07
676.695	58754.46
677.044	58519.44
677.393	58552.2
677.741	58666.78
678.09	58545.65
678.438	58536.84
678.787	58557.4
679.135	58567.12
679.484	58406.67
679.832	58540.45
680.181	58475.14
680.529	58479.44
680.877	58397.41
681.225	58416.16
681.573	58540.9
681.922	58383.62
682.27	58357.86
682.618	58339.55
682.966	58327.12
683.314	58378.2
683.661	58338.2
684.009	58163.74
684.357	58148.6
684.705	58107.02
685.053	58177.75
685.4	58039.45
685.748	57998.77
686.095	58007.36
686.443	57907.02
686.79	57895.05
687.138	57910.19
687.485	57916.74
687.832	57851.66
688.18	57829.74
688.527	57726.46
688.874	57720.13
689.221	57723.52
689.568	57579.12
689.915	57578.44
690.262	57629.29
690.609	57545.9
690.956	57468.62
691.303	57427.49
691.65	57354.95
691.997	57324.44
692.344	57202.63
692.69	57110.21
693.037	57198.11
693.383	57002.41
693.73	57099.36
694.077	56904.11
694.423	56969.87
694.769	56831.34
695.116	56876.77
695.462	56747.73
695.808	56612.14
696.155	56738.69
696.501	56480.62
696.847	56519.04
697.193	56345.03
697.539	56445.14
697.885	56296.9
698.231	56177.12
698.577	56160.18
698.923	56165.83
699.269	56010.8
699.614	55899.84
699.96	55873.4
700.306	55840.86
700.651	55772.62
700.997	55657.14
701.342	55586.18
701.688	55607.2
702.033	55459.63
702.379	55491.72
702.724	55399.74
703.069	55427.77
703.415	55019.41
703.76	55105.97
704.105	55108.45
704.45	55026.19
704.795	54932.19
705.14	54808.57
705.485	54813.54
705.83	54630.5
706.175	54773.32
706.52	54722.02
706.865	54533.55
707.209	54528.58
707.554	54462.59
707.899	54479.32
708.243	54310.06
708.588	54305.08
708.932	54140.12
709.277	54144.41
709.621	54093.79
709.966	53869.16
710.31	53947.8
710.654	53713.91
710.998	53760.24
711.342	53805.89
711.687	53687.25
712.031	53523.86
712.375	53362.74
712.719	53467.14
713.063	53391.21
713.407	53517.31
713.75	53312.34
714.094	53256.07
714.438	53167.94
714.782	53126.81
715.125	52973.37
715.469	53167.26
715.812	52843.88
716.156	52864.22
716.499	52809.08
716.843	52812.69
717.186	52614.73
717.53	52874.16
717.873	52774.05
718.216	52727.27
718.559	52521.4
718.902	52345.59
719.246	52418.81
719.589	52208.64
719.932	52131.13
720.275	52260.62
720.617	52166.38
720.96	52085.25
721.303	52066.95
721.646	52098.81
721.989	51910.8
722.331	51937.69
722.674	51980.17
723.016	51918.71
723.359	51676.68
723.701	51766.39
724.044	51685.49
724.386	51454.31
724.729	51644.14
725.071	51532.05
725.413	51479.39
725.755	51362.56
726.097	51271.49
726.439	51186.3
726.782	51149.01
727.124	51357.14
727.465	51230.36
727.807	51135.22
728.149	51136.81
728.491	50938.84
728.833	51013.42
729.175	50933.42
729.516	50820.66
729.858	50882.57
730.199	50890.03
730.541	50875.12
730.882	50609.81
731.224	50582.47
731.565	50503.83
731.906	50531.85
732.248	50595.8
732.589	50333.66
732.93	50420.89
733.271	50384.51
733.612	50320.1
733.953	50398.29
734.294	50188.58
734.635	50151.52
734.976	50276.26
735.317	50126.21
735.658	50150.62
735.999	49993.11
736.339	49994.24
736.68	50071.3
737.021	49967.12
737.361	49917.4
737.702	49958.31
738.042	49884.86
738.383	49932.32
738.723	49901.13
739.063	49676.05
739.404	49852.77
739.744	49685.09
740.084	49667.01
740.424	49656.17
740.764	49486.23
741.104	49591.31
741.444	49373.01
741.784	49397.19
742.124	49493.23
742.464	49352.22
742.804	49304.31
743.143	49189.51
743.483	49248.49
743.823	48977.09
744.162	49069.97
744.502	49050.08
744.841	48880.37
745.181	49206.23
745.52	48863.64
745.86	48898.9
746.199	48839.92
746.538	48824.78
746.877	48931.44
747.216	48783.65
747.556	48622.75
747.895	48657.55
748.234	48545.01
748.573	48465.69
748.911	48415.07
749.25	48421.17
749.589	48171.23
749.928	48351.12
750.267	48262.76
750.605	48188.86
750.944	48189.54
751.283	47956.55
751.621	47948.64
751.96	47679.04
752.298	47798.36
752.636	47834.29
752.975	47746.61
753.313	47500.52
753.651	47652.6
753.989	47265.49
754.327	47453.96
754.666	47035.67
755.004	47297.13
