Data from 14-0848_FLMS001491_007.txt Node
Date: Thu Apr 19 16:08:23 BST 2018
User: hsy
Spectrometer: FLMS00149
Trigger mode: 0
Integration Time (sec): 1.000000E-2
Scans to average: 10
Electric dark correction enabled: true
Nonlinearity correction enabled: false
Boxcar width: 0
XAxis mode: Wavelengths
Number of Pixels in Spectrum: 2048
>>>>>Begin Spectral Data<<<<<
341.393	-11.2
341.776	-11.2
342.16	-11.2
342.543	-63.85
342.927	-80.35
343.31	-62.95
343.693	-66.34
344.077	-62.72
344.46	-68.83
344.843	-64.31
345.226	-22.73
345.61	-37.87
345.993	-21.6
346.376	-16.17
346.759	-4.42
347.142	16.6
347.525	39.87
347.908	66.31
348.291	76.26
348.674	94.11
349.057	134.78
349.44	114.22
349.823	125.29
350.206	150.83
350.588	218.4
350.971	229.92
351.354	238.96
351.737	264.5
352.119	284.61
352.502	295.68
352.884	282.58
353.267	318.96
353.65	328.45
354.032	320.32
354.414	350.6
354.797	360.99
355.179	354.44
355.562	358.28
355.944	378.85
356.326	379.98
356.709	400.99
357.091	368.45
357.473	384.5
357.855	384.72
358.238	382.91
358.62	360.54
359.002	380.43
359.384	393.53
359.766	382.91
360.148	399.64
360.53	392.4
360.912	371.84
361.294	383.82
361.676	376.59
362.057	374.1
362.439	366.87
362.821	373.87
363.203	368
363.584	366.87
363.966	362.12
364.348	379.52
364.729	377.72
365.111	369.58
365.493	358.06
365.874	347.21
366.256	360.32
366.637	360.77
367.019	358.51
367.4	375.91
367.781	368.22
368.163	390.37
368.544	370.03
368.925	379.07
369.306	370.48
369.688	386.53
370.069	381.11
370.45	373.42
370.831	375.91
371.212	373.87
371.593	383.59
371.974	356.25
372.355	370.26
372.736	384.95
373.117	389.24
373.498	381.33
373.879	383.14
374.26	388.11
374.641	381.33
375.021	384.72
375.402	384.72
375.783	381.33
376.163	400.31
376.544	372.29
376.925	383.82
377.305	393.31
377.686	391.95
378.066	403.03
378.447	404.83
378.827	404.83
379.208	420.65
379.588	406.87
379.968	401.22
380.349	408.45
380.729	414.55
381.109	422.23
381.489	403.25
381.87	428.79
382.25	419.97
382.63	416.59
383.01	425.85
383.39	424.27
383.77	435.57
384.15	450.71
384.53	430.6
384.91	432.86
385.29	453.19
385.67	445.06
386.049	430.6
386.429	438.28
386.809	476.24
387.189	447.32
387.568	443.48
387.948	444.15
388.328	457.49
388.707	452.52
389.087	465.17
389.466	475.34
389.846	471.72
390.225	479.86
390.605	484.15
390.984	478.96
391.363	475.34
391.743	489.35
392.122	478.73
392.501	490.03
392.881	494.55
393.26	505.85
393.639	499.29
394.018	499.07
394.397	497.71
394.776	512.18
395.155	510.37
395.534	523.02
395.913	524.6
396.292	499.52
396.671	501.55
397.05	507.66
397.429	551.27
397.808	541.78
398.186	563.93
398.565	545.4
398.944	548.56
399.323	565.96
399.701	547.88
400.08	568.9
400.458	559.86
400.837	578.39
401.215	570.71
401.594	564.15
401.972	581.55
402.351	592.17
402.729	594.43
403.107	586.98
403.486	574.55
403.864	593.53
404.242	621.78
404.62	604.83
404.999	579.29
405.377	624.04
405.755	616.35
406.133	640.08
406.511	628.1
406.889	632.85
407.267	631.49
407.645	652.51
408.023	651.16
408.401	681.21
408.779	671.49
409.156	693.19
409.534	679.86
409.912	680.53
410.29	698.39
410.667	716.69
411.045	719.63
411.422	725.5
411.8	726.86
412.178	718.27
412.555	705.62
412.933	772.96
413.31	784.94
413.687	763.47
414.065	758.27
414.442	779.97
414.819	786.97
415.197	798.5
415.574	810.02
415.951	824.03
416.328	810.7
416.705	793.3
417.082	827.65
417.46	827.65
417.837	838.95
418.214	842.56
418.591	853.64
418.967	871.71
419.344	854.09
419.721	836.24
420.098	873.97
420.475	887.31
420.852	898.15
421.228	911.71
421.605	898.38
421.982	879.62
422.358	908.78
422.735	903.13
423.111	918.94
423.488	935.67
423.864	981.09
424.241	947.42
424.617	969.11
424.994	984.03
425.37	985.38
425.746	969.79
426.123	988.1
426.499	998.04
426.875	1004.14
427.251	1028.09
427.627	1061.09
428.003	1033.52
428.379	1057.25
428.756	1089.11
429.132	1071.71
429.507	1079.17
429.883	1073.74
430.259	1105.61
430.635	1137.02
431.011	1140.63
431.387	1156.23
431.763	1162.78
432.138	1159.62
432.514	1184.25
432.89	1210.01
433.265	1221.99
433.641	1216.79
434.016	1232.38
434.392	1271.03
434.767	1270.12
435.143	1276.45
435.518	1264.02
435.894	1290.69
436.269	1289.56
436.644	1307.86
437.02	1334.75
437.395	1361.19
437.77	1348.99
438.145	1361.42
438.52	1411.59
438.895	1403.9
439.271	1379.95
439.646	1404.81
440.021	1409.78
440.395	1442.32
440.77	1410.23
441.145	1432.15
441.52	1435.54
441.895	1458.59
442.27	1471.02
442.645	1493.62
443.019	1495.65
443.394	1494.52
443.769	1508.53
444.143	1494.52
444.518	1523.22
444.892	1490.68
445.267	1534.3
445.641	1538.36
446.016	1530
446.39	1563
446.764	1567.29
447.139	1580.85
447.513	1591.02
447.887	1595.54
448.262	1597.8
448.636	1642.99
449.01	1645.25
449.384	1647.74
449.758	1677.79
450.132	1674.63
450.506	1669.66
450.88	1726.83
451.254	1700.39
451.628	1720.28
452.002	1752.82
452.376	1763.89
452.75	1781.07
453.123	1772.93
453.497	1811.12
453.871	1809.99
454.244	1889.31
454.618	1899.48
454.992	1905.59
455.365	1903.1
455.739	1932.25
456.112	1946.04
456.486	1986.26
456.859	2020.84
457.232	2047.95
457.606	2074.39
457.979	2074.62
458.352	2117.11
458.725	2116.43
459.099	2167.95
459.472	2194.39
459.845	2208.85
460.218	2203.66
460.591	2245.69
460.964	2224
461.337	2291.34
461.71	2367.72
462.083	2379.7
462.456	2391.22
462.829	2388.96
463.201	2406.14
463.574	2409.3
463.947	2482.97
464.32	2466.7
464.692	2524.78
465.065	2539.69
465.438	2635.28
465.81	2621.05
466.183	2608.84
466.555	2698.33
466.928	2705.11
467.3	2688.16
467.672	2741.72
468.045	2827.82
468.417	2805.9
468.789	2835.96
469.161	2881.15
469.534	2935.16
469.906	2950.53
470.278	2987.82
470.65	3035.5
471.022	3088.38
471.394	3127.47
471.766	3153.46
472.138	3198.21
472.51	3257.87
472.882	3294.7
473.253	3340.8
473.625	3372.67
473.997	3408.37
474.369	3417.41
474.74	3532.44
475.112	3571.53
475.484	3633.68
475.855	3660.57
476.227	3744.86
476.598	3785.08
476.97	3887.68
477.341	3953.44
477.713	4023.5
478.084	4008.81
478.455	4131.52
478.827	4201.57
479.198	4267.56
479.569	4310.49
479.94	4440.21
480.311	4532.86
480.682	4635.23
481.053	4713.87
481.424	4839.97
481.795	4871.38
482.166	4943.02
482.537	5032.51
482.908	5166.29
483.279	5244.25
483.65	5365.61
484.021	5484.47
484.391	5578.03
484.762	5620.74
485.133	5705.94
485.503	5782.77
485.874	5976.66
486.244	6068.64
486.615	6202.87
486.985	6357.9
487.356	6404.22
487.726	6542.3
488.097	6728.06
488.467	6761.5
488.837	6977.32
489.207	7069.07
489.578	7224.99
489.948	7370.98
490.318	7495.04
490.688	7594.48
491.058	7798.09
491.428	7982.04
491.798	8101.13
492.168	8253.89
492.538	8446.66
492.908	8622.92
493.278	8753.77
493.648	8856.36
494.017	9071.72
494.387	9245.73
494.757	9362.79
495.126	9572.95
495.496	9711.71
495.866	9898.14
496.235	10123.67
496.605	10291.58
496.974	10409.54
497.344	10635.07
497.713	10824.9
498.082	10972.92
498.452	11160.71
498.821	11383.53
499.19	11542.39
499.559	11712.56
499.928	11927.02
500.298	12080.01
500.667	12241.58
501.036	12433.9
501.405	12642.03
501.774	12824.85
502.143	13088.57
502.512	13216.25
502.88	13505.05
503.249	13622.34
503.618	13886.74
503.987	14084.02
504.356	14244.02
504.724	14410.12
505.093	14597.91
505.462	14827.05
505.83	14987.28
506.199	15281.73
506.567	15567.15
506.936	15589.75
507.304	15926.01
507.672	16090.07
508.041	16305.43
508.409	16518.31
508.777	16811.63
509.145	16995.13
509.514	17061.57
509.882	17416.36
510.25	17449.36
510.618	17692.52
510.986	17904.26
511.354	18128.44
511.722	18383.57
512.09	18605.26
512.458	18645.71
512.826	18880.96
513.193	19051.35
513.561	19324.34
513.929	19305.35
514.297	19652.01
514.664	19871.44
515.032	20058.33
515.4	20242.5
515.767	20419.9
516.135	20620.8
516.502	20623.51
516.869	20998.19
517.237	21152.99
517.604	21214.91
517.972	21450.38
518.339	21712.52
518.706	21924.95
519.073	21953.65
519.44	22137.6
519.808	22401.32
520.175	22544.14
520.542	22868.88
520.909	23072.71
521.276	23104.58
521.643	23452.36
522.009	23567.39
522.376	23887.38
522.743	23959.92
523.11	24361.49
523.477	24511.32
523.843	24749.96
524.21	25059.1
524.577	25242.37
524.943	25412.09
525.31	25510.61
525.676	25806.2
526.043	26032.18
526.409	26211.84
526.776	26519.63
527.142	26676.69
527.508	26800.98
527.874	26996
528.241	27255.65
528.607	27285.26
528.973	27615.42
529.339	27648.64
529.705	28117.33
530.071	28273.03
530.437	28523.64
530.803	28663.75
531.169	28777.65
531.535	28856.06
531.901	28982.39
532.267	29203.17
532.632	29470.28
532.998	29474.13
533.364	29664.86
533.73	29744.18
534.095	30129.02
534.461	30088.12
534.826	30348.45
535.192	30378.06
535.557	30716.35
535.923	30666.86
536.288	30839.06
536.653	31029.11
537.019	30898.04
537.384	31093.29
537.749	31241.31
538.114	31289.67
538.479	31357.01
538.845	31621.87
539.21	31616.22
539.575	31834.97
539.94	31784.57
540.305	31989.99
540.67	31953.16
541.034	32253.71
541.399	32245.8
541.764	32400.6
542.129	32541.62
542.494	32695.51
542.858	32786.13
543.223	32742.74
543.587	33059.57
543.952	32801.72
544.316	32942.51
544.681	32986.35
545.045	33232.45
545.41	33399.22
545.774	33338.21
546.138	33411.42
546.503	33493.68
546.867	33646.67
547.231	33872.88
547.595	33955.59
547.959	34046.21
548.324	33904.29
548.688	34138.18
549.052	34159.2
549.416	34274.9
549.779	34172.31
550.143	34374.34
550.507	34658.17
550.871	34706.53
551.235	34687.55
551.599	35007.31
551.962	35099.06
552.326	35179.29
552.689	35270.13
553.053	35158.5
553.417	35343.12
553.78	35656.34
554.143	35690.01
554.507	35828.31
554.87	35985.37
555.234	36114.4
555.597	36010
555.96	36201.63
556.323	36341.06
556.686	36313.27
557.05	36647.72
557.413	36708.29
557.776	36904.67
558.139	37120.03
558.502	37055.4
558.865	37154.38
559.228	37568.83
559.59	37559.11
559.953	37565.44
560.316	37948.03
560.679	37959.1
561.041	38164.29
561.404	38355.02
561.767	38609.93
562.129	38538.29
562.492	38914.1
562.854	38898.51
563.217	39014.21
563.579	39208.56
563.941	39349.35
564.304	39561.32
564.666	39933.06
565.028	39889.22
565.39	39898.03
565.753	40247.4
566.115	40247.63
566.477	40618.24
566.839	40609.43
567.201	40966.25
567.563	40828.63
567.925	41265.68
568.287	41155.63
568.648	41272.69
569.01	41678.1
569.372	41945.89
569.734	41798.77
570.095	42176.39
570.457	42384.52
570.819	42425.88
571.18	42441.92
571.542	42954.22
571.903	42841.68
572.265	43094.78
572.626	43247.78
572.987	43259.3
573.349	43562.34
573.71	43742
574.071	43840.75
574.432	44225.15
574.794	44245.26
575.155	44351.02
575.516	44445.71
575.877	44683.67
576.238	44815.19
576.599	44879.6
576.96	44973.15
577.32	45134.05
577.681	45244.11
578.042	45599.58
578.403	45408.4
578.763	45569.75
579.124	45667.82
579.485	46074.14
579.845	46294.93
580.206	46281.59
580.566	46356.17
580.927	46273.68
581.287	46663.05
581.648	46650.4
582.008	46910.28
582.368	46918.87
582.728	47135.81
583.089	47036.6
583.449	47216.94
583.809	47281.57
584.169	47606.98
584.529	47640.88
584.889	47945.28
585.249	47871.61
585.609	47853.53
585.969	48104.14
586.329	48169.23
586.688	48591.59
587.048	48466.17
587.408	48516.79
587.768	48698.25
588.127	48930.79
588.487	49009.43
588.846	49276.09
589.206	49224.12
589.565	49226.38
589.925	49671.79
590.284	49614.16
590.643	49768.73
591.003	49897.77
591.362	50168.5
591.721	50248.5
592.08	50338.21
592.44	50471.54
592.799	50552.67
593.158	50698.65
593.517	50794.92
593.876	51095.03
594.235	51024.52
594.593	51003.5
594.952	51170.73
595.311	51363.72
595.67	51519.65
596.029	51747.44
596.387	51877.15
596.746	51987.66
597.104	51880.77
597.463	52004.61
597.822	52270.14
598.18	52277.59
598.538	52396.91
598.897	52615.21
599.255	52409.34
599.613	52974.3
599.972	52882.55
600.33	52984.24
600.688	52918.93
601.046	53131.58
601.404	53358.92
601.762	53327.51
602.12	53511.91
602.478	53611.57
602.836	53778.35
603.194	53588.97
603.552	53794.39
603.91	53752.36
604.268	53952.58
604.625	54070.77
604.983	54245.9
605.341	54075.97
605.698	54364.32
606.056	54544.2
606.413	54433.92
606.771	54713.46
607.128	54753.24
607.485	54650.64
607.843	54798.43
608.2	54962.72
608.557	55113.9
608.914	55062.15
609.272	55240.68
609.629	55407
609.986	55542.82
610.343	55499.66
610.7	55664.85
611.057	55699.65
611.414	55619.2
611.771	55787.78
612.127	55967.21
612.484	55977.16
612.841	56144.16
613.198	56023.94
613.554	56108.68
613.911	56308.67
614.267	56330.82
614.624	56329.69
614.98	56473.87
615.337	56637.03
615.693	56589.35
616.05	56678.16
616.406	56797.7
616.762	56760.41
617.118	56860.52
617.475	56825.95
617.831	57046.96
618.187	57135.77
618.543	57117.47
618.899	57303
619.255	57215.54
619.611	57224.36
619.967	57401.53
620.323	57473.84
620.678	57344.81
621.034	57380.96
621.39	57355.43
621.746	57522.65
622.101	57684.91
622.457	57486.5
622.812	57656.66
623.168	57683.78
623.523	57619.15
623.879	57716.1
624.234	57644.91
624.589	57788.18
624.945	57705.02
625.3	57738.02
625.655	57768.98
626.01	57762.65
626.365	57807.84
626.72	57816.66
627.075	57787.28
627.43	57907.05
627.785	57856.66
628.14	57869.99
628.495	57866.37
628.85	57915.19
629.205	57870.22
629.559	57989.31
629.914	57843.78
630.269	57817.34
630.623	57798.58
630.978	57706.38
631.332	57928.75
631.687	57893.04
632.041	57842.19
632.396	57828.18
632.75	57738.02
633.104	57875.19
633.459	57707.28
633.813	57696.43
634.167	57697.34
634.521	57684.68
634.875	57745.25
635.229	57650.79
635.583	57566.27
635.937	57652.37
636.291	57557.91
636.645	57598.81
636.999	57441.07
637.352	57510.45
637.706	57363.11
638.06	57556.1
638.413	57405.6
638.767	57361.3
639.121	57423.9
639.474	57316.11
639.828	57320.4
640.181	57253.51
640.534	57360.4
640.888	57195.88
641.241	57115.66
641.594	57196.79
641.947	57220.97
642.301	57153.4
642.654	57171.48
643.007	57097.81
643.36	57191.36
643.713	57138.26
644.066	57155.88
644.419	56939.17
644.771	56745.5
645.124	56427.99
645.477	56430.48
645.83	56280.43
646.182	56335.79
646.535	56261.67
646.888	56309.8
647.24	56295.12
647.593	56313.87
647.945	56188.9
648.298	56195.68
648.65	56066.65
649.002	55934.9
649.355	55954.33
649.707	55917.05
650.059	55928.8
650.411	56203.82
650.763	56312.06
651.115	56641.32
651.467	56626.18
651.819	56564.71
652.171	56492.62
652.523	56394.55
652.875	56480.2
653.227	56354.1
653.578	56568.55
653.93	56415.79
654.282	56380.76
654.633	56243.59
654.985	56345.74
655.337	56370.37
655.688	56334.21
656.039	56354.32
656.391	56132.86
656.742	56203.82
657.094	56222.35
657.445	56241.78
657.796	56239.3
658.147	56225.97
658.498	56153.65
658.849	56298.51
659.2	56256.92
659.551	56163.14
659.902	56185.29
660.253	56074.33
660.604	56246.76
660.955	56046.76
661.306	56241.78
661.656	56008.34
662.007	56115.69
662.358	56087.66
662.708	56038.4
663.059	56019.42
663.409	55878.18
663.76	56053.77
664.11	56035.91
664.461	56103.71
664.811	56088.12
665.161	55981
665.511	55950.04
665.862	56025.29
666.212	56056.93
666.562	56085.86
666.912	55940.1
667.262	55930.83
667.612	55914.33
667.962	55990.49
668.312	55864.84
668.662	56140.32
669.011	55980.32
669.361	55925.63
669.711	55891.74
670.06	55861.23
670.41	55856.03
670.76	55910.04
671.109	55949.59
671.459	55885.18
671.808	55828.46
672.157	55929.02
672.507	55784.39
672.856	55782.36
673.205	55785.3
673.554	55840.44
673.904	55719.76
674.253	55983.49
674.602	55775.13
674.951	55398.87
675.3	55247.69
675.649	55743.94
675.998	55781.23
676.346	55758.63
676.695	55792.3
677.044	55646.32
677.393	55720.22
677.741	55754.79
678.09	55607.68
678.438	55562.71
678.787	55633.21
679.135	55611.52
679.484	55501.24
679.832	55604.29
680.181	55554.8
680.529	55510.05
680.877	55418.3
681.225	55378.98
681.573	55565.42
681.922	55425.31
682.27	55304.18
682.618	55243.39
682.966	55270.06
683.314	55285.88
683.661	55229.38
684.009	55211.53
684.357	55176.5
684.705	55056.5
685.053	55116.84
685.4	54953.23
685.748	54921.37
686.095	54897.86
686.443	54758.43
686.79	54766.34
687.138	54816.74
687.485	54772.44
687.832	54661.49
688.18	54642.5
688.527	54646.12
688.874	54503.07
689.221	54536.29
689.568	54422.4
689.915	54401.61
690.262	54441.38
690.609	54302.63
690.956	54237.99
691.303	54262.63
691.65	54132.23
691.997	54066.02
692.344	53897.21
692.69	53894.5
693.037	53876.65
693.383	53669.65
693.73	53802.3
694.077	53599.14
694.423	53557.11
694.769	53527.05
695.116	53421.97
695.462	53294.52
695.808	53266.72
696.155	53355.76
696.501	52999.61
696.847	53212.71
697.193	52864.25
697.539	52990.12
697.885	52766.17
698.231	52750.8
698.577	52596.68
698.923	52680.07
699.269	52449.79
699.614	52347.42
699.96	52227.65
700.306	52279.4
700.651	52071.5
700.997	52059.52
701.342	51945.4
701.688	51874.44
702.033	51740.21
702.379	51770.49
702.724	51624.5
703.069	51631.74
703.415	51361.01
703.76	51349.48
704.105	51250.5
704.45	51250.05
704.795	51074.24
705.14	51091.18
705.485	50952.43
705.83	50794.7
706.175	50814.36
706.52	50663.4
706.865	50596.28
707.209	50534.59
707.554	50562.84
707.899	50499.11
708.243	50223.64
708.588	50142.51
708.932	50036.3
709.277	50117.65
709.621	50011.67
709.966	49794.5
710.31	49804.89
710.654	49513.83
710.998	49512.02
711.342	49633.82
711.687	49465.24
712.031	49467.5
712.375	49200.61
712.719	49237.9
713.063	49188.64
713.407	49316.54
713.75	49066.61
714.094	48957.23
714.438	48886.5
714.782	48810.11
715.125	48658.03
715.469	48753.62
715.812	48505.94
716.156	48445.38
716.499	48399.73
716.843	48425.72
717.186	48283.35
717.53	48431.37
717.873	48349.56
718.216	48273.86
718.559	48108.21
718.902	47858.5
719.246	47915.9
719.589	47890.14
719.932	47763.14
720.275	47660.77
720.617	47714.1
720.96	47545.29
721.303	47522.01
721.646	47612.41
721.989	47360.89
722.331	47455.35
722.674	47430.72
723.016	47381
723.359	47221
723.701	47270.04
724.044	47128.35
724.386	46892.2
724.729	47049.94
725.071	47055.13
725.413	46928.36
725.755	46975.59
726.097	46933.1
726.439	46650.85
726.782	46547.58
727.124	46795.93
727.465	46647.91
727.807	46487.24
728.149	46480.91
728.491	46510.97
728.833	46518.2
729.175	46487.01
729.516	46263.74
729.858	46259.45
730.199	46437.75
730.541	46349.84
730.882	46190.3
731.224	46191.65
731.565	46030.98
731.906	46103.52
732.248	46186
732.589	46107.81
732.93	45801.83
733.271	45898.33
733.612	45953.24
733.953	46015.16
734.294	45840.25
734.635	45726.58
734.976	45986.01
735.317	45815.62
735.658	45749.86
735.999	45630.09
736.339	45628.05
736.68	45733.81
737.021	45600.71
737.361	45506.47
737.702	45866.92
738.042	45661.95
738.383	45634.61
738.723	45751.44
739.063	45461.73
739.404	45703.3
739.744	45540.82
740.084	45423.99
740.424	45430.99
740.764	45496.98
741.104	45641.84
741.444	45422.63
741.784	45196.88
742.124	45422.86
742.464	45382.18
742.804	45294.05
743.143	45116.88
743.483	45240.72
743.823	45225.58
744.162	45185.58
744.502	45408.62
744.841	45303.77
745.181	45310.77
745.52	45095.64
745.86	45181.51
746.199	45157.56
746.538	45047.05
746.877	45266.71
747.216	45134.28
747.556	45061.74
747.895	45131.34
748.234	44928.64
748.573	45029.42
748.911	45035.52
749.25	45003.21
749.589	44899.94
749.928	44983.55
750.267	44970.22
750.605	44961.18
750.944	44986.49
751.283	44820.39
751.621	44981.52
751.96	44804.12
752.298	44842.31
752.636	44901.97
752.975	44774.29
753.313	44682.99
753.651	44948.52
753.989	44612.49
754.327	44748.98
754.666	44368.88
755.004	44582.2
755.342	44614.29
