Data from 14-0848_FLMS001491_004.txt Node
Date: Thu Apr 19 16:08:16 BST 2018
User: hsy
Spectrometer: FLMS00149
Trigger mode: 0
Integration Time (sec): 1.000000E-2
Scans to average: 10
Electric dark correction enabled: true
Nonlinearity correction enabled: false
Boxcar width: 0
XAxis mode: Wavelengths
Number of Pixels in Spectrum: 2048
>>>>>Begin Spectral Data<<<<<
341.393	-13.42
341.776	-13.42
342.16	-13.42
342.543	-58.16
342.927	-64.94
343.31	-62.68
343.693	-68.33
344.077	-67.43
344.46	-65.39
344.843	-53.19
345.226	-31.5
345.61	-41.21
345.993	-25.62
346.376	1.5
346.759	8.5
347.142	24.55
347.525	56.41
347.908	62.06
348.291	76.98
348.674	96.64
349.057	88.73
349.44	133.92
349.823	140.48
350.206	161.94
350.588	239.68
350.971	256.41
351.354	270.64
351.737	264.09
352.119	303.18
352.502	305.44
352.884	302.96
353.267	314.03
353.65	323.52
354.032	355.16
354.414	330.08
354.797	346.8
355.179	356.74
355.562	358.1
355.944	375.95
356.326	381.83
356.709	368.49
357.091	382.5
357.473	385.22
357.855	368.04
358.238	391.09
358.62	381.6
359.002	363.07
359.384	366.01
359.766	384.99
360.148	371.66
360.53	406.68
360.912	385.67
361.294	392.9
361.676	384.76
362.057	389.74
362.439	375.95
362.821	380.92
363.203	389.51
363.584	373.24
363.966	377.08
364.348	395.39
364.729	373.24
365.111	358.55
365.493	392.22
365.874	377.76
366.256	401.03
366.637	384.76
367.019	359.45
367.4	370.3
367.781	367.82
368.163	376.4
368.544	371.66
368.925	386.12
369.306	374.59
369.688	385.67
370.069	385.89
370.45	363.07
370.831	381.37
371.212	395.84
371.593	376.4
371.974	386.12
372.355	381.37
372.736	387.02
373.117	404.2
373.498	379.34
373.879	403.29
374.26	381.6
374.641	393.8
375.021	386.8
375.402	387.7
375.783	398.32
376.163	405.78
376.544	420.24
376.925	400.13
377.305	402.62
377.686	396.06
378.066	422.73
378.447	420.7
378.827	414.37
379.208	421.15
379.588	390.19
379.968	432.9
380.349	403.97
380.729	406.01
381.109	418.44
381.489	444.88
381.87	446.91
382.25	434.03
382.63	453.01
383.01	420.47
383.39	430.19
383.77	414.82
384.15	451.2
384.53	447.59
384.91	444.88
385.29	429.06
385.67	451.65
386.049	459.56
386.429	468.83
386.809	471.99
387.189	452.78
387.568	446.01
387.948	479.45
388.328	486
388.707	475.16
389.087	472.45
389.466	490.52
389.846	489.39
390.225	487.59
390.605	489.39
390.984	463.41
391.363	482.61
391.743	505.21
392.122	496.17
392.501	490.52
392.881	516.06
393.26	518.32
393.639	517.19
394.018	503.63
394.397	515.61
394.776	528.49
395.155	514.93
395.534	521.26
395.913	494.82
396.292	528.71
396.671	532.78
397.05	547.7
397.429	528.71
397.808	520.35
398.186	553.57
398.565	554.02
398.944	562.61
399.323	549.96
399.701	550.18
400.08	557.41
400.458	564.87
400.837	555.38
401.215	584.53
401.594	585.89
401.972	605.78
402.351	582.05
402.729	583.63
403.107	595.38
403.486	575.04
403.864	599.67
404.242	643.06
404.62	607.81
404.999	626.79
405.377	638.77
405.755	617.53
406.133	617.3
406.511	638.77
406.889	653.68
407.267	662.95
407.645	674.02
408.023	682.38
408.401	643.51
408.779	681.71
409.156	692.78
409.534	713.79
409.912	710.86
410.29	694.13
410.667	707.24
411.045	732.33
411.422	723.29
411.8	727.13
412.178	718.99
412.555	726.68
412.933	770.52
413.31	750.4
413.687	751.99
414.065	773.68
414.442	787.92
414.819	803.74
415.197	825.43
415.574	835.83
415.951	829.5
416.328	832.89
416.705	830.85
417.082	849.84
417.46	876.95
417.837	855.49
418.214	832.44
418.591	849.38
418.967	864.98
419.344	897.07
419.721	918.76
420.098	867.46
420.475	936.84
420.852	897.52
421.228	915.37
421.605	928.7
421.982	925.77
422.358	928.93
422.735	928.48
423.111	935.48
423.488	949.49
423.864	940.68
424.241	999.89
424.617	976.16
424.994	984.07
425.37	987.69
425.746	1003.28
426.123	1005.09
426.499	1012.77
426.875	1041.92
427.251	1055.93
427.627	1052.77
428.003	1049.38
428.379	1080.11
428.756	1081.69
429.132	1078.53
429.507	1088.93
429.883	1106.55
430.259	1137.06
430.635	1140.9
431.011	1158.75
431.387	1169.6
431.763	1178.19
432.138	1201.47
432.514	1169.6
432.89	1228.58
433.265	1240.33
433.641	1263.84
434.016	1262.03
434.392	1250.96
434.767	1283.05
435.143	1292.08
435.518	1308.81
435.894	1325.98
436.269	1367.11
436.644	1359.88
437.02	1354.68
437.395	1387.9
437.77	1379.77
438.145	1417.51
438.52	1423.61
438.895	1415.25
439.271	1419.99
439.646	1438.3
440.021	1469.26
440.395	1436.71
440.77	1451.4
441.145	1452.08
441.52	1505.19
441.895	1499.54
442.27	1503.38
442.645	1482.36
443.019	1530.27
443.394	1493.21
443.769	1532.76
444.143	1501.12
444.518	1533.21
444.892	1533.66
445.267	1574.56
445.641	1562.59
446.016	1583.38
446.39	1565.75
446.764	1635.8
447.139	1599.42
447.513	1596.71
447.887	1611.17
448.262	1625.64
448.636	1635.8
449.01	1661.57
449.384	1685.52
449.758	1683.94
450.132	1713.32
450.506	1715.12
450.88	1741.34
451.254	1751.51
451.628	1763.48
452.002	1791.05
452.376	1791.96
452.75	1799.64
453.123	1791.73
453.497	1826.31
453.871	1820.66
454.244	1912.86
454.618	1886.87
454.992	1940.88
455.365	1962.35
455.739	2009.35
456.112	2015.68
456.486	2011.84
456.859	2018.85
457.232	2053.19
457.606	2086.64
457.979	2108.33
458.352	2113.76
458.725	2151.72
459.099	2188.11
459.472	2194.21
459.845	2244.15
460.218	2258.61
460.591	2264.71
460.964	2343.13
461.337	2323.92
461.71	2399.17
462.083	2391.26
462.456	2419.51
462.829	2410.02
463.201	2471.04
463.574	2458.16
463.947	2500.41
464.32	2545.84
464.692	2557.14
465.065	2581.77
465.438	2616.57
465.81	2666.96
466.183	2649.11
466.555	2748.09
466.928	2767.07
467.3	2746.06
467.672	2791.93
468.045	2848.2
468.417	2841.65
468.789	2878.26
469.161	2934.75
469.534	2944.02
469.906	3024.92
470.278	3014.53
470.65	3045.26
471.022	3128.19
471.394	3143.79
471.766	3166.84
472.138	3232.15
472.51	3276.21
472.882	3363.22
473.253	3354.63
473.625	3426.72
473.997	3487.96
474.369	3487.96
474.74	3567.96
475.112	3605.7
475.484	3657.22
475.855	3737.44
476.227	3746.26
476.598	3894.5
476.97	3940.83
477.341	4007.95
477.713	4062.18
478.084	4125
478.455	4195.96
478.827	4263.98
479.198	4385.79
479.569	4367.03
479.94	4521.6
480.311	4587.14
480.682	4683.86
481.053	4776.29
481.424	4893.12
481.795	4964.53
482.166	5011.08
482.537	5112.78
482.908	5186.67
483.279	5234.13
483.65	5414.01
484.021	5555.25
484.391	5595.02
484.762	5665.98
485.133	5775.81
485.503	5877.95
485.874	6024.84
486.244	6090.15
486.615	6315
486.985	6370.82
487.356	6476.36
487.726	6584.6
488.097	6816.69
488.467	6838.61
488.837	7096
489.207	7162.66
489.578	7315.66
489.948	7432.71
490.318	7575.76
490.688	7678.13
491.058	7980.27
491.428	8077.89
491.798	8118.57
492.168	8424.1
492.538	8493.25
492.908	8698.9
493.278	8819.34
493.648	8984.76
494.017	9145.66
494.387	9280.58
494.757	9424.98
495.126	9619.55
495.496	9758.3
495.866	9924.17
496.235	10104.51
496.605	10259.98
496.974	10433.09
497.344	10677.6
497.713	10817.26
498.082	10967.54
498.452	11184.48
498.821	11388.32
499.19	11511.48
499.559	11733.62
499.928	11942.2
500.298	12067.17
500.667	12400.72
501.036	12420.15
501.405	12709.64
501.774	12813.59
502.143	13044.09
502.512	13236.63
502.88	13409.05
503.249	13625.32
503.618	13807.69
503.987	14072.77
504.356	14259.65
504.724	14359.54
505.093	14612.19
505.462	14655.12
505.83	14949.8
506.199	15207.2
506.567	15416.91
506.936	15603.12
507.304	15851.7
507.672	16004.24
508.041	16170.34
508.409	16523.32
508.777	16682.19
509.145	16889.87
509.514	17045.34
509.882	17196.75
510.25	17379.35
510.618	17665.67
510.986	17697.53
511.354	18088.25
511.722	18316.27
512.09	18523.72
512.458	18603.72
512.826	18724.62
513.193	18907.89
513.561	19120.09
513.929	19313.08
514.297	19543.36
514.664	19801.88
515.032	19926.62
515.4	20214.75
515.767	20241.64
516.135	20455.65
516.502	20421.75
516.869	20908.97
517.237	21067.16
517.604	21036.88
517.972	21374.72
518.339	21517.77
518.706	21681.61
519.073	21814.26
519.44	22060.8
519.808	22308.93
520.175	22367.91
520.542	22698.53
520.909	22907.79
521.276	22955.02
521.643	23314.1
522.009	23412.41
522.376	23672.74
522.743	23792.74
523.11	24077.93
523.477	24307.07
523.843	24511.59
524.21	24790.68
524.577	25027.28
524.943	25230.44
525.31	25233.83
525.676	25621.16
526.043	25827.94
526.409	26097.08
526.776	26294.82
527.142	26387.02
527.508	26596.73
527.874	26848.25
528.241	26942.71
528.607	27198.07
528.973	27584.05
529.339	27500.89
529.705	27912.63
530.071	28055.22
530.437	28387.19
530.803	28425.16
531.169	28552.84
531.535	28646.39
531.901	28785.15
532.267	29020.4
532.632	29251.58
532.998	29351.46
533.364	29604.11
533.73	29571.79
534.095	29854.72
534.461	29983.99
534.826	30177.65
535.192	30174.72
535.557	30460.13
535.923	30420.81
536.288	30573.57
536.653	30887.24
537.019	30797.07
537.384	30953.9
537.749	31086.78
538.114	31160.23
538.479	31184.41
538.845	31385.53
539.21	31459.65
539.575	31552.08
539.94	31595.92
540.305	31825.97
540.67	31855.12
541.034	31925.63
541.399	32040.65
541.764	32172.63
542.129	32190.26
542.494	32396.8
542.858	32535.1
543.223	32453.53
543.587	32592.96
543.952	32631.6
544.316	32710.47
544.681	32679.06
545.045	32972.16
545.41	33034.07
545.774	33081.98
546.138	33030.46
546.503	33314.97
546.867	33281.07
547.231	33608.98
547.595	33650.56
547.959	33684
548.324	33834.05
548.688	33908.18
549.052	33946.14
549.416	33945.01
549.779	34029.75
550.143	34163.08
550.507	34380.25
550.871	34421.38
551.235	34370.99
551.599	34820.92
551.962	34824.31
552.326	34917.87
552.689	35089.16
553.053	34857.3
553.417	35057.75
553.78	35470.62
554.143	35434.24
554.507	35544.29
554.87	35594.01
555.234	35982.47
555.597	35777.05
555.96	35924.39
556.323	36002.36
556.686	36019.08
557.05	36297.04
557.413	36365.51
557.776	36430.82
558.139	36795.56
558.502	36776.58
558.865	36856.8
559.228	37107.87
559.59	37086.17
559.953	37231.48
560.316	37661.52
560.679	37611.58
561.041	37688.64
561.404	37995.75
561.767	38222.87
562.129	38233.03
562.492	38504.67
562.854	38567.71
563.217	38608.84
563.579	38646.36
563.941	38965.44
564.304	39059.91
564.666	39476.39
565.028	39299.22
565.39	39426.68
565.753	39730.17
566.115	39836.38
566.477	40029.6
566.839	40133.55
567.201	40431.17
567.563	40354.33
567.925	40830.25
568.287	40763.36
568.648	40851.27
569.01	41121.55
569.372	41466.4
569.734	41399.96
570.095	41799.49
570.457	42054.18
570.819	42066.83
571.18	42081.52
571.542	42575.07
571.903	42364.23
572.265	42642.64
572.626	42885.57
572.987	42875.62
573.349	43161.72
573.71	43374.14
574.071	43481.71
574.432	43556.51
574.794	44015.03
575.155	43941.58
575.516	44075.14
575.877	44350.39
576.238	44445.53
576.599	44468.35
576.96	44729.13
577.32	44872.86
577.681	44928.23
578.042	45341.32
578.403	45197.82
578.763	45316.69
579.124	45330.47
579.485	45670.58
579.845	45826.28
580.206	45908.76
580.566	46088.87
580.927	46061.08
581.287	46282.09
581.648	46423.78
582.008	46623.1
582.368	46713.72
582.728	46912.81
583.089	46719.59
583.449	47003.88
583.809	47132.91
584.169	47341.72
584.529	47337.2
584.889	47772.9
585.249	47578.78
585.609	47499.68
585.969	47951.2
586.329	47923.4
586.688	48195.26
587.048	48115.94
587.408	48225.31
587.768	48361.13
588.127	48687.9
588.487	48546.44
588.846	49058.51
589.206	48809.25
589.565	48891.96
589.925	49364.49
590.284	49300.09
590.643	49438.84
591.003	49635.22
591.362	49898.49
591.721	49926.96
592.08	50021.2
592.44	50236.79
592.799	50237.92
593.158	50446.5
593.517	50324.47
593.876	50770.11
594.235	50709.54
594.593	50787.05
594.952	50921.97
595.311	50989.08
595.67	51202.41
596.029	51438.11
596.387	51480.6
596.746	51717.2
597.104	51593.59
597.463	51667.71
597.822	51966.23
598.18	51970.3
598.538	52092.33
598.897	52295.26
599.255	52190.86
599.613	52681.24
599.972	52566.44
600.33	52712.65
600.688	52780.22
601.046	52912.2
601.404	53158.52
601.762	53100.44
602.12	53305.86
602.478	53280.77
602.836	53457.27
603.194	53279.42
603.552	53441
603.91	53473.09
604.268	53736.36
604.625	53711.72
604.983	53849.57
605.341	53761.44
605.698	54102.67
606.056	54313.97
606.413	54260.18
606.771	54464.7
607.128	54433.06
607.485	54372.95
607.843	54541.53
608.2	54719.83
608.557	54759.38
608.914	54828.98
609.272	54975.64
609.629	55121.63
609.986	55212.25
610.343	55196.66
610.7	55478.68
611.057	55442.53
611.414	55334.05
611.771	55567.95
612.127	55698.11
612.484	55678.68
612.841	55803.42
613.198	55745.79
613.554	55668.28
613.911	56030.98
614.267	56048.16
614.624	56056.07
614.98	56178.78
615.337	56350.07
615.693	56312.33
616.05	56346
616.406	56470.52
616.762	56436.62
617.118	56444.76
617.475	56507.81
617.831	56661.7
618.187	56723.62
618.543	56779.21
618.899	56962.94
619.255	56845.2
619.611	56849.49
619.967	57000.45
620.323	57074.57
620.678	56950.96
621.034	57016.72
621.39	57030.05
621.746	57039.32
622.101	57357.28
622.457	57088.36
622.812	57246.09
623.168	57290.84
623.523	57278.18
623.879	57430.5
624.234	57270.27
624.589	57411.06
624.945	57445.64
625.3	57470.49
625.655	57454.9
626.01	57507.33
626.365	57535.13
626.72	57451.06
627.075	57454
627.43	57518.4
627.785	57496.93
628.14	57541.45
628.495	57613.32
628.85	57519.08
629.205	57547.33
629.559	57653.09
629.914	57487.67
630.269	57520.44
630.623	57385.53
630.978	57430.5
631.332	57566.99
631.687	57531.74
632.041	57501.23
632.396	57453.09
632.75	57466.88
633.104	57533.09
633.459	57407.45
633.813	57354.79
634.167	57406.99
634.521	57415.81
634.875	57403.38
635.229	57343.27
635.583	57243.61
635.937	57250.39
636.291	57255.58
636.645	57190.95
636.999	57107.79
637.352	57237.96
637.706	57009.94
638.06	57138.75
638.413	57010.17
638.767	56952.99
639.121	57022.37
639.474	56909.15
639.828	56921.36
640.181	56922.94
640.534	56938.53
640.888	56826.44
641.241	56817.63
641.594	56840.23
641.947	56840.23
642.301	56740.57
642.654	56718.88
643.007	56717.75
643.36	56757.07
643.713	56682.27
644.066	56753.9
644.419	56615.83
644.771	56292.67
645.124	56127.03
645.477	56143.07
645.83	55968.61
646.182	55972.91
646.535	55865.79
646.888	56020.14
647.24	55885.9
647.593	56119.34
647.945	55920.93
648.298	55750.09
648.65	55704.44
649.002	55604.1
649.355	55558.23
649.707	55468.29
650.059	55565.46
650.411	55917.09
650.763	56058.33
651.115	56402.05
651.467	56284.31
651.819	56275.72
652.171	56159.79
652.523	56121.6
652.875	56107.59
653.227	55986.01
653.578	56202.05
653.93	56126.12
654.282	55988.5
654.633	55986.92
654.985	56040.02
655.337	56023.53
655.688	55988.5
656.039	56105.56
656.391	55770.43
656.742	55871.21
657.094	55887.26
657.445	55921.16
657.796	55924.77
658.147	55849.97
658.498	55885
658.849	55890.65
659.2	55776.98
659.551	55736.98
659.902	55972.91
660.253	55755.06
660.604	55806.58
660.955	55651.33
661.306	55814.72
661.656	55734.27
662.007	55772.01
662.358	55722.97
662.708	55663.08
663.059	55738.56
663.409	55521.17
663.76	55675.51
664.11	55749.64
664.461	55723.65
664.811	55675.51
665.161	55663.99
665.511	55539.7
665.862	55648.17
666.212	55729.75
666.562	55679.81
666.912	55618.34
667.262	55588.51
667.612	55576.53
667.962	55581.73
668.312	55546.7
668.662	55729.07
669.011	55590.09
669.361	55600.94
669.711	55543.99
670.06	55532.69
670.41	55471.45
670.76	55491.11
671.109	55562.75
671.459	55492.69
671.808	55457.89
672.157	55495.63
672.507	55359.14
672.856	55378.35
673.205	55403.88
673.554	55572.69
673.904	55347.16
674.253	55567.95
674.602	55421.96
674.951	55143.32
675.3	54859.04
675.649	55400.72
675.998	55441.62
676.346	55412.7
676.695	55414.96
677.044	55236.2
677.393	55294.73
677.741	55317.1
678.09	55276.65
678.438	55200.05
678.787	55301.96
679.135	55276.43
679.484	55220.16
679.832	55213.83
680.181	55090.44
680.529	55144.91
680.877	55064
681.225	55052.03
681.573	55272.36
681.922	55081.18
682.27	54981.07
682.618	54962.31
682.966	54924.12
683.314	54941.97
683.661	54918.02
684.009	54832.6
684.357	54676.9
684.705	54680.96
685.053	54784.24
685.4	54601.42
685.748	54569.33
686.095	54541.31
686.443	54445.04
686.79	54487.07
687.138	54481.65
687.485	54484.13
687.832	54355.55
688.18	54349.67
688.527	54180.64
688.874	54179.96
689.221	54207.53
689.568	54098.61
689.915	53945.84
690.262	54049.79
690.609	53960.53
690.956	53792.85
691.303	53817.03
691.65	53684.38
691.997	53711.95
692.344	53534.78
692.69	53461.79
693.037	53488
693.383	53347.89
693.73	53350.83
694.077	53225.86
694.423	53152.19
694.769	53092.08
695.116	53060.67
695.462	52834.01
695.808	52824.51
696.155	52853.67
696.501	52577.52
696.847	52665.2
697.193	52461.81
697.539	52532.09
697.885	52293.46
698.231	52249.39
698.577	52177.53
698.923	52158.77
699.269	51947.25
699.614	51773.24
699.96	51734.6
700.306	51756.29
700.651	51594.94
700.997	51444.44
701.342	51481.05
701.688	51354.72
702.033	51302.75
702.379	51228.4
702.724	51109.08
703.069	51135.52
703.415	50844
703.76	50806.04
704.105	50836.09
704.45	50712.71
704.795	50572.82
705.14	50501.64
705.485	50403.56
705.83	50176.45
706.175	50319.95
706.52	50160.63
706.865	50038.83
707.209	50016.23
707.554	49955.66
707.899	49942.56
708.243	49669.57
708.588	49655.78
708.932	49512.51
709.277	49533.98
709.621	49369.01
709.966	49170.37
710.31	49185.06
710.654	48931.28
710.998	48990.72
711.342	49056.25
711.687	48883.15
712.031	48790.95
712.375	48728.35
712.719	48473.89
713.063	48394.35
713.407	48662.36
713.75	48423.73
714.094	48304.63
714.438	48244.52
714.782	48217.63
715.125	48118.42
715.469	48228.03
715.812	47836.17
716.156	47817.87
716.499	47756.85
716.843	48021.48
717.186	47624.43
717.53	47814.93
717.873	47760.69
718.216	47542.17
718.559	47482.06
718.902	47239.13
719.246	47351.89
719.589	47280.71
719.932	47078.45
720.275	47084.78
720.617	47221.72
720.96	46931.34
721.303	47165.91
721.646	47063.99
721.989	46789.65
722.331	46901.51
722.674	46790.32
723.016	46772.47
723.359	46652.47
723.701	46704
724.044	46393.72
724.386	46417
724.729	46443.21
725.071	46257.23
725.413	46431.01
725.755	46273.73
726.097	46186.72
726.439	45993.51
726.782	46005.71
727.124	46243.22
727.465	46053.39
727.807	45985.37
728.149	46003.68
728.491	45792.61
728.833	45869.9
729.175	45789.22
729.516	45781.31
729.858	45604.82
730.199	45780.41
730.541	45642.33
730.882	45688.43
731.224	45607.53
731.565	45621.54
731.906	45411.38
732.248	45629.68
732.589	45206.64
732.93	45302.9
733.271	45344.94
733.612	45429.46
733.953	45464.71
734.294	45250.93
734.635	45036.25
734.976	45374.54
735.317	45143.81
735.658	45192.63
735.999	44981.11
736.339	45035.57
736.68	45112.4
737.021	45035.34
737.361	44796.03
737.702	45136.36
738.042	45020.2
738.383	45048
738.723	45035.57
739.063	44741.56
739.404	44985.63
739.744	44858.17
740.084	44775.46
740.424	44869.02
740.764	44840.09
741.104	45066.98
741.444	44779.53
741.784	44559.42
742.124	44700.43
742.464	44627.44
742.804	44536.37
743.143	44530.95
743.483	44598.52
743.823	44655.01
744.162	44588.57
744.502	44690.04
744.841	44528.69
745.181	44770.04
745.52	44567.78
745.86	44641.45
746.199	44615.01
746.538	44608.46
746.877	44661.57
747.216	44608.46
747.556	44546.77
747.895	44591.96
748.234	44480.78
748.573	44497.5
748.911	44367.34
749.25	44407.11
749.589	44258.86
749.928	44419.54
750.267	44467.22
750.605	44294.12
750.944	44344.74
751.283	44329.15
751.621	44410.05
751.96	44307
752.298	44159.21
752.636	44399.65
752.975	44152.88
753.313	44137.96
753.651	44365.08
753.989	44238.07
754.327	44359.43
754.666	44055.71
755.004	44227.9
