Data from 14-0852_FLMS001491_006.txt Node
Date: Thu Apr 12 17:07:11 BST 2018
User: hsy
Spectrometer: FLMS00149
Trigger mode: 0
Integration Time (sec): 1.000000E-2
Scans to average: 10
Electric dark correction enabled: true
Nonlinearity correction enabled: false
Boxcar width: 0
XAxis mode: Wavelengths
Number of Pixels in Spectrum: 2048
>>>>>Begin Spectral Data<<<<<
341.393	-8.83
341.776	-8.83
342.16	-8.83
342.543	-69.16
342.927	-71.2
343.31	-66.23
343.693	-50.63
344.077	-74.59
344.46	-50.18
344.843	-35.95
345.226	-47.02
345.61	-27.58
345.993	-32.33
346.376	-13.12
346.759	15.13
347.142	11.74
347.525	53.54
347.908	60.1
348.291	61.23
348.674	78.18
349.057	117.72
349.44	98.74
349.823	122.69
350.206	171.05
350.588	253.54
350.971	246.08
351.354	268.91
351.737	303.03
352.119	291.96
352.502	296.25
352.884	319.75
353.267	340.99
353.65	343.03
354.032	358.39
354.414	346.19
354.797	361.11
355.179	371.28
355.562	389.81
355.944	389.81
356.326	374.89
356.709	375.34
357.091	403.37
357.473	392.97
357.855	376.47
358.238	410.6
358.62	407.21
359.002	397.04
359.384	399.52
359.766	366.76
360.148	405.62
360.53	381.67
360.912	373.54
361.294	385.96
361.676	402.91
362.057	384.83
362.439	373.54
362.821	379.86
363.203	391.39
363.584	383.03
363.966	395.68
364.348	379.41
364.729	403.59
365.111	378.73
365.493	383.7
365.874	370.15
366.256	377.15
366.637	373.31
367.019	365.85
367.4	367.66
367.781	379.41
368.163	374.44
368.544	371.5
368.925	385.29
369.306	395
369.688	383.93
370.069	375.57
370.45	361.56
370.831	375.8
371.212	389.13
371.593	378.51
371.974	373.31
372.355	366.08
372.736	392.52
373.117	404.72
373.498	399.3
373.879	409.69
374.26	392.74
374.641	390.26
375.021	401.33
375.402	396.59
375.783	407.21
376.163	404.72
376.544	396.81
376.925	425.96
377.305	412.63
377.686	390.71
378.066	429.13
378.447	413.31
378.827	381.9
379.208	416.25
379.588	408.56
379.968	433.19
380.349	428.68
380.729	423.93
381.109	414.89
381.489	442.23
381.87	423.25
382.25	447.88
382.63	435
383.01	448.79
383.39	448.11
383.77	443.14
384.15	457.6
384.53	452.63
384.91	463.93
385.29	456.7
385.67	459.41
386.049	481.56
386.429	455.12
386.809	471.16
387.189	439.52
387.568	483.36
387.948	472.52
388.328	484.27
388.707	484.72
389.087	471.39
389.466	472.06
389.846	481.78
390.225	502.8
390.605	473.19
390.984	495.34
391.363	485.17
391.743	505.51
392.122	505.28
392.501	495.11
392.881	493.53
393.26	500.31
393.639	521.1
394.018	518.84
394.397	526.98
394.776	535.79
395.155	534.66
395.534	551.84
395.913	543.02
396.292	560.42
396.671	531.05
397.05	540.08
397.429	568.78
397.808	559.97
398.186	529.46
398.565	563.36
398.944	537.15
399.323	600.2
399.701	564.04
400.08	576.47
400.458	585.73
400.837	568.56
401.215	575.11
401.594	581.21
401.972	603.59
402.351	591.61
402.729	602
403.107	598.61
403.486	608.33
403.864	601.1
404.242	618.73
404.62	624.15
404.999	619.63
405.377	625.28
405.755	609.01
406.133	635.9
406.511	644.71
406.889	659.86
407.267	656.01
407.645	642.45
408.023	684.94
408.401	666.64
408.779	660.76
409.156	680.19
409.534	665.73
409.912	698.27
410.29	704.37
410.667	706.18
411.045	717.71
411.422	736.24
411.8	717.26
412.178	715.45
412.555	717.93
412.933	741.21
413.31	802.22
413.687	755.9
414.065	758.16
414.442	783.24
414.819	769.68
415.197	774.43
415.574	791.6
415.951	772.85
416.328	809.23
416.705	794.32
417.082	797.93
417.46	831.38
417.837	827.99
418.214	851.04
418.591	834.54
418.967	831.38
419.344	827.08
419.721	845.39
420.098	857.14
420.475	866.4
420.852	866.18
421.228	882.67
421.605	889
421.982	871.38
422.358	894.65
422.735	895.33
423.111	892.39
423.488	910.7
423.864	909.57
424.241	929.68
424.617	925.61
424.994	923.35
425.37	937.59
425.746	936.01
426.123	948.44
426.499	966.51
426.875	964.03
427.251	1013.52
427.627	998.38
428.003	1020.07
428.379	1039.05
428.756	1039.51
429.132	1040.41
429.507	1032.05
429.883	1040.41
430.259	1077.25
430.635	1135.1
431.011	1070.24
431.387	1081.31
431.763	1094.87
432.138	1101.65
432.514	1132.39
432.89	1134.87
433.265	1164.02
433.641	1185.27
434.016	1180.07
434.392	1189.33
434.767	1209.9
435.143	1197.69
435.518	1246.05
435.894	1224.59
436.269	1210.8
436.644	1241.31
437.02	1274.53
437.395	1259.16
437.77	1291.03
438.145	1282.66
438.52	1315.43
438.895	1313.4
439.271	1270.01
439.646	1341.42
440.021	1332.83
440.395	1344.36
440.77	1333.28
441.145	1355.66
441.52	1375.77
441.895	1364.92
442.27	1394.3
442.645	1392.94
443.019	1391.81
443.394	1397.92
443.769	1422.1
444.143	1422.55
444.518	1446.73
444.892	1423.9
445.267	1435.2
445.641	1472.04
446.016	1441.3
446.39	1451.7
446.764	1482.66
447.139	1465.48
447.513	1480.17
447.887	1490.79
448.262	1478.37
448.636	1486.73
449.01	1550.23
449.384	1540.06
449.758	1563.11
450.132	1585.03
450.506	1594.29
450.88	1581.87
451.254	1590.23
451.628	1660.06
452.002	1666.61
452.376	1665.48
452.75	1703.9
453.123	1691.24
453.497	1713.84
453.871	1713.84
454.244	1773.72
454.618	1780.96
454.992	1779.6
455.365	1835.64
455.739	1844.01
456.112	1848.98
456.486	1841.07
456.859	1883.1
457.232	1913.83
457.606	1943.66
457.979	1950.22
458.352	1984.57
458.725	2007.62
459.099	2007.84
459.472	2050.78
459.845	2056.65
460.218	2065.24
460.591	2095.52
460.964	2115.18
461.337	2192.24
461.71	2193.37
462.083	2215.52
462.456	2230.21
462.829	2207.61
463.201	2283.09
463.574	2297.78
463.947	2323.31
464.32	2316.99
464.692	2356.08
465.065	2416.87
465.438	2429.07
465.81	2431.56
466.183	2488.28
466.555	2512.69
466.928	2506.81
467.3	2537.55
467.672	2557.88
468.045	2632.91
468.417	2631.33
468.789	2667.49
469.161	2647.83
469.534	2718.11
469.906	2798.33
470.278	2786.81
470.65	2812.12
471.022	2872.45
471.394	2929.4
471.766	2955.16
472.138	2990.19
472.51	3059.34
472.882	3085.1
473.253	3108.6
473.625	3175.04
473.997	3219.34
474.369	3226.57
474.74	3261.82
475.112	3354.25
475.484	3325.1
475.855	3429.95
476.227	3474.7
476.598	3589.72
476.97	3610.06
477.341	3697.97
477.713	3712.43
478.084	3775.93
478.455	3920.11
478.827	3914.01
479.198	4065.42
479.569	4049.82
479.94	4190.84
480.311	4216.15
480.682	4310.61
481.053	4447.1
481.424	4457.72
481.795	4580.2
482.166	4642.58
482.537	4773.65
482.908	4813.87
483.279	4884.6
483.65	4955.79
484.021	5091.83
484.391	5239.4
484.762	5247.08
485.133	5345.61
485.503	5445.27
485.874	5570.69
486.244	5639.16
486.615	5763.22
486.985	5856.1
487.356	6074.18
487.726	6129.54
488.097	6264.45
488.467	6333.6
488.837	6519.14
489.207	6638.46
489.578	6833.48
489.948	6938.33
490.318	7054.49
490.688	7171.77
491.058	7340.36
491.428	7521.37
491.798	7608.37
492.168	7824.41
492.538	7929.27
492.908	8181.24
493.278	8335.81
493.648	8402.7
494.017	8621.23
494.387	8745.29
494.757	8993.87
495.126	9122.68
495.496	9279.97
495.866	9455.78
496.235	9610.35
496.605	9792.27
496.974	9975.77
497.344	10226.84
497.713	10489.2
498.082	10521.52
498.452	10782.75
498.821	10990.66
499.19	11101.39
499.559	11366.47
499.928	11595.61
500.298	11774.14
500.667	12109.72
501.036	12214.13
501.405	12432.43
501.774	12676.94
502.143	12903.38
502.512	13065.86
502.88	13407.54
503.249	13506.3
503.618	13793.07
503.987	13946.29
504.356	14168.65
504.724	14379.49
505.093	14642.54
505.462	14915.75
505.83	15041.85
506.199	15405.46
506.567	15725.22
506.936	15935.16
507.304	16147.81
507.672	16346
508.041	16600.91
508.409	16918.19
508.777	17159.99
509.145	17418.06
509.514	17497.15
509.882	17805.17
510.25	17971.49
510.618	18225.27
510.986	18443.57
511.354	18745.71
511.722	18973.05
512.09	19222.08
512.458	19377.33
512.826	19709.52
513.193	19864.55
513.561	20021.61
513.929	20294.82
514.297	20705.88
514.664	20760.12
515.032	20984.07
515.4	21251.18
515.767	21410.72
516.135	21674.9
516.502	21647.1
516.869	22167.99
517.237	22339.29
517.604	22377.7
517.972	22839.84
518.339	22923.45
518.706	23203.44
519.073	23313.5
519.44	23451.12
519.808	23816.53
520.175	23918.68
520.542	24291.1
520.909	24510.3
521.276	24620.13
521.643	24953.68
522.009	25150.96
522.376	25336.49
522.743	25592.99
523.11	25968.57
523.477	26244.95
523.843	26343.93
524.21	26876.34
524.577	27013.51
524.943	27267.29
525.31	27350.23
525.676	27740.95
526.043	28032.92
526.409	28138.68
526.776	28468.84
527.142	28536.64
527.508	28817.99
527.874	29012.78
528.241	29365.99
528.607	29464.3
528.973	29883.95
529.339	29794.91
529.705	30190.83
530.071	30409.81
530.437	30762.57
530.803	30800.31
531.169	31177.47
531.535	31242.55
531.901	31512.15
532.267	31638.25
532.632	31993.95
532.998	32125.24
533.364	32316.65
533.73	32404.78
534.095	32631.9
534.461	32630.77
534.826	32929.06
535.192	33044.77
535.557	33369.5
535.923	33423.51
536.288	33530.4
536.653	33790.28
537.019	33744.86
537.384	34071.86
537.749	33995.7
538.114	34317.5
538.479	34205.19
538.845	34367.67
539.21	34494.22
539.575	34630.49
539.94	34771.5
540.305	35086.75
540.67	35012.62
541.034	35237.7
541.399	35247.87
541.764	35508.66
542.129	35586.85
542.494	35692.61
542.858	35858.03
543.223	35792.72
543.587	35954.52
543.952	36035.2
544.316	36187.28
544.681	36177.57
545.045	36481.29
545.41	36639.47
545.774	36614.84
546.138	36435.64
546.503	36824.78
546.867	36910.2
547.231	37265.45
547.595	37312.45
547.959	37270.64
548.324	37413.24
548.688	37536.85
549.052	37742.5
549.416	37672.44
549.779	37859.1
550.143	37990.63
550.507	38325.31
550.871	38258.87
551.235	38255.48
551.599	38709.25
551.962	38641.68
552.326	38760.1
552.689	38938.4
553.053	38630.38
553.417	39036.93
553.78	39496.12
554.143	39464.26
554.507	39601.2
554.87	39754.19
555.234	39986.73
555.597	39814.08
555.96	40075.99
556.323	40203.67
556.686	40246.84
557.05	40618.13
557.413	40651.35
557.776	40804.34
558.139	40982.41
558.502	41185.57
558.865	41218.56
559.228	41626.46
559.59	41697.19
559.953	41737.19
560.316	42293.34
560.679	42059.44
561.041	42304.86
561.404	42658.07
561.767	43050.15
562.129	42846.77
562.492	43148.91
562.854	43150.49
563.217	43294.21
563.579	43440.65
563.941	43594.32
564.304	43922.45
564.666	44267.07
565.028	44153.18
565.39	44369.21
565.753	44709.54
566.115	44704.35
566.477	45048.29
566.839	45051.23
567.201	45574.38
567.563	45508.85
567.925	45752.68
568.287	45836.75
568.648	46050.53
569.01	46326.45
569.372	46556.95
569.734	46577.74
570.095	46851.64
570.457	47071.29
570.819	47136.37
571.18	47047.79
571.542	47474.67
571.903	47444.16
572.265	47706.75
572.626	47856.58
572.987	47923.47
573.349	48217.7
573.71	48335.89
574.071	48507.86
574.432	48708.99
574.794	49062.2
575.155	49082.09
575.516	49019.26
575.877	49280.05
576.238	49315.98
576.599	49473.71
576.96	49517.1
577.32	49721.84
577.681	49950.99
578.042	50094.04
578.403	50221.04
578.763	50201.6
579.124	50438.43
579.485	50629.39
579.845	50876.84
580.206	50800.91
580.566	50928.82
580.927	50985.54
581.287	51222.82
581.648	51100.79
582.008	51399.76
582.368	51506.88
582.728	51604.5
583.089	51751.17
583.449	51797.72
583.809	51938.51
584.169	52118.16
584.529	52091.05
584.889	52416.91
585.249	52271.15
585.609	52327.2
585.969	52603.57
586.329	52722.89
586.688	52910.01
587.048	52930.12
587.408	53055.09
587.768	53143.45
588.127	53261.41
588.487	53257.57
588.846	53714.51
589.206	53568.52
589.565	53591.12
589.925	53919.7
590.284	53920.15
590.643	54098.22
591.003	54236.07
591.362	54514.03
591.721	54426.13
592.08	54534.15
592.44	54777.3
592.799	54857.53
593.158	54905.89
593.517	54975.04
593.876	55137.97
594.235	55200.12
594.593	55244.86
594.952	55458.19
595.311	55476.49
595.67	55635.81
596.029	55859.76
596.387	56017.5
596.746	56176.81
597.104	56062.47
597.463	56156.25
597.822	56387.66
598.18	56436.02
598.538	56591.49
598.897	56703.13
599.255	56507.88
599.613	56958.71
599.972	56939.73
600.33	57024.25
600.688	57110.12
601.046	57262.44
601.404	57506.04
601.762	57372.71
602.12	57659.49
602.478	57715.98
602.836	57793.95
603.194	57688.64
603.552	57847.96
603.91	57860.84
604.268	57999.36
604.625	58061.74
604.983	58226.48
605.341	58161.17
605.698	58366.59
606.056	58571.33
606.413	58445.91
606.771	58680.02
607.128	58685.9
607.485	58689.29
607.843	58780.14
608.2	58954.14
608.557	59061.48
608.914	59067.36
609.272	59264.87
609.629	59327.69
609.986	59441.36
610.343	59385.32
610.7	59614.69
611.057	59549.38
611.414	59600.23
611.771	59765.19
612.127	59873.89
612.484	59903.04
612.841	59972.65
613.198	59937.39
613.554	59977.39
613.911	60164.28
614.267	60286.31
614.624	60268.91
614.98	60391.39
615.337	60447.89
615.693	60511.16
616.05	60509.36
616.406	60678.84
616.762	60640.43
617.118	60696.92
617.475	60716.13
617.831	60856.01
618.187	60894.43
618.543	60896.46
618.899	61056.01
619.255	61004.71
619.611	61060.53
619.967	61158.6
620.323	61295.55
620.678	61144.59
621.034	61133.07
621.39	61163.35
621.746	61268.88
622.101	61540.51
622.457	61337.13
622.812	61452.61
623.168	61503.23
623.523	61554.98
623.879	61579.38
624.234	61449.67
624.589	61569.89
624.945	61644.01
625.3	61679.95
625.655	61738.93
626.01	61672.04
626.365	61783.67
626.72	61699.83
627.075	61721.3
627.43	61721.3
627.785	61715.43
628.14	61743.22
628.495	61715.43
628.85	61789.77
629.205	61724.69
629.559	61855.53
629.914	61712.49
630.269	61719.27
630.623	61649.21
630.978	61657.35
631.332	61759.72
631.687	61781.64
632.041	61767.63
632.396	61759.72
632.75	61701.87
633.104	61749.1
633.459	61620.51
633.813	61657.12
634.167	61585.49
634.521	61624.81
634.875	61650.79
635.229	61570.34
635.583	61495.54
635.937	61507.75
636.291	61517.92
636.645	61518.59
636.999	61420.74
637.352	61466.39
637.706	61295.55
638.06	61390.91
638.413	61342.78
638.767	61211.03
639.121	61300.75
639.474	61215.55
639.828	61215.1
640.181	61192.95
640.534	61230.24
640.888	61130.58
641.241	60996.8
641.594	61105.72
641.947	61122.9
642.301	61098.72
642.654	61073.18
643.007	60960.87
643.36	61059.17
643.713	60981.21
644.066	61086.74
644.419	60977.82
644.771	60663.48
645.124	60380.77
645.477	60442.92
645.83	60316.59
646.182	60284.28
646.535	60275.46
646.888	60304.61
647.24	60207.44
647.593	60336.93
647.945	60187.56
648.298	60157.27
648.65	59994.34
649.002	59886.77
649.355	59875.25
649.707	59834.8
650.059	59885.64
650.411	60203.6
650.763	60214.67
651.115	60610.6
651.467	60477.72
651.819	60532.41
652.171	60474.33
652.523	60415.57
652.875	60418.74
653.227	60329.47
653.578	60464.16
653.93	60404.5
654.282	60211.06
654.633	60189.82
654.985	60243.37
655.337	60251.96
655.688	60224.84
656.039	60257.84
656.391	60047.67
656.742	60151.4
657.094	60079.76
657.445	60151.17
657.796	60161.79
658.147	60071.4
658.498	60110.72
658.849	60149.82
659.2	59992.31
659.551	59993.44
659.902	60158.18
660.253	59915.02
660.604	60051.97
660.955	59891.07
661.306	60051.06
661.656	59932.65
662.007	59954.12
662.358	59964.96
662.708	59974.68
663.059	59887
663.409	59777.17
663.76	59945.98
664.11	59909.82
664.461	59908.69
664.811	59894
665.161	59822.14
665.511	59812.65
665.862	59895.13
666.212	59881.12
666.562	59937.62
666.912	59807.23
667.262	59744.63
667.612	59768.58
667.962	59800.45
668.312	59694.46
668.662	59915.7
669.011	59849.26
669.361	59784.18
669.711	59817.4
670.06	59680.45
670.41	59597.51
670.76	59681.35
671.109	59815.59
671.459	59769.04
671.808	59669.15
672.157	59768.81
672.507	59566.78
672.856	59587.12
673.205	59649.72
673.554	59727
673.904	59622.15
674.253	59781.69
674.602	59651.98
674.951	59323.62
675.3	59181.71
675.649	59592.54
675.998	59568.59
676.346	59639.32
676.695	59635.48
677.044	59444.52
677.393	59541.25
677.741	59612.2
678.09	59576.72
678.438	59528.82
678.787	59557.29
679.135	59538.08
679.484	59384.19
679.832	59498.76
680.181	59422.83
680.529	59458.08
680.877	59287.24
681.225	59383.06
681.573	59595.03
681.922	59365.66
682.27	59258.09
682.618	59357.3
682.966	59310.29
683.314	59196.4
683.661	59257.18
684.009	59142.61
684.357	59057.87
684.705	59013.8
685.053	59059.68
685.4	58968.15
685.748	58939.68
686.095	59025.55
686.443	58808.61
686.79	58809.51
687.138	58840.02
687.485	58916.18
687.832	58747.37
688.18	58785.11
688.527	58638.44
688.874	58675.96
689.221	58669.63
689.568	58575.85
689.915	58486.36
690.262	58560.25
690.609	58478.67
690.956	58371.11
691.303	58433.93
691.65	58280.49
691.997	58279.81
692.344	58151.9
692.69	58097.22
693.037	58142.86
693.383	57871.46
693.73	58009.08
694.077	57913.49
694.423	57881.85
694.769	57796.21
695.116	57769.31
695.462	57712.59
695.808	57611.8
696.155	57649.32
696.501	57446.16
696.847	57530.9
697.193	57346.05
697.539	57390.79
697.885	57198.03
698.231	57116.68
698.577	57164.58
698.923	57115.09
699.269	56913.52
699.614	56851.37
699.96	56817.02
700.306	56859.28
700.651	56702.22
700.997	56675.33
701.342	56626.29
701.688	56569.12
702.033	56521.89
702.379	56563.92
702.724	56378.62
703.069	56455.22
703.415	56217.26
703.76	56140.66
704.105	56097.27
704.45	56037.38
704.795	56010.26
705.14	55860.44
705.485	55829.7
705.83	55731.18
706.175	55815.24
706.52	55695.47
706.865	55598.3
707.209	55494.57
707.554	55437.85
707.899	55504.06
708.243	55372.99
708.588	55290.51
708.932	55077.18
709.277	55187.01
709.621	55088.93
709.966	54905.21
710.31	54965.09
710.654	54784.31
710.998	54808.94
711.342	54829.5
711.687	54672.9
712.031	54707.7
712.375	54552.45
712.719	54440.14
713.063	54441.27
713.407	54580.47
713.75	54459.57
714.094	54350.65
714.438	54267.94
714.782	54254.15
715.125	54088.51
715.469	54262.74
715.812	53967.38
716.156	53928.06
716.499	53994.27
716.843	53956.76
717.186	53804.22
717.53	53954.5
717.873	53906.37
718.216	53797.89
718.559	53704.79
718.902	53465.7
719.246	53608.75
719.589	53404.23
719.932	53285.36
720.275	53326.49
720.617	53377.34
720.96	53365.36
721.303	53277.23
721.646	53245.37
721.989	53174.41
722.331	53135.99
722.674	53132.15
723.016	53004.02
723.359	53016.67
723.701	52948.2
724.044	52864.13
724.386	52725.61
724.729	52794.53
725.071	52800.41
725.413	52687.19
725.755	52670.69
726.097	52430.47
726.439	52447.87
726.782	52364.48
727.124	52507.98
727.465	52423.47
727.807	52227.99
728.149	52388.89
728.491	52145.96
728.833	52282
729.175	52206.52
729.516	52195
729.858	52094.21
730.199	52165.62
730.541	51985.06
730.882	51989.13
731.224	52004.49
731.565	51830.71
731.906	51785.74
732.248	51933.54
732.589	51649.7
732.93	51602.7
733.271	51678.18
733.612	51626.43
733.953	51664.39
734.294	51530.16
734.635	51404.51
734.976	51553.43
735.317	51352.76
735.658	51372.42
735.999	51279.54
736.339	51279.32
736.68	51291.07
737.021	51177.62
737.361	51056.04
737.702	51271.63
738.042	51047.46
738.383	51107.12
738.723	51149.15
739.063	50949.83
739.404	50993
739.744	50985.31
740.084	50851.76
740.424	50901.7
740.764	50806.79
741.104	50839.55
741.444	50706.68
741.784	50699.44
742.124	50724.08
742.464	50567.92
742.804	50557.07
743.143	50539.67
743.483	50519.34
743.823	50354.14
744.162	50427.13
744.502	50415.61
744.841	50354.37
745.181	50454.25
745.52	50282.96
745.86	50272.56
746.199	50211.1
746.538	50250.42
746.877	50303.07
747.216	50036.41
747.556	49972.01
747.895	49987.37
748.234	49943.08
748.573	49848.62
748.911	49745.8
749.25	49793.7
749.589	49647.27
749.928	49772.24
750.267	49739.69
750.605	49545.8
750.944	49590.77
751.283	49406.14
751.621	49525.46
751.96	49313.72
752.298	49340.38
752.636	49225.81
752.975	49137
753.313	49010.67
753.651	49136.32
753.989	48917.57
754.327	48946.72
754.666	48665.15
755.004	48808.65
755.342	48683.68
