Data from 14-0848_FLMS001491_006.txt Node
Date: Thu Apr 19 16:08:20 BST 2018
User: hsy
Spectrometer: FLMS00149
Trigger mode: 0
Integration Time (sec): 1.000000E-2
Scans to average: 10
Electric dark correction enabled: true
Nonlinearity correction enabled: false
Boxcar width: 0
XAxis mode: Wavelengths
Number of Pixels in Spectrum: 2048
>>>>>Begin Spectral Data<<<<<
341.393	-11.53
341.776	-11.53
342.16	-11.53
342.543	-33.22
342.927	-64.41
343.31	-84.29
343.693	-78.42
344.077	-65.99
344.46	-66.66
344.843	-39.55
345.226	-42.94
345.61	-28.25
345.993	-10.62
346.376	-22.15
346.759	14.01
347.142	20.56
347.525	53.33
347.908	50.17
348.291	72.99
348.674	107.57
349.057	120.22
349.44	122.93
349.823	134.23
350.206	176.04
350.588	232.31
350.971	260.56
351.354	272.54
351.737	275.02
352.119	282.7
352.502	294.23
352.884	304.4
353.267	318.41
353.65	352.76
354.032	352.31
354.414	368.58
354.797	364.51
355.179	381.91
355.562	346.43
355.944	362.7
356.326	382.59
356.709	369.03
357.091	371.29
357.473	393.89
357.855	390.5
358.238	391.18
358.62	402.7
359.002	388.46
359.384	376.94
359.766	390.95
360.148	381.91
360.53	373.55
360.912	405.64
361.294	395.7
361.676	394.34
362.057	389.59
362.439	368.58
362.821	388.92
363.203	402.48
363.584	385.07
363.966	378.52
364.348	386.66
364.729	378.75
365.111	383.94
365.493	379.88
365.874	406.99
366.256	399.54
366.637	387.56
367.019	374.23
367.4	379.65
367.781	374.68
368.163	373.55
368.544	377.84
368.925	394.57
369.306	379.2
369.688	380.55
370.069	382.59
370.45	397.28
370.831	386.66
371.212	401.12
371.593	385.53
371.974	373.78
372.355	397.05
372.736	372.65
373.117	392.08
373.498	380.78
373.879	393.44
374.26	379.65
374.641	398.18
375.021	408.8
375.402	401.35
375.783	389.82
376.163	423.04
376.544	420.33
376.925	410.16
377.305	408.8
377.686	399.99
378.066	409.71
378.447	416.26
378.827	419.2
379.208	418.97
379.588	409.25
379.968	427.33
380.349	421.23
380.729	434.11
381.109	420.33
381.489	419.88
381.87	444.06
382.25	443.15
382.63	445.64
383.01	460.1
383.39	437.28
383.77	439.54
384.15	433.43
384.53	431.18
384.91	449.03
385.29	440.89
385.67	462.36
386.049	463.04
386.429	431.4
386.809	437.05
387.189	456.03
387.568	480.89
387.948	486.31
388.328	466.65
388.707	473.89
389.087	481.12
389.466	486.77
389.846	503.72
390.225	487.44
390.605	492.19
390.984	495.58
391.363	500.78
391.743	512.3
392.122	483.6
392.501	496.48
392.881	519.31
393.26	519.53
393.639	514.34
394.018	532.19
394.397	523.15
394.776	529.03
395.155	521.34
395.534	531.51
395.913	543.71
396.292	520.44
396.671	550.49
397.05	527.44
397.429	537.84
397.808	565.86
398.186	547.56
398.565	533.09
398.944	546.2
399.323	559.31
399.701	561.79
400.08	578.06
400.458	572.19
400.837	557.27
401.215	598.4
401.594	589.81
401.972	591.62
402.351	592.07
402.729	607.22
403.107	609.7
403.486	620.32
403.864	618.74
404.242	595.69
404.62	641.57
404.999	633.88
405.377	622.58
405.755	658.51
406.133	638.4
406.511	649.93
406.889	655.8
407.267	663.49
407.645	672.3
408.023	684.73
408.401	669.81
408.779	686.99
409.156	717.95
409.534	713.88
409.912	726.08
410.29	713.88
410.667	717.04
411.045	752.97
411.422	762.24
411.8	738.06
412.178	766.53
412.555	772.64
412.933	785.29
413.31	784.16
413.687	791.84
414.065	799.53
414.442	811.96
414.819	840.66
415.197	818.74
415.574	856.93
415.951	857.38
416.328	855.8
416.705	865.74
417.082	849.7
417.46	864.61
417.837	897.6
418.214	911.16
418.591	884.27
418.967	880.2
419.344	884.95
419.721	919.52
420.098	917.04
420.475	909.58
420.852	921.78
421.228	922.46
421.605	916.81
421.982	941.9
422.358	972.18
422.735	964.49
423.111	964.72
423.488	969.01
423.864	1017.83
424.241	999.52
424.617	1023.02
424.994	1029.58
425.37	1019.41
425.746	1037.26
426.123	1026.41
426.499	1055.11
426.875	1050.82
427.251	1053.98
427.627	1098.5
428.003	1105.73
428.379	1090.59
428.756	1102.34
429.132	1136.02
429.507	1124.72
429.883	1160.42
430.259	1138.05
430.635	1164.04
431.011	1179.63
431.387	1200.87
431.763	1207.43
432.138	1203.36
432.514	1248.55
432.89	1243.36
433.265	1296.92
433.641	1282.9
434.016	1287.2
434.392	1329.46
434.767	1299.17
435.143	1275.67
435.518	1317.71
435.894	1339.85
436.269	1392.05
436.644	1399.06
437.02	1421.43
437.395	1410.36
437.77	1402.9
438.145	1413.75
438.52	1443.58
438.895	1467.31
439.271	1434.54
439.646	1486.29
440.021	1480.41
440.395	1508.66
440.77	1483.8
441.145	1513.18
441.52	1540.07
441.895	1509.79
442.27	1527.42
442.645	1543.69
443.019	1549.11
443.394	1552.95
443.769	1582.11
444.143	1564.93
444.518	1575.1
444.892	1604.7
445.267	1591.82
445.641	1621.65
446.016	1627.08
446.39	1629.56
446.764	1655.1
447.139	1626.62
447.513	1654.87
447.887	1657.81
448.262	1672.5
448.636	1696.45
449.01	1729.67
449.384	1750.01
449.758	1701.2
450.132	1719.73
450.506	1783.91
450.88	1760.63
451.254	1813.51
451.628	1798.37
452.002	1840.63
452.376	1845.15
452.75	1885.37
453.123	1847.86
453.497	1901.87
453.871	1912.94
454.244	1974.64
454.618	1970.57
454.992	2005.6
455.365	2004.24
455.739	2035.43
456.112	2059.38
456.486	2086.72
456.859	2114.07
457.232	2125.37
457.606	2134.63
457.979	2164.91
458.352	2176.89
458.725	2221.64
459.099	2247.17
459.472	2254.86
459.845	2331.92
460.218	2327.4
460.591	2365.81
460.964	2341.63
461.337	2425.92
461.71	2432.48
462.083	2491.01
462.456	2480.39
462.829	2524.45
463.201	2538.92
463.574	2552.25
463.947	2601.06
464.32	2651.46
464.692	2642.64
465.065	2691.23
465.438	2732.36
465.81	2758.12
466.183	2731.23
466.555	2801.51
466.928	2842.86
467.3	2846.25
467.672	2886.7
468.045	2938
468.417	2958.11
468.789	2985.68
469.161	3024.55
469.534	3079.92
469.906	3121.27
470.278	3125.79
470.65	3102.29
471.022	3239.24
471.394	3290.99
471.766	3312.23
472.138	3355.39
472.51	3400.36
472.882	3434.71
473.253	3469.29
473.625	3533.24
473.997	3595.84
474.369	3680.36
474.74	3695.95
475.112	3709.73
475.484	3795.15
475.855	3892.78
476.227	3896.39
476.598	4048.26
476.97	4058.42
477.341	4146.78
477.713	4214.58
478.084	4261.36
478.455	4396.04
478.827	4370.96
479.198	4562.37
479.569	4562.59
479.94	4656.6
480.311	4735.47
480.682	4856.14
481.053	4957.38
481.424	5061.79
481.795	5116.02
482.166	5182.69
482.537	5285.06
482.908	5394.89
483.279	5463.59
483.65	5637.59
484.021	5792.39
484.391	5805.27
484.762	5923.69
485.133	5980.86
485.503	6093.63
485.874	6306.95
486.244	6353.05
486.615	6531.35
486.985	6609.77
487.356	6763.44
487.726	6837.79
488.097	7052.7
488.467	7132.69
488.837	7316.42
489.207	7471.89
489.578	7689.52
489.948	7687.26
490.318	7927.02
490.688	7961.15
491.058	8150.97
491.428	8426.9
491.798	8526.1
492.168	8725.19
492.538	8860.11
492.908	9053.55
493.278	9244.28
493.648	9376.25
494.017	9554.33
494.387	9754.32
494.757	9895.78
495.126	10055.55
495.496	10141.43
495.866	10394.08
496.235	10610.12
496.605	10781.41
496.974	10965.81
497.344	11282.87
497.713	11268.63
498.082	11520.15
498.452	11815.06
498.821	12004.43
499.19	12106.12
499.559	12384.99
499.928	12596.5
500.298	12805.54
500.667	12997.62
501.036	13173.21
501.405	13400.33
501.774	13538.4
502.143	13795.57
502.512	13973.87
502.88	14286.63
503.249	14478.94
503.618	14629.22
503.987	14786.05
504.356	14991.47
504.724	15225.59
505.093	15542.87
505.462	15652.47
505.83	15793.26
506.199	16025.34
506.567	16432.11
506.936	16449.96
507.304	16810.86
507.672	16973.34
508.041	17236.83
508.409	17512.76
508.777	17634.34
509.145	17994.78
509.514	18027.32
509.882	18299.63
510.25	18545.73
510.618	18744.59
510.986	18907.98
511.354	19093.96
511.722	19428.87
512.09	19729.88
512.458	19808.52
512.826	20038.34
513.193	20125.12
513.561	20263.87
513.929	20585
514.297	20789.06
514.664	20989.96
515.032	21243.06
515.4	21480.34
515.767	21640.11
516.135	21780.44
516.502	21880.78
516.869	22311.73
517.237	22381.56
517.604	22400.77
517.972	22731.83
518.339	22916.69
518.706	23023.8
519.073	23268.77
519.44	23406.16
519.808	23675.99
520.175	23895.87
520.542	24211.57
520.909	24413.82
521.276	24532.24
521.643	24787.6
522.009	25154.59
522.376	25174.71
522.743	25329.5
523.11	25874.8
523.477	26014.68
523.843	26063.5
524.21	26451.51
524.577	26673.87
524.943	26806.3
525.31	27026.86
525.676	27406.29
526.043	27492.16
526.409	27730.57
526.776	28027.29
527.142	28127.4
527.508	28359.71
527.874	28536.88
528.241	28856.19
528.607	28884.89
528.973	29250.76
529.339	29305.67
529.705	29629.05
530.071	29917.63
530.437	30145.65
530.803	30305.87
531.169	30456.6
531.535	30636.93
531.901	30845.06
532.267	30941.79
532.632	31158.5
532.998	31196.92
533.364	31490.02
533.73	31566.18
534.095	31896.11
534.461	31956.45
534.826	32108.76
535.192	32132.49
535.557	32638.92
535.923	32510.78
536.288	32688.86
536.653	32850.44
537.019	32865.12
537.384	32932.47
537.749	33138.56
538.114	33218.11
538.479	33326.58
538.845	33299.92
539.21	33408.84
539.575	33614.26
539.94	33815.83
540.305	33821.03
540.67	33975.83
541.034	34113.91
541.399	34176.95
541.764	34276.39
542.129	34455.37
542.494	34583.27
542.858	34683.83
543.223	34620.78
543.587	34916.82
543.952	34828.01
544.316	34981.91
544.681	34784.4
545.045	35134.22
545.41	35282.91
545.774	35188.23
546.138	35186.19
546.503	35455.56
546.867	35413.08
547.231	35873.18
547.595	35812.84
547.959	35867.08
548.324	35971.26
548.688	35948.66
549.052	36174.87
549.416	36165.38
549.779	36271.81
550.143	36380.06
550.507	36694.85
550.871	36634.97
551.235	36667.74
551.599	37099.82
551.962	37070.44
552.326	37060.95
552.689	37323.54
553.053	37189.53
553.417	37210.1
553.78	37600.37
554.143	37752
554.507	37780.02
554.87	37752.68
555.234	38348.6
555.597	38011.2
555.96	38166.68
556.323	38398.31
556.686	38390.85
557.05	38740.9
557.413	38694.58
557.776	38888.69
558.139	39129.59
558.502	39268.12
558.865	39151.96
559.228	39760.31
559.59	39621.78
559.953	39791.95
560.316	40264.03
560.679	40014.54
561.041	40403.46
561.404	40540.18
561.767	40806.61
562.129	40653.85
562.492	40998.47
562.854	41037.34
563.217	41089.32
563.579	41305.58
563.941	41470.32
564.304	41520.04
564.666	41952.57
565.028	41888.62
565.39	42174.71
565.753	42465.78
566.115	42340.36
566.477	42609.28
566.839	42813.34
567.201	43158.19
567.563	43174.91
567.925	43405.64
568.287	43429.37
568.648	43540.32
569.01	43888.79
569.372	44129.69
569.734	44022.35
570.095	44351.15
570.457	44669.33
570.819	44650.58
571.18	44672.72
571.542	45024.35
571.903	45136.67
572.265	45265.02
572.626	45416.66
572.987	45479.93
573.349	45676.54
573.71	45982.07
574.071	45981.62
574.432	46306.13
574.794	46630.41
575.155	46631.09
575.516	46595.38
575.877	46774.82
576.238	46842.38
576.599	47125.54
576.96	47140.23
577.32	47389.49
577.681	47509.71
578.042	47692.98
578.403	47742.25
578.763	47819.08
579.124	47935.91
579.485	48374.77
579.845	48357.6
580.206	48460.65
580.566	48425.62
580.927	48626.07
581.287	48912.61
581.648	48671.49
582.008	49012.72
582.368	49131.59
582.728	49309.44
583.089	49311.92
583.449	49384.69
583.809	49558.47
584.169	49708.52
584.529	49710.11
584.889	50080.94
585.249	50056.08
585.609	50005.69
585.969	50278.23
586.329	50190.32
586.688	50470.09
587.048	50573.13
587.408	50643.64
587.768	50819
588.127	50889.28
588.487	50916.18
588.846	51301.02
589.206	51100.8
589.565	51207.47
589.925	51547.57
590.284	51534.92
590.643	51755.02
591.003	51792.76
591.362	52119.08
591.721	52038.63
592.08	52189.36
592.44	52340.09
592.799	52350.49
593.158	52342.8
593.517	52475.23
593.876	52666.64
594.235	52733.3
594.593	52867.31
594.952	52995.67
595.311	52963.35
595.67	53225.04
596.029	53421.87
596.387	53499.84
596.746	53736.44
597.104	53526.5
597.463	53622.54
597.822	53821.41
598.18	53866.15
598.538	53938.47
598.897	54147.73
599.255	54115.19
599.613	54526.48
599.972	54356.54
600.33	54555.63
600.688	54546.14
601.046	54659.35
601.404	54912.68
601.762	54888.5
602.12	55044.65
602.478	55041.26
602.836	55100.7
603.194	55076.29
603.552	55228.38
603.91	55204.2
604.268	55333.46
604.625	55397.41
604.983	55690.74
605.341	55533.91
605.698	55803.96
606.056	55939.77
606.413	55797.18
606.771	56085.53
607.128	55997.4
607.485	56020.45
607.843	56146.55
608.2	56252.08
608.557	56392.64
608.914	56383.83
609.272	56561
609.629	56706.76
609.986	56765.97
610.343	56695.91
610.7	56911.05
611.057	56866.08
611.414	56904.04
611.771	57105.62
612.127	57271.04
612.484	57211.38
612.841	57293.86
613.198	57188.55
613.554	57272.17
613.911	57524.59
614.267	57513.97
614.624	57453.18
614.98	57684.81
615.337	57753.74
615.693	57758.71
616.05	57782.44
616.406	57966.39
616.762	57956.22
617.118	58002.09
617.475	58003.22
617.831	58185.59
618.187	58223.1
618.543	58200.73
618.899	58401.63
619.255	58320.27
619.611	58247.06
619.967	58448.41
620.323	58539.25
620.678	58476.2
621.034	58459.03
621.39	58444.11
621.746	58568.4
622.101	58752.13
622.457	58573.38
622.812	58624.9
623.168	58678.23
623.523	58775.63
623.879	58824.44
624.234	58713.48
624.589	58788.28
624.945	58831.22
625.3	58888.4
625.655	58853.59
626.01	58839.36
626.365	58848.85
626.72	58831.22
627.075	58821.73
627.43	58857.21
627.785	58802.97
628.14	58891.56
628.495	58956.87
628.85	58905.12
629.205	58840.03
629.559	59007.49
629.914	58882.52
630.269	58869.64
630.623	58799.13
630.978	58775.86
631.332	58908.28
631.687	58908.73
632.041	58891.33
632.396	58909.41
632.75	58882.29
633.104	58879.58
633.459	58715.74
633.813	58752.13
634.167	58706.7
634.521	58741.96
634.875	58767.95
635.229	58699.02
635.583	58632.58
635.937	58581.96
636.291	58621.74
636.645	58547.84
636.999	58520.72
637.352	58565.92
637.706	58499.03
638.06	58530.44
638.413	58419.93
638.767	58388.3
639.121	58395.3
639.474	58322.99
639.828	58286.83
640.181	58271.01
640.534	58322.53
640.888	58263.1
641.241	58081.64
641.594	58148.3
641.947	58241.18
642.301	58163.67
642.654	58170
643.007	58126.61
643.36	58175.42
643.713	58111.01
644.066	58201.18
644.419	57983.11
644.771	57735.88
645.124	57462.9
645.477	57466.74
645.83	57342.67
646.182	57363.69
646.535	57276.01
646.888	57355.1
647.24	57238.72
647.593	57483.69
647.945	57283.24
648.298	57269.68
648.65	57135.67
649.002	57029.69
649.355	56936.36
649.707	56956.24
650.059	57005.51
650.411	57288.66
650.763	57336.35
651.115	57782.21
651.467	57652.72
651.819	57606.39
652.171	57546.06
652.523	57421.09
652.875	57489.56
653.227	57403.24
653.578	57600.52
653.93	57510.35
654.282	57343.35
654.633	57306.52
654.985	57426.29
655.337	57410.02
655.688	57401.65
656.039	57507.64
656.391	57216.8
656.742	57352.39
657.094	57270.36
657.445	57335.67
657.796	57378.38
658.147	57229.68
658.498	57250.7
658.849	57291.6
659.2	57262.68
659.551	57119.4
659.902	57269
660.253	57096.35
660.604	57246.86
660.955	57083.92
661.306	57267.87
661.656	57146.75
662.007	57091.83
662.358	57101.78
662.708	57158.5
663.059	57140.64
663.409	57022.68
663.76	57104.71
664.11	57101.78
664.461	57163.02
664.811	57190.59
665.161	57121.89
665.511	57034.88
665.862	57120.98
666.212	57069.91
666.562	57140.87
666.912	57026.07
667.262	56944.94
667.612	57054.09
667.962	57050.48
668.312	56979.97
668.662	57079.63
669.011	57048.9
669.361	57020.87
669.711	57076.01
670.06	56971.61
670.41	56947.43
670.76	56932.51
671.109	57040.08
671.459	56899.97
671.808	56963.7
672.157	56931.38
672.507	56801.44
672.856	56799.86
673.205	56907.43
673.554	56919.86
673.904	56833.53
674.253	57064.71
674.602	56852.06
674.951	56454.56
675.3	56462.47
675.649	56855.23
675.998	56848.22
676.346	56863.59
676.695	56902.91
677.044	56745.17
677.393	56777.49
677.741	56850.71
678.09	56717.6
678.438	56591.05
678.787	56702.24
679.135	56791.5
679.484	56515.8
679.832	56703.14
680.181	56546.54
680.529	56588.79
680.877	56522.58
681.225	56518.51
681.573	56659.3
681.922	56415.92
682.27	56400.1
682.618	56467.67
682.966	56336.15
683.314	56368.01
683.661	56369.37
684.009	56297.73
684.357	56262.02
684.705	56131.63
685.053	56293.66
685.4	56092.08
685.748	55996.95
686.095	56074.01
686.443	55896.84
686.79	55930.28
687.138	56030.17
687.485	56005.53
687.832	55824.75
688.18	55822.26
688.527	55703.39
688.874	55720.79
689.221	55696.39
689.568	55590.18
689.915	55537.75
690.262	55502.95
690.609	55428.15
690.956	55364.65
691.303	55398.77
691.65	55214.59
691.997	55217.08
692.344	55017.54
692.69	55006.69
693.037	55043.75
693.383	54814.6
693.73	54893.7
694.077	54761.72
694.423	54805.34
694.769	54584.55
695.116	54633.59
695.462	54465.91
695.808	54388.4
696.155	54556.76
696.501	54262.3
696.847	54290.1
697.193	54097.56
697.539	54131.68
697.885	53959.49
698.231	53912.71
698.577	53866.83
698.923	53864.8
699.269	53617.57
699.614	53540.74
699.96	53473.4
700.306	53456.45
700.651	53311.14
700.997	53245.83
701.342	53230.01
701.688	53150.92
702.033	52989.79
702.379	52980.98
702.724	52815.33
703.069	52893.3
703.415	52618.05
703.76	52557.04
704.105	52602.46
704.45	52431.16
704.795	52271.85
705.14	52199.53
705.485	52264.39
705.83	52002.93
706.175	52123.15
706.52	52084.96
706.865	51862.82
707.209	51756.38
707.554	51693.33
707.899	51694.91
708.243	51525.65
708.588	51497.85
708.932	51385.54
709.277	51418.76
709.621	51241.59
709.966	50976.06
710.31	51078.43
710.654	50785.56
710.998	50877.53
711.342	50830.75
711.687	50647.71
712.031	50644.54
712.375	50462.18
712.719	50535.62
713.063	50326.13
713.407	50557.09
713.75	50255.63
714.094	50241.16
714.438	50108.74
714.782	50083.65
715.125	49929.53
715.469	50173.14
715.812	49840.5
716.156	49701.29
716.499	49789.88
716.843	49732.03
717.186	49583.1
717.53	49809.99
717.873	49697.9
718.216	49572.71
718.559	49402.32
718.902	49065.15
719.246	49146.96
719.589	49233.96
719.932	49050.01
720.275	48953.97
720.617	49148.54
720.96	48985.15
721.303	48819.51
721.646	48907.87
721.989	48669.68
722.331	48794.2
722.674	48764.37
723.016	48667.65
723.359	48529.12
723.701	48554.88
724.044	48487.54
724.386	48303.59
724.729	48505.39
725.071	48427.65
725.413	48372.97
725.755	48220.88
726.097	48144.95
726.439	48019.75
726.782	47926.2
727.124	48196.25
727.465	47967.55
727.807	47878.74
728.149	47969.13
728.491	47852.75
728.833	47845.52
729.175	47688.69
729.516	47695.7
729.858	47707.45
730.199	47782.25
730.541	47630.84
730.882	47601.46
731.224	47584.74
731.565	47453.67
731.906	47511.75
732.248	47482.59
732.589	47237.18
732.93	47246.22
733.271	47281.92
733.612	47243.96
733.953	47329.83
734.294	47248.7
734.635	47064.07
734.976	47445.08
735.317	47085.99
735.658	47234.01
735.999	47095.03
736.339	46918.09
736.68	47169.83
737.021	47049.61
737.361	46986.34
737.702	47244.18
738.042	46982.72
738.383	46970.52
738.723	47114.92
739.063	46992.44
739.404	47020.23
739.744	46884.42
740.084	46854.14
740.424	46966
740.764	46655.27
741.104	46982.95
741.444	46728.49
741.784	46715.16
742.124	46766.91
742.464	46714.48
742.804	46609.62
743.143	46671.99
743.483	46688.04
743.823	46643.29
744.162	46593.35
744.502	46589.96
744.841	46524.65
745.181	46649.62
745.52	46493.01
745.86	46606.01
746.199	46533.69
746.538	46495.95
746.877	46746.12
747.216	46606.46
747.556	46480.81
747.895	46596.06
748.234	46516.97
748.573	46386.35
748.911	46476.97
749.25	46325.56
749.589	46426.58
749.928	46379.12
750.267	46590.87
750.605	46446.01
750.944	46391.1
751.283	46291.21
751.621	46542.28
751.96	46284.21
752.298	46424.09
752.636	46391.55
752.975	46256.86
753.313	46230.87
753.651	46406.92
753.989	46253.7
754.327	46314.49
754.666	46055.51
