Data from 14-0848_FLMS001491_008.txt Node
Date: Thu Apr 19 16:08:25 BST 2018
User: hsy
Spectrometer: FLMS00149
Trigger mode: 0
Integration Time (sec): 1.000000E-2
Scans to average: 10
Electric dark correction enabled: true
Nonlinearity correction enabled: false
Boxcar width: 0
XAxis mode: Wavelengths
Number of Pixels in Spectrum: 2048
>>>>>Begin Spectral Data<<<<<
341.393	-13.94
341.776	-13.94
342.16	-13.94
342.543	-75.18
342.927	-58.91
343.31	-80.83
343.693	-70.66
344.077	-74.96
344.46	-43.77
344.843	-38.57
345.226	-51.91
345.61	-16.65
345.993	-15.52
346.376	2.56
346.759	1.2
347.142	24.02
347.525	26.51
347.908	59.5
348.291	72.16
348.674	96.79
349.057	110.12
349.44	117.81
349.823	150.8
350.206	178.6
350.588	250.01
350.971	250.69
351.354	265.15
351.737	280.52
352.119	278.03
352.502	292.27
352.884	316.45
353.267	319.61
353.65	317.8
354.032	322.32
354.414	358.93
354.797	347.86
355.179	363.68
355.562	363.22
355.944	369.33
356.326	352.6
356.709	364.58
357.091	379.04
357.473	372.49
357.855	369.78
358.238	386.73
358.62	396.67
359.002	394.41
359.384	385.6
359.766	369.1
360.148	390.79
360.53	389.89
360.912	374.75
361.294	391.7
361.676	377.46
362.057	373.62
362.439	363.45
362.821	366.61
363.203	373.17
363.584	384.02
363.966	360.51
364.348	383.11
364.729	379.95
365.111	338.59
365.493	365.48
365.874	354.41
366.256	362.32
366.637	367.97
367.019	342.89
367.4	360.97
367.781	357.8
368.163	392.83
368.544	372.04
368.925	360.51
369.306	377.69
369.688	345.37
370.069	365.48
370.45	371.36
370.831	351.02
371.212	367.97
371.593	385.15
371.974	368.2
372.355	364.13
372.736	377.91
373.117	374.75
373.498	366.39
373.879	385.6
374.26	373.62
374.641	368.65
375.021	382.66
375.402	384.92
375.783	383.34
376.163	379.04
376.544	392.6
376.925	369.55
377.305	399.61
377.686	390.79
378.066	379.27
378.447	393.73
378.827	409.1
379.208	408.42
379.588	387.63
379.968	407.07
380.349	400.06
380.729	415.65
381.109	421.3
381.489	410.68
381.87	424.01
382.25	425.82
382.63	419.72
383.01	411.81
383.39	398.93
383.77	417.69
384.15	450
384.53	436.67
384.91	419.49
385.29	419.27
385.67	435.54
386.049	443
386.429	425.14
386.809	431.25
387.189	467.18
387.568	441.41
387.948	439.61
388.328	460.85
388.707	468.98
389.087	466.05
389.466	461.75
389.846	443.67
390.225	477.12
390.605	473.73
390.984	458.82
391.363	456.1
391.743	488.87
392.122	461.75
392.501	472.15
392.881	483.9
393.26	479.15
393.639	495.88
394.018	497.91
394.397	493.62
394.776	494.52
395.155	474.86
395.534	507.4
395.913	502.66
396.292	494.75
396.671	525.71
397.05	504.46
397.429	539.04
397.808	515.76
398.186	533.84
398.565	523.67
398.944	544.01
399.323	527.74
399.701	544.46
400.08	547.63
400.458	523.67
400.837	542.66
401.215	552.82
401.594	555.31
401.972	523.67
402.351	553.73
402.729	548.3
403.107	551.92
403.486	564.58
403.864	577.46
404.242	580.85
404.62	587.63
404.999	587.85
405.377	576.78
405.755	591.24
406.133	603.9
406.511	576.78
406.889	626.49
407.267	611.35
407.645	624.91
408.023	646.38
408.401	637.34
408.779	641.41
409.156	628.75
409.534	645.7
409.912	661.75
410.29	660.39
410.667	676.66
411.045	700.39
411.422	681.41
411.8	671.24
412.178	711.69
412.555	702.43
412.933	705.59
413.31	734.51
413.687	720.05
414.065	727.28
414.442	743.78
414.819	772.48
415.197	781.07
415.574	796.66
415.951	788.07
416.328	789.2
416.705	797.56
417.082	808.86
417.46	818.13
417.837	810.67
418.214	804.12
418.591	831.24
418.967	820.61
419.344	819.71
419.721	834.62
420.098	861.52
420.475	826.26
420.852	824.68
421.228	838.01
421.605	850.44
421.982	866.49
422.358	880.95
422.735	897.45
423.111	873.72
423.488	893.15
423.864	868.3
424.241	915.98
424.617	918.46
424.994	905.36
425.37	921.63
425.746	951.91
426.123	920.27
426.499	952.14
426.875	944.68
427.251	980.38
427.627	984.68
428.003	1007.28
428.379	1010.89
428.756	999.59
429.132	999.37
429.507	1031.91
429.883	1022.64
430.259	1061.06
430.635	1055.86
431.011	1073.49
431.387	1082.08
431.763	1120.95
432.138	1094.05
432.514	1120.72
432.89	1118.23
433.265	1130.89
433.641	1156.88
434.016	1178.34
434.392	1169.31
434.767	1198.91
435.143	1200.04
435.518	1196.88
435.894	1210.43
436.269	1233.71
436.644	1240.04
437.02	1230.32
437.395	1257.21
437.77	1265.8
438.145	1290.88
438.52	1282.07
438.895	1306.7
439.271	1303.77
439.646	1322.75
440.021	1353.26
440.395	1315.97
440.77	1338.57
441.145	1351.45
441.52	1362.07
441.895	1378.11
442.27	1369.07
442.645	1421.5
443.019	1394.84
443.394	1408.4
443.769	1398.9
444.143	1379.7
444.518	1414.95
444.892	1436.19
445.267	1440.48
445.641	1421.05
446.016	1461.28
446.39	1448.62
446.764	1470.77
447.139	1494.04
447.513	1505.79
447.887	1490.65
448.262	1491.56
448.636	1474.83
449.01	1524.55
449.384	1536.75
449.758	1551.67
450.132	1541.5
450.506	1581.05
450.88	1598.9
451.254	1572.01
451.628	1613.59
452.002	1633.02
452.376	1635.96
452.75	1656.3
453.123	1659.46
453.497	1705.11
453.871	1720.93
454.244	1741.72
454.618	1720.25
454.992	1747.82
455.365	1804.54
455.739	1828.5
456.112	1833.24
456.486	1825.33
456.859	1835.73
457.232	1883.41
457.606	1911.88
457.979	1902.39
458.352	1974.93
458.725	1957.99
459.099	1991.2
459.472	2043.63
459.845	2028.94
460.218	2050.86
460.591	2102.39
460.964	2106
461.337	2126.79
461.71	2161.82
462.083	2193.91
462.456	2205.21
462.829	2208.15
463.201	2251.08
463.574	2272.1
463.947	2313
464.32	2315.94
464.692	2346.68
465.065	2348.48
465.438	2409.05
465.81	2403.4
466.183	2407.46
466.555	2467.12
466.928	2502.15
467.3	2498.31
467.672	2510.74
468.045	2588.03
468.417	2576.73
468.789	2612.88
469.161	2638.87
469.534	2701.92
469.906	2746.89
470.278	2712.99
470.65	2798.42
471.022	2818.75
471.394	2831.41
471.766	2873.67
472.138	2906.21
472.51	2989.6
472.882	3000.22
473.253	3045.64
473.625	3095.13
473.997	3145.07
474.369	3191.63
474.74	3235.01
475.112	3270.72
475.484	3312.98
475.855	3382.81
476.227	3421.9
476.598	3526.08
476.97	3535.8
477.341	3592.52
477.713	3658.73
478.084	3688.34
478.455	3785.28
478.827	3807.2
479.198	3922.68
479.569	3982.34
479.94	4052.62
480.311	4130.36
480.682	4209.23
481.053	4294.19
481.424	4398.83
481.795	4429.56
482.166	4504.58
482.537	4601.53
482.908	4690.34
483.279	4794.07
483.65	4869.32
484.021	4981.63
484.391	5070.45
484.762	5128.3
485.133	5215.98
485.503	5318.12
485.874	5433.37
486.244	5499.36
486.615	5655.29
486.985	5752.91
487.356	5842.85
487.726	5945.23
488.097	6097.99
488.467	6241.94
488.837	6340.24
489.207	6445.78
489.578	6614.13
489.948	6731.87
490.318	6872.88
490.688	6949.27
491.058	7122.14
491.428	7281.46
491.798	7325.3
492.168	7632.64
492.538	7700.43
492.908	7832.18
493.278	8047.99
493.648	8166.64
494.017	8309.91
494.387	8437.81
494.757	8615.89
495.126	8783.57
495.496	8922.32
495.866	9080.74
496.235	9291.35
496.605	9459.26
496.974	9546.03
497.344	9808.85
497.713	9971.56
498.082	10207.03
498.452	10323.87
498.821	10446.58
499.19	10560.92
499.559	10844.98
499.928	11006.79
500.298	11080.68
500.667	11360.68
501.036	11412.43
501.405	11752.08
501.774	11826.88
502.143	12148.9
502.512	12270.26
502.88	12559.29
503.249	12689.45
503.618	12890.13
503.987	12975.32
504.356	13303
504.724	13422.09
505.093	13637.9
505.462	13793.15
505.83	14024.33
506.199	14184.33
506.567	14471.78
506.936	14599.46
507.304	14917.64
507.672	15005.33
508.041	15147.92
508.409	15460.46
508.777	15631.3
509.145	15796.04
509.514	15931.18
509.882	16196.93
510.25	16364.16
510.618	16590.14
510.986	16647.54
511.354	16988.1
511.722	17170.47
512.09	17471.02
512.458	17431.25
512.826	17734.75
513.193	17931.35
513.561	18157.56
513.929	18266.93
514.297	18463.31
514.664	18770.42
515.032	18849.97
515.4	19108.04
515.767	19132
516.135	19391.43
516.502	19385.78
516.869	19751.87
517.237	19982.82
517.604	19889.94
517.972	20348.69
518.339	20373.32
518.706	20609.7
519.073	20644.5
519.44	20811.5
519.808	21107.31
520.175	21261.43
520.542	21575.32
520.909	21681.53
521.276	21799.95
521.643	22047.85
522.009	22255.53
522.376	22451.01
522.743	22623.2
523.11	22998.34
523.477	23160.37
523.843	23351.32
524.21	23537.53
524.577	23768.71
524.943	23974.81
525.31	24115.37
525.676	24348.58
526.043	24704.73
526.409	24809.36
526.776	24908.57
527.142	25061.78
527.508	25304.49
527.874	25574.54
528.241	25734.08
528.607	25802.78
528.973	26199.83
529.339	26083.23
529.705	26536.55
530.071	26655.64
530.437	26810.44
530.803	27175.4
531.169	27209.52
531.535	27412.46
531.901	27466.92
532.267	27647.71
532.632	27811.77
532.998	27922.27
533.364	28174.02
533.73	28138.54
534.095	28464.86
534.461	28493.56
534.826	28598.19
535.192	28769.48
535.557	29045.41
535.923	29057.61
536.288	29195.01
536.653	29486.07
537.019	29294.44
537.384	29560.65
537.749	29623.47
538.114	29698.5
538.479	29780.08
538.845	29846.29
539.21	29831.83
539.575	29954.99
539.94	30107.3
540.305	30215.55
540.67	30302.78
541.034	30531.92
541.399	30484.47
541.764	30743.67
542.129	30711.81
542.494	30863.89
542.858	30958.35
543.223	30879.71
543.587	31160.38
543.952	31116.77
544.316	31171.91
544.681	31286.48
545.045	31535.06
545.41	31550.88
545.774	31565.79
546.138	31542.29
546.503	31773.47
546.867	31810.76
547.231	31921.94
547.595	31992.9
547.959	32168.49
548.324	32252.33
548.688	32300.46
549.052	32344.3
549.416	32345.43
549.779	32511.08
550.143	32504.98
550.507	32795.37
550.871	32968.7
551.235	32813.9
551.599	33252.98
551.962	33158.75
552.326	33248.24
552.689	33349.7
553.053	33254.11
553.417	33474.22
553.78	33822.91
554.143	33817.94
554.507	33852.51
554.87	33951.72
555.234	34307.87
555.597	34064.03
555.96	34103.35
556.323	34273.52
556.686	34411.14
557.05	34658.14
557.413	34700.63
557.776	34806.84
558.139	35043.44
558.502	35108.53
558.865	35145.59
559.228	35377.45
559.59	35544.22
559.953	35618.34
560.316	36012.23
560.679	35933.14
561.041	36093.13
561.404	36326.35
561.767	36618.32
562.129	36417.42
562.492	36790.06
562.854	36738.09
563.217	36789.61
563.579	36935.14
563.941	37262.59
564.304	37319.77
564.666	37642.02
565.028	37684.28
565.39	37812.86
565.753	38048.56
566.115	38114.1
566.477	38242
566.839	38414.2
567.201	38824.36
567.563	38547.76
567.925	38923.79
568.287	38883.34
568.648	39109.32
569.01	39264.8
569.372	39627.5
569.734	39525.81
570.095	39889.87
570.457	40049.64
570.819	40148.62
571.18	40130.31
571.542	40448.72
571.903	40370.76
572.265	40733.01
572.626	40977.98
572.987	41033.12
573.349	41292.54
573.71	41347.01
574.071	41597.62
574.432	41762.81
574.794	42092.98
575.155	42243.25
575.516	42013.66
575.877	42397.83
576.238	42352.18
576.599	42584.04
576.96	42660.42
577.32	42836.68
577.681	42996.68
578.042	43208.88
578.403	43268.09
578.763	43300.18
579.124	43471.92
579.485	43725.93
579.845	44076.88
580.206	43992.36
580.566	44107.39
580.927	44117.55
581.287	44436.87
581.648	44287.49
582.008	44654.26
582.368	44767.48
582.728	44952.79
583.089	44878.21
583.449	45061.03
583.809	45200.92
584.169	45470.51
584.529	45306
584.889	45758.87
585.249	45549.61
585.609	45740.34
585.969	45986.88
586.329	45859.88
586.688	46253.54
587.048	46242.02
587.408	46444.05
587.768	46484.05
588.127	46741.21
588.487	46675
588.846	47270.69
589.206	46920.64
589.565	47053.07
589.925	47383.46
590.284	47604.92
590.643	47701.42
591.003	47702.55
591.362	48055.98
591.721	48080.16
592.08	48198.8
592.44	48478.34
592.799	48412.58
593.158	48580.94
593.517	48688.06
593.876	48910.2
594.235	48984.32
594.593	49039.91
594.952	49301.6
595.311	49298.44
595.67	49457.75
596.029	49755.37
596.387	49901.13
596.746	50143.16
597.104	49944.97
597.463	50068.58
597.822	50418.41
598.18	50316.94
598.538	50514.22
598.897	50735.01
599.255	50646.42
599.613	51114.21
599.972	51064.94
600.33	51088.67
600.688	51193.98
601.046	51380.19
601.404	51724.81
601.762	51691.82
602.12	51868.76
602.478	51923.45
602.836	52100.85
603.194	51828.31
603.552	52108.76
603.91	52207.51
604.268	52262.43
604.625	52292.71
604.983	52597.78
605.341	52450.89
605.698	52783.32
606.056	52975.4
606.413	52907.15
606.771	53064.21
607.128	53100.6
607.485	53072.8
607.843	53170.65
608.2	53412.23
608.557	53503.52
608.914	53513.01
609.272	53647.25
609.629	53856.51
609.986	53982.83
610.343	53912.55
610.7	54216.95
611.057	54151.19
611.414	54105.31
611.771	54303.28
612.127	54413.33
612.484	54481.8
612.841	54513.21
613.198	54493.55
613.554	54543.5
613.911	54774.9
614.267	54819.19
614.624	54868.46
614.98	54976.25
615.337	55157.72
615.693	55077.72
616.05	55140.09
616.406	55345.06
616.762	55297.37
617.118	55359.07
617.475	55319.75
617.831	55522
618.187	55461.21
618.543	55605.16
618.899	55753.86
619.255	55682.9
619.611	55685.84
619.967	55823.24
620.323	55961.54
620.678	55844.7
621.034	55880.86
621.39	55945.04
621.746	55896.45
622.101	56242.89
622.457	55943.91
622.812	56178.71
623.168	56225.48
623.523	56291.47
623.879	56301.64
624.234	56206.28
624.589	56319.95
624.945	56329.66
625.3	56410.79
625.655	56366.05
626.01	56410.34
626.365	56466.61
626.72	56397.23
627.075	56470.22
627.43	56382.09
627.785	56412.82
628.14	56435.87
628.495	56533.05
628.85	56578.24
629.205	56452.6
629.559	56514.52
629.914	56452.37
630.269	56469.32
630.623	56377.12
630.978	56359.94
631.332	56488.53
631.687	56453.28
632.041	56458.47
632.396	56472.26
632.75	56398.59
633.104	56443.56
633.459	56304.58
633.813	56296.67
634.167	56219.38
634.521	56286.05
634.875	56324.69
635.229	56316.78
635.583	56194.07
635.937	56163.11
636.291	56236.33
636.645	56191.59
636.999	56040.63
637.352	56177.12
637.706	55968.54
638.06	56168.99
638.413	56036.11
638.767	56015.09
639.121	56043.12
639.474	55851.03
639.828	55915.89
640.181	55865.27
640.534	56013.51
640.888	55861.2
641.241	55741.88
641.594	55741.2
641.947	55898.71
642.301	55715.22
642.654	55814.65
643.007	55685.16
643.36	55698.27
643.713	55630.92
644.066	55797.47
644.419	55537.37
644.771	55297.6
645.124	55038.62
645.477	55041.56
645.83	54905.75
646.182	54884.96
646.535	54798.18
646.888	54866.65
647.24	54759.99
647.593	54950.72
647.945	54829.14
648.298	54745.52
648.65	54611.97
649.002	54516.15
649.355	54505.08
649.707	54381.01
650.059	54352.09
650.411	54753.21
650.763	54915.46
651.115	55242.23
651.467	55177.6
651.819	55148.68
652.171	55080.2
652.523	55047.44
652.875	54985.74
653.227	54941.9
653.578	55110.49
653.93	55044.5
654.282	54883.83
654.633	54875.69
654.985	54942.13
655.337	54898.74
655.688	54861
656.039	54988.91
656.391	54701.68
656.742	54781.23
657.094	54753.43
657.445	54769.25
657.796	54813.09
658.147	54742.59
658.498	54831.4
658.849	54868.01
659.2	54709.14
659.551	54635.92
659.902	54830.95
660.253	54653.55
660.604	54826.88
660.955	54628.24
661.306	54784.84
661.656	54632.76
662.007	54723.83
662.358	54641.57
662.708	54665.07
663.059	54668.46
663.409	54484.29
663.76	54618.07
664.11	54687.9
664.461	54739.2
664.811	54662.14
665.161	54595.47
665.511	54492.88
665.862	54588.47
666.212	54645.64
666.562	54604.51
666.912	54509.37
667.262	54485.64
667.612	54556.38
667.962	54563.61
668.312	54489.71
668.662	54623.04
669.011	54590.5
669.361	54521.35
669.711	54553.44
670.06	54533.78
670.41	54350.05
670.76	54389.83
671.109	54470.05
671.459	54395.02
671.808	54465.53
672.157	54395.48
672.507	54283.62
672.856	54304.41
673.205	54254.46
673.554	54405.87
673.904	54221.47
674.253	54459.66
674.602	54304.63
674.951	53872.1
675.3	53848.37
675.649	54315.93
675.998	54234.58
676.346	54274.12
676.695	54306.67
677.044	54057.86
677.393	54220.57
677.741	54255.14
678.09	54196.61
678.438	54043.4
678.787	54137.4
679.135	54181.92
679.484	53919.33
679.832	54078.65
680.181	53979.44
680.529	54048.59
680.877	53903.74
681.225	53934.25
681.573	53988.03
681.922	53896.05
682.27	53812.89
682.618	53763.18
682.966	53693.8
683.314	53784.87
683.661	53769.05
684.009	53586.46
684.357	53582.62
684.705	53545.78
685.053	53537.87
685.4	53285
685.748	53348.27
686.095	53440.93
686.443	53149.18
686.79	53258.56
687.138	53357.99
687.485	53290.87
687.832	53172.01
688.18	53176.07
688.527	53082.97
688.874	52995.29
689.221	53095.62
689.568	52911.22
689.915	52832.35
690.262	52903.31
690.609	52872.58
690.956	52668.06
691.303	52750.32
691.65	52579.25
691.997	52567.05
692.344	52436.66
692.69	52304.91
693.037	52403.44
693.383	52202.54
693.73	52238.02
694.077	52114.63
694.423	52024.24
694.769	51946.05
695.116	51878.25
695.462	51792.83
695.808	51642.33
696.155	51777.69
696.501	51492.5
696.847	51638.94
697.193	51327.53
697.539	51325.95
697.885	51117.6
698.231	51030.37
698.577	51050.25
698.923	51010.93
699.269	50635.12
699.614	50805.29
699.96	50531.62
700.306	50517.61
700.651	50436.71
700.997	50230.61
701.342	50266.77
701.688	50100.9
702.033	50001.69
702.379	50046.21
702.724	49889.38
703.069	49909.27
703.415	49526
703.76	49392.44
704.105	49478.32
704.45	49308.38
704.795	49204.65
705.14	49056.18
705.485	49155.61
705.83	48884.43
706.175	48985.45
706.52	48894.15
706.865	48719.47
707.209	48571.45
707.554	48483.09
707.899	48615.74
708.243	48344.79
708.588	48266.37
708.932	48015.98
709.277	48054.85
709.621	47961.97
709.966	47684.24
710.31	47713.62
710.654	47498.71
710.998	47655.77
711.342	47553.4
711.687	47468.43
712.031	47325.61
712.375	47083.8
712.719	47174.88
713.063	47082.67
713.407	47219.85
713.75	46972.62
714.094	46790.48
714.438	46742.8
714.782	46824.15
715.125	46507.1
715.469	46747.99
715.812	46287.44
716.156	46333.54
716.499	46462.58
716.843	46592.97
717.186	46233.66
717.53	46381.22
717.873	46371.28
718.216	46118.63
718.559	46024.62
718.902	45618.53
719.246	45851.07
719.589	45859.43
719.932	45689.26
720.275	45722.94
720.617	45699.89
720.96	45378.76
721.303	45469.84
721.646	45549.38
721.989	45208.6
722.331	45388.48
722.674	45215.15
723.016	45245.21
723.359	45062.61
723.701	45174.93
724.044	45009.73
724.386	44825.11
724.729	44874.37
725.071	44814.71
725.413	44840.7
725.755	44679.35
726.097	44700.36
726.439	44647.71
726.782	44578.33
727.124	44734.94
727.465	44574.49
727.807	44257.21
728.149	44412.01
728.491	44344.67
728.833	44416.08
729.175	44360.03
729.516	44241.39
729.858	44172.02
730.199	44231
730.541	44087.5
730.882	44200.04
731.224	44018.35
731.565	43894.51
731.906	43993.72
732.248	43993.94
732.589	43729.77
732.93	43779.94
733.271	43799.82
733.612	43776.55
733.953	43915.75
734.294	43739.26
734.635	43599.15
734.976	43832.14
735.317	43562.09
735.658	43593.73
735.999	43394.41
736.339	43436.89
736.68	43516.21
737.021	43473.96
737.361	43397.8
737.702	43520.51
738.042	43299.05
738.383	43397.35
738.723	43472.15
739.063	43219.73
739.404	43414.3
739.744	43450.23
740.084	43305.82
740.424	43355.77
740.764	43289.55
741.104	43377.24
741.444	43211.36
741.784	43174.08
742.124	43231.7
742.464	43140.18
742.804	43071.48
743.143	43108.54
743.483	43143.12
743.823	43032.16
744.162	43003.46
744.502	43071.93
744.841	42974.08
745.181	43176.11
745.52	42851.37
745.86	43073.29
746.199	43128.88
746.538	43178.37
746.877	43164.36
747.216	43120.97
747.556	43012.95
747.895	43090.24
748.234	42876.46
748.573	42934.53
748.911	42976.34
749.25	42970.92
749.589	42889.79
749.928	42986.74
750.267	42829.23
750.605	43037.81
750.944	42956
751.283	42876.68
751.621	42871.03
751.96	42681.21
752.298	42880.98
752.636	42920.07
752.975	42727.99
753.313	42653.19
753.651	43001.2
753.989	42654.54
754.327	42822.22
754.666	42450.71
755.004	42743.35
755.342	42647.54
