Data from 14-0852_FLMS001491_005.txt Node
Date: Thu Apr 12 17:07:09 BST 2018
User: hsy
Spectrometer: FLMS00149
Trigger mode: 0
Integration Time (sec): 1.000000E-2
Scans to average: 10
Electric dark correction enabled: true
Nonlinearity correction enabled: false
Boxcar width: 0
XAxis mode: Wavelengths
Number of Pixels in Spectrum: 2048
>>>>>Begin Spectral Data<<<<<
341.393	-26.79
341.776	-26.79
342.16	-26.79
342.543	-63.18
342.927	-54.59
343.31	-73.35
343.693	-66.79
344.077	-76.74
344.46	-54.14
344.843	-68.6
345.226	-41.71
345.61	-17.98
345.993	-14.36
346.376	-16.4
346.759	18.18
347.142	39.42
347.525	48.46
347.908	54.33
348.291	79.64
348.674	76.03
349.057	113.99
349.44	113.77
349.823	147.44
350.206	176.14
350.588	238.74
350.971	248.68
351.354	267.44
351.737	292.97
352.119	284.16
352.502	302.24
352.884	335.01
353.267	341.11
353.65	344.95
354.032	348.79
354.414	352.41
354.797	354.21
355.179	359.19
355.562	374.1
355.944	374.33
356.326	383.59
356.709	389.02
357.091	379.98
357.473	382.69
357.855	379.75
358.238	374.1
358.62	389.24
359.002	390.15
359.384	379.52
359.766	375
360.148	372.29
360.53	413.65
360.912	374.55
361.294	379.07
361.676	370.03
362.057	368
362.439	389.69
362.821	392.63
363.203	371.61
363.584	370.94
363.966	392.18
364.348	389.24
364.729	358.28
365.111	374.55
365.493	376.13
365.874	368.68
366.256	389.24
366.637	373.65
367.019	370.71
367.4	380.88
367.781	385.85
368.163	374.78
368.544	356.25
368.925	370.26
369.306	384.04
369.688	361.45
370.069	371.16
370.45	377.94
370.831	405.51
371.212	376.81
371.593	384.04
371.974	363.48
372.355	399.41
372.736	388.11
373.117	389.92
373.498	379.07
373.879	393.99
374.26	386.3
374.641	384.27
375.021	397.83
375.402	404.16
375.783	382.01
376.163	391.28
376.544	403.93
376.925	405.96
377.305	422.69
377.686	411.39
378.066	408.68
378.447	420.2
378.827	413.65
379.208	417.26
379.588	396.47
379.968	400.54
380.349	406.64
380.729	408.9
381.109	428.34
381.489	426.3
381.87	411.61
382.25	427.43
382.63	428.79
383.01	427.66
383.39	423.59
383.77	438.51
384.15	443.7
384.53	437.15
384.91	450.26
385.29	448.67
385.67	434.89
386.049	475.11
386.429	464.04
386.809	452.06
387.189	466.3
387.568	458.62
387.948	479.18
388.328	482.57
388.707	476.92
389.087	480.99
389.466	470.59
389.846	480.09
390.225	499.75
390.605	490.71
390.984	483.25
391.363	473.76
391.743	494.1
392.122	487.77
392.501	496.36
392.881	485.28
393.26	512.4
393.639	504.27
394.018	504.27
394.397	514.21
394.776	527.32
395.155	526.41
395.534	526.64
395.913	525.06
396.292	525.96
396.671	523.7
397.05	517.6
397.429	528.22
397.808	537.03
398.186	547.66
398.565	534.77
398.944	529.8
399.323	539.07
399.701	547.88
400.08	554.66
400.458	569.8
400.837	556.24
401.215	558.28
401.594	543.81
401.972	571.38
402.351	563.02
402.729	578.39
403.107	569.8
403.486	581.55
403.864	583.13
404.242	614.09
404.62	601.89
404.999	630.14
405.377	608.9
405.755	629.01
406.133	630.14
406.511	619.74
406.889	612.96
407.267	627.65
407.645	645.73
408.023	636.24
408.401	641.21
408.779	662.91
409.156	652.74
409.534	665.62
409.912	662.68
410.29	667.65
410.667	680.31
411.045	681.66
411.422	716.92
411.8	684.6
412.178	702.45
412.555	734.32
412.933	723.47
413.31	736.12
413.687	739.51
414.065	721.66
414.442	755.56
414.819	740.64
415.197	776.58
415.574	760.76
415.951	780.19
416.328	770.25
416.705	789.91
417.082	771.83
417.46	806.86
417.837	801.21
418.214	803.24
418.591	804.37
418.967	811.38
419.344	825.61
419.721	820.64
420.098	832.62
420.475	868.55
420.852	822.68
421.228	834.65
421.605	837.59
421.982	856.12
422.358	871.26
422.735	892.05
423.111	857.48
423.488	900.87
423.864	899.06
424.241	899.96
424.617	910.13
424.994	929.79
425.37	911.26
425.746	906.97
426.123	934.54
426.499	942.45
426.875	944.71
427.251	958.27
427.627	971.82
428.003	967.08
428.379	973.41
428.756	997.81
429.132	994.42
429.507	1015.21
429.883	985.84
430.259	1020.86
430.635	1035.78
431.011	1054.99
431.387	1062.9
431.763	1070.35
432.138	1084.36
432.514	1105.38
432.89	1104.25
433.265	1131.14
433.641	1094.53
434.016	1140.63
434.392	1163.01
434.767	1137.47
435.143	1153.51
435.518	1145.83
435.894	1212.95
436.269	1193.29
436.644	1224.47
437.02	1210.91
437.395	1239.39
437.77	1239.39
438.145	1252.95
438.52	1250.69
438.895	1264.7
439.271	1265.83
439.646	1285.71
440.021	1321.19
440.395	1302.89
440.77	1271.25
441.145	1310.57
441.52	1322.55
441.895	1336.33
442.27	1376.79
442.645	1313.96
443.019	1381.08
443.394	1369.1
443.769	1373.85
444.143	1364.36
444.518	1403.23
444.892	1434.41
445.267	1417.01
445.641	1394.19
446.016	1415.88
446.39	1435.32
446.764	1427.18
447.139	1414.52
447.513	1470.79
447.887	1458.59
448.262	1477.8
448.636	1482.77
449.01	1471.02
449.384	1479.83
449.758	1526.39
450.132	1508.08
450.506	1536.33
450.88	1532.94
451.254	1539.27
451.628	1549.66
452.002	1628.53
452.376	1579.94
452.75	1620.4
453.123	1640.51
453.497	1645.25
453.871	1668.08
454.244	1697.46
454.618	1709.88
454.992	1743.56
455.365	1720.96
455.739	1773.61
456.112	1786.27
456.486	1811.8
456.859	1807.06
457.232	1859.49
457.606	1866.26
457.979	1899.71
458.352	1887.73
458.725	1931.57
459.099	1945.81
459.472	1955.08
459.845	2018.12
460.218	1997.33
460.591	2016.09
460.964	2046.15
461.337	2056.09
461.71	2120.27
462.083	2138.35
462.456	2126.82
462.829	2177.44
463.201	2181.96
463.574	2215.41
463.947	2214.96
464.32	2271.23
464.692	2286.82
465.065	2294.05
465.438	2315.74
465.81	2349.42
466.183	2392.13
466.555	2407.72
466.928	2413.14
467.3	2446.36
467.672	2465.34
468.045	2522.07
468.417	2546.7
468.789	2555.29
469.161	2587.38
469.534	2644.78
469.906	2646.36
470.278	2723.42
470.65	2748.5
471.022	2783.3
471.394	2819.91
471.766	2835.5
472.138	2879.35
472.51	2941.04
472.882	2986.91
473.253	2993.69
473.625	3065.78
473.997	3087.93
474.369	3159.56
474.74	3166.12
475.112	3215.16
475.484	3259.9
475.855	3330.63
476.227	3358.88
476.598	3433.45
476.97	3468.26
477.341	3538.08
477.713	3629.61
478.084	3626.22
478.455	3765.2
478.827	3782.6
479.198	3880.45
479.569	3892.43
479.94	4031.18
480.311	4069.6
480.682	4165.19
481.053	4242.93
481.424	4330.15
481.795	4377.16
482.166	4455.57
482.537	4558.4
482.908	4634.78
483.279	4691.5
483.65	4797.94
484.021	4945.73
484.391	4983.24
484.762	5098.95
485.133	5156.57
485.503	5296.68
485.874	5380.07
486.244	5459.84
486.615	5548.88
486.985	5721.53
487.356	5752.26
487.726	5876.1
488.097	6110.45
488.467	6199.71
488.837	6286.94
489.207	6466.82
489.578	6558.57
489.948	6719.24
490.318	6840.15
490.688	6943.42
491.058	7116.97
491.428	7273.81
491.798	7403.97
492.168	7565.78
492.538	7738.2
492.908	7908.37
493.278	8091.19
493.648	8185.65
494.017	8373.44
494.387	8556.03
494.757	8736.82
495.126	8888.9
495.496	9084.83
495.866	9250.25
496.235	9447.08
496.605	9612.28
496.974	9815.21
497.344	9971.36
497.713	10130.68
498.082	10360.5
498.452	10525.7
498.821	10665.58
499.19	10925.24
499.559	11042.07
499.928	11313.47
500.298	11585.56
500.667	11703.29
501.036	11980.57
501.405	12141.7
501.774	12367.01
502.143	12620.11
502.512	12778.97
502.88	13075.91
503.249	13257.15
503.618	13499.18
503.987	13690.81
504.356	13932.61
504.724	14137.81
505.093	14394.52
505.462	14625.93
505.83	14757.9
506.199	15039.7
506.567	15442.4
506.936	15576.64
507.304	15864.99
507.672	16068.38
508.041	16354.92
508.409	16577.52
508.777	16859.54
509.145	17188.12
509.514	17295.01
509.882	17520.99
510.25	17779.29
510.618	18035.1
510.986	18133.86
511.354	18504.92
511.722	18730.45
512.09	19034.63
512.458	19048.64
512.826	19377.44
513.193	19627.38
513.561	19794.61
513.929	20024.66
514.297	20358.43
514.664	20668.03
515.032	20781.02
515.4	20979.66
515.767	21230.05
516.135	21442.47
516.502	21424.17
516.869	21808.34
517.237	22088.11
517.604	22077.26
517.972	22414.42
518.339	22643.8
518.706	22779.61
519.073	23025.71
519.44	23259.6
519.808	23530.33
520.175	23713.6
520.542	24053.93
520.909	24233.13
521.276	24380.47
521.643	24734.36
522.009	24933.91
522.376	25277.63
522.743	25348.58
523.11	25684.85
523.477	25953.77
523.843	26048.68
524.21	26467.65
524.577	26747.87
524.943	26896.11
525.31	27070.12
525.676	27478.47
526.043	27763.66
526.409	27810.44
526.776	28213.82
527.142	28301.28
527.508	28513.7
527.874	28697.88
528.241	29035.49
528.607	29096.73
528.973	29473.9
529.339	29512.09
529.705	29927.45
530.071	30148.91
530.437	30338.06
530.803	30678.39
531.169	30799.74
531.535	30904.82
531.901	31123.57
532.267	31227.07
532.632	31487.41
532.998	31700.73
533.364	31887.4
533.73	31928.75
534.095	32387.95
534.461	32361.06
534.826	32709.07
535.192	32557.43
535.557	32996.52
535.923	33021.83
536.288	33249.85
536.653	33418.2
537.019	33416.85
537.384	33534.58
537.749	33720.12
538.114	33908.36
538.479	33886.21
538.845	34084.17
539.21	34197.84
539.575	34302.25
539.94	34466.76
540.305	34768.45
540.67	34531.39
541.034	34895.23
541.399	34907.43
541.764	35102
542.129	35130.47
542.494	35306.97
542.858	35478.94
543.223	35387.42
543.587	35690.69
543.952	35699.27
544.316	35794.64
544.681	35820.4
545.045	36154.4
545.41	36237.11
545.774	36149.43
546.138	36307.39
546.503	36464.9
546.867	36595.75
547.231	36893.14
547.595	36922.97
547.959	37104.21
548.324	37063.53
548.688	37242.28
549.052	37433.46
549.416	37483.41
549.779	37549.39
550.143	37670.52
550.507	37924.75
550.871	38045.88
551.235	38040.68
551.599	38306.21
551.962	38340.33
552.326	38535.36
552.689	38582.81
553.053	38467.11
553.417	38706.2
553.78	39088.56
554.143	39110.48
554.507	39173.08
554.87	39372.17
555.234	39672.5
555.597	39403.36
555.96	39837.47
556.323	39868.66
556.686	40126.05
557.05	40407.62
557.413	40534.85
557.776	40598.35
558.139	40865.92
558.502	40893.94
558.865	40926.03
559.228	41209.18
559.59	41476.75
559.953	41651.89
560.316	42036.96
560.679	41989.28
561.041	42364.63
561.404	42433.11
561.767	42693.44
562.129	42581.13
562.492	42937.95
562.854	43039.87
563.217	43050.72
563.579	43349.47
563.941	43565.06
564.304	43783.13
564.666	43916.01
565.028	43970.47
565.39	44162.78
565.753	44348.99
566.115	44481.87
566.477	44626.27
566.839	44811.8
567.201	45224.22
567.563	45292.47
567.925	45487.49
568.287	45641.38
568.648	45863.98
569.01	46019.45
569.372	46316.62
569.734	46230.97
570.095	46541.47
570.457	46859.66
570.819	46953.89
571.18	46845.19
571.542	47239.53
571.903	47283.6
572.265	47445.63
572.626	47659.86
572.987	47680.43
573.349	47830.03
573.71	47996.35
574.071	48276.8
574.432	48518.6
574.794	48724.47
575.155	48747.74
575.516	48870.45
575.877	48960.85
576.238	49109.99
576.599	49272.48
576.96	49499.59
577.32	49556.99
577.681	49673.14
578.042	49878.79
578.403	49970.76
578.763	50022.29
579.124	50044.21
579.485	50427.7
579.845	50467.47
580.206	50560.13
580.566	50780.46
580.927	50756.05
581.287	50995.82
581.648	50975.48
582.008	51140.9
582.368	51255.25
582.728	51405.98
583.089	51449.37
583.449	51564.39
583.809	51722.35
584.169	51843.26
584.529	51849.13
584.889	52190.59
585.249	52015.68
585.609	52113.08
585.969	52447.76
586.329	52420.87
586.688	52667.64
587.048	52708.09
587.408	52766.4
587.768	52878.93
588.127	52998.03
588.487	53068.99
588.846	53338.36
589.206	53211.58
589.565	53281.86
589.925	53656.54
590.284	53726.82
590.643	53772.7
591.003	53887.04
591.362	54148.96
591.721	54157.09
592.08	54234.61
592.44	54445.9
592.799	54459.91
593.158	54601.6
593.517	54607.25
593.876	54808.83
594.235	54880.46
594.593	54977.86
594.952	55120.23
595.311	55157.07
595.67	55309.83
596.029	55495.59
596.387	55585.08
596.746	55768.58
597.104	55604.06
597.463	55806.32
597.822	56005.18
598.18	55930.15
598.538	56054.44
598.897	56299.86
599.255	56251.5
599.613	56607.42
599.972	56512.29
600.33	56635.22
600.688	56644.26
601.046	56769
601.404	56936.68
601.762	57035.66
602.12	57183.45
602.478	57222.78
602.836	57344.35
603.194	57264.36
603.552	57415.54
603.91	57399.72
604.268	57652.14
604.625	57605.14
604.983	57769.2
605.341	57696.66
605.698	57975.98
606.056	58157.21
606.413	58008.29
606.771	58273.14
607.128	58322.86
607.485	58271.56
607.843	58341.39
608.2	58506.81
608.557	58691.44
608.914	58676.75
609.272	58753.58
609.629	58933.92
609.986	59060.01
610.343	59026.12
610.7	59227.24
611.057	59153.57
611.414	59189.95
611.771	59369.84
612.127	59447.35
612.484	59480.12
612.841	59573.22
613.198	59513.11
613.554	59596.27
613.911	59745.42
614.267	59792.88
614.624	59813.67
614.98	59949.26
615.337	60019.76
615.693	60076.94
616.05	60131.63
616.406	60230.61
616.762	60222.47
617.118	60232.87
617.475	60299.98
617.831	60442.13
618.187	60428.57
618.543	60522.58
618.899	60640.09
619.255	60580.65
619.611	60546.3
619.967	60726.41
620.323	60829.46
620.678	60706.98
621.034	60699.52
621.39	60764.83
621.746	60823.58
622.101	61033.75
622.457	60840.76
622.812	60991.26
623.168	61037.82
623.523	61061.09
623.879	61128.44
624.234	61003.24
624.589	61103.35
624.945	61174.31
625.3	61174.99
625.655	61271.48
626.01	61218.6
626.365	61250.92
626.72	61200.52
627.075	61221.54
627.43	61242.33
627.785	61219.51
628.14	61196.23
628.495	61260.86
628.85	61288.43
629.205	61230.81
629.559	61315.77
629.914	61217.92
630.269	61257.92
630.623	61167.53
630.978	61140.86
631.332	61256.34
631.687	61330.46
632.041	61216.12
632.396	61279.39
632.75	61204.82
633.104	61233.07
633.459	61126.85
633.813	61139.06
634.167	61106.51
634.521	61118.72
634.875	61143.8
635.229	61046.4
635.583	61000.3
635.937	60927.54
636.291	60992.17
636.645	60975.67
636.999	60882.57
637.352	60972.96
637.706	60795.56
638.06	60929.34
638.413	60832.17
638.767	60810.25
639.121	60804.83
639.474	60731.16
639.828	60725.28
640.181	60720.54
640.534	60786.07
640.888	60644.38
641.241	60568.9
641.594	60606.87
641.947	60704.27
642.301	60549.69
642.654	60581.1
643.007	60541.11
643.36	60596.25
643.713	60489.81
644.066	60606.64
644.419	60448.68
644.771	60211.85
645.124	59954.23
645.477	59940.22
645.83	59820.45
646.182	59809.6
646.535	59828.13
646.888	59879.65
647.24	59735.93
647.593	59902.48
647.945	59723.73
648.298	59669.04
648.65	59515.14
649.002	59394.7
649.355	59429.5
649.707	59329.61
650.059	59367.13
650.411	59697.29
650.763	59784.97
651.115	60171.4
651.467	60037.62
651.819	60030.38
652.171	59967.34
652.523	59893.44
652.875	59939.31
653.227	59814.8
653.578	59979.31
653.93	59837.4
654.282	59701.81
654.633	59726.66
654.985	59784.97
655.337	59826.32
655.688	59706.33
656.039	59752.88
656.391	59545.43
656.742	59603.73
657.094	59632.66
657.445	59653.22
657.796	59590.17
658.147	59551.53
658.498	59542.49
658.849	59643.73
659.2	59568.93
659.551	59473.56
659.902	59657.29
660.253	59438.31
660.604	59581.36
660.955	59414.58
661.306	59528.25
661.656	59441.7
662.007	59390.85
662.358	59436.05
662.708	59410.74
663.059	59444.86
663.409	59308.6
663.76	59445.99
664.11	59415.94
664.461	59414.36
664.811	59406.67
665.161	59403.73
665.511	59242.16
665.862	59374.81
666.212	59405.77
666.562	59401.47
666.912	59330.06
667.262	59260.91
667.612	59319.44
667.962	59319.44
668.312	59250.07
668.662	59349.72
669.011	59289.61
669.361	59220.46
669.711	59279.44
670.06	59195.15
670.41	59168.71
670.76	59121.26
671.109	59252.1
671.459	59193.8
671.808	59154.48
672.157	59196.51
672.507	59075.83
672.856	59101.14
673.205	59166.23
673.554	59183.63
673.904	59067.92
674.253	59231.54
674.602	59106.12
674.951	58748.84
675.3	58646.69
675.649	59128.04
675.998	59170.75
676.346	59129.17
676.695	59098.88
677.044	58969.4
677.393	59028.15
677.741	59139.56
678.09	58994.25
678.438	58909.06
678.787	59062.27
679.135	59013.24
679.484	58887.14
679.832	58994.48
680.181	58848.5
680.529	58905.44
680.877	58816.86
681.225	58846.01
681.573	58987.02
681.922	58792.23
682.27	58756.97
682.618	58771.66
682.966	58658.22
683.314	58692.79
683.661	58671.1
684.009	58561.72
684.357	58584.77
684.705	58444.21
685.053	58548.16
685.4	58452.12
685.748	58471.56
686.095	58435.62
686.443	58397.89
686.79	58326.02
687.138	58444.21
687.485	58344.55
687.832	58214.16
688.18	58224.1
688.527	58175.07
688.874	58124.67
689.221	58143.2
689.568	57974.17
689.915	57979.37
690.262	58000.38
690.609	57953.38
690.956	57853.72
691.303	57871.12
691.65	57782.08
691.997	57759.26
692.344	57599.71
692.69	57548.19
693.037	57608.98
693.383	57419.15
693.73	57556.78
694.077	57353.39
694.423	57372.83
694.769	57291.93
695.116	57289.21
695.462	57160.63
695.808	57058.26
696.155	57159.5
696.501	56905.95
696.847	56999.5
697.193	56803.13
697.539	56864.59
697.885	56610.36
698.231	56679.06
698.577	56553.87
698.923	56600.42
699.269	56379.86
699.614	56345.96
699.96	56300.54
700.306	56286.98
700.651	56152.29
700.997	56099.41
701.342	56012.86
701.688	55975.58
702.033	55934
702.379	55945.52
702.724	55778.29
703.069	55818.74
703.415	55521.12
703.76	55533.33
704.105	55591.86
704.45	55443.84
704.795	55261.02
705.14	55280.91
705.485	55296.95
705.83	55091.98
706.175	55287.68
706.52	55080.91
706.865	55013.57
707.209	54978.31
707.554	54806.79
707.899	54870.07
708.243	54738.55
708.588	54681.82
708.932	54516.18
709.277	54550.75
709.621	54476.18
709.966	54266.02
710.31	54308.73
710.654	54116.42
710.998	54209.52
711.342	54188.73
711.687	54073.48
712.031	54065.8
712.375	53950.77
712.719	53951.9
713.063	53829.42
713.407	53862.86
713.75	53785.58
714.094	53738.12
714.438	53633.04
714.782	53547.17
715.125	53407.51
715.469	53661.51
715.812	53362.31
716.156	53259.26
716.499	53309.21
716.843	53230.34
717.186	53135.2
717.53	53223.56
717.873	53251.13
718.216	53081.42
718.559	52971.14
718.902	52730.92
719.246	52783.57
719.589	52702.67
719.932	52694.76
720.275	52769.11
720.617	52688.66
720.96	52546.51
721.303	52482.11
721.646	52523.69
721.989	52311.49
722.331	52430.81
722.674	52296.58
723.016	52153.08
723.359	52131.84
723.701	52244.83
724.044	52097.26
724.386	51943.82
724.729	52062.01
725.071	52028.11
725.413	51899.07
725.755	51987.21
726.097	51733.43
726.439	51681.68
726.782	51638.74
727.124	51733.65
727.465	51570.95
727.807	51539.31
728.149	51572.75
728.491	51432.64
728.833	51404.62
729.175	51426.32
729.516	51325.98
729.858	51110.17
730.199	51363.27
730.541	51247.11
730.882	51045.99
731.224	51097.06
731.565	51027.01
731.906	51024.52
732.248	50956.5
732.589	50782.27
732.93	50788.59
733.271	50855.26
733.612	50775.49
733.953	50889.38
734.294	50683.74
734.635	50600.8
734.976	50711.31
735.317	50600.12
735.658	50513.35
735.999	50480.35
736.339	50390.86
736.68	50563.52
737.021	50318.55
737.361	50265.44
737.702	50420.02
738.042	50168.27
738.383	50285.1
738.723	50281.04
739.063	50049.18
739.404	50284.88
739.744	50181.15
740.084	49955.85
740.424	50093.92
740.764	49926.7
741.104	49991.33
741.444	49724.22
741.784	49706.81
742.124	49981.16
742.464	49840.37
742.804	49768.96
743.143	49615.07
743.483	49758.11
743.823	49566.03
744.162	49556.99
744.502	49580.49
744.841	49389.53
745.181	49528.29
745.52	49240.39
745.86	49479.93
746.199	49353.38
746.538	49270.22
746.877	49407.61
747.216	49161.97
747.556	49111.12
747.895	49132.82
748.234	49023.22
748.573	49013.05
748.911	48881.75
749.25	48830.91
749.589	48716.56
749.928	48851.02
750.267	48904.58
750.605	48654.41
750.944	48685.15
751.283	48578.93
751.621	48688.99
751.96	48372.39
752.298	48434.53
752.636	48434.08
752.975	48365.83
753.313	48085.39
753.651	48233.18
753.989	47967.43
754.327	48073.19
754.666	47810.37
