Data from 14-0852_FLMS001491_009.txt Node
Date: Thu Apr 12 17:07:18 BST 2018
User: hsy
Spectrometer: FLMS00149
Trigger mode: 0
Integration Time (sec): 1.000000E-2
Scans to average: 10
Electric dark correction enabled: true
Nonlinearity correction enabled: false
Boxcar width: 0
XAxis mode: Wavelengths
Number of Pixels in Spectrum: 2048
>>>>>Begin Spectral Data<<<<<
341.393	-2.42
341.776	-2.42
342.16	-2.42
342.543	-86.93
342.927	-73.15
343.31	-56.2
343.693	-68.63
344.077	-75.41
344.46	-55.3
344.843	-44.67
345.226	-54.17
345.61	-21.17
345.993	-11
346.376	-32.24
346.759	21.76
347.142	7.98
347.525	49.56
347.908	74.87
348.291	66.51
348.674	85.04
349.057	113.06
349.44	120.75
349.823	142.44
350.206	191.93
350.588	225.15
350.971	251.59
351.354	267.86
351.737	291.81
352.119	297.46
352.502	324.36
352.884	302.66
353.267	315.77
353.65	325.71
354.032	328.2
354.414	353.51
354.797	360.29
355.179	354.64
355.562	363.68
355.944	378.59
356.326	370.23
356.709	369.33
357.091	377.01
357.473	386.05
357.855	371.36
358.238	393.96
358.62	386.5
359.002	368.2
359.384	389.21
359.766	370.46
360.148	381.98
360.53	408.2
360.912	379.95
361.294	391.25
361.676	393.73
362.057	403.9
362.439	359.38
362.821	395.09
363.203	384.69
363.584	356.22
363.966	385.15
364.348	385.15
364.729	383.34
365.111	359.38
365.493	387.41
365.874	378.14
366.256	389.66
366.637	370.68
367.019	379.04
367.4	371.36
367.781	379.72
368.163	361.19
368.544	381.53
368.925	379.04
369.306	390.34
369.688	375.2
370.069	379.5
370.45	383.56
370.831	395.54
371.212	381.76
371.593	389.21
371.974	371.36
372.355	366.84
372.736	393.51
373.117	386.73
373.498	406.16
373.879	383.56
374.26	377.91
374.641	390.34
375.021	383.56
375.402	388.08
375.783	391.92
376.163	407.97
376.544	404.58
376.925	420.85
377.305	408.65
377.686	405.03
378.066	407.52
378.447	380.4
378.827	398.93
379.208	417.91
379.588	423.34
379.968	408.2
380.349	419.95
380.729	417.91
381.109	428.53
381.489	415.2
381.87	435.54
382.25	430.57
382.63	437.12
383.01	426.05
383.39	438.7
383.77	421.3
384.15	429.89
384.53	448.19
384.91	457.01
385.29	453.62
385.67	458.36
386.049	444.58
386.429	456.1
386.809	471.92
387.189	468.31
387.568	472.15
387.948	469.89
388.328	473.73
388.707	474.63
389.087	477.12
389.466	487.97
389.846	475.09
390.225	482.09
390.605	474.63
390.984	490.45
391.363	473.5
391.743	476.22
392.122	519.15
392.501	486.39
392.881	506.5
393.26	512.37
393.639	521.19
394.018	498.59
394.397	498.59
394.776	538.36
395.155	513.28
395.534	511.24
395.913	518.02
396.292	514.86
396.671	548.08
397.05	523.45
397.429	541.3
397.808	537.91
398.186	558.02
398.565	550.34
398.944	542.43
399.323	544.01
399.701	548.53
400.08	551.47
400.458	532.94
400.837	573.16
401.215	576.55
401.594	565.71
401.972	577.46
402.351	573.16
402.729	580.85
403.107	580.62
403.486	574.52
403.864	563.45
404.242	611.35
404.62	598.02
404.999	594.41
405.377	608.64
405.755	620.17
406.133	636.44
406.511	638.7
406.889	643.9
407.267	627.62
407.645	639.38
408.023	624.01
408.401	663.78
408.779	663.56
409.156	653.61
409.534	678.47
409.912	662.65
410.29	687.06
410.667	717.34
411.045	700.62
411.422	700.84
411.8	712.59
412.178	723.67
412.555	727.96
412.933	732.93
413.31	754.4
413.687	753.72
414.065	760.95
414.442	734.74
414.819	756.21
415.197	759.37
415.574	795.98
415.951	753.95
416.328	762.76
416.705	776.77
417.082	800.95
417.46	773.84
417.837	811.35
418.214	807.51
418.591	816.09
418.967	789.43
419.344	853.16
419.721	847.96
420.098	839.82
420.475	847.28
420.852	851.35
421.228	837.79
421.605	844.57
421.982	846.38
422.358	887.05
422.735	863.78
423.111	877.34
423.488	912.59
423.864	908.07
424.241	899.71
424.617	897.67
424.994	904
425.37	931.8
425.746	935.64
426.123	920.27
426.499	908.52
426.875	944.23
427.251	959.14
427.627	976.09
428.003	977.67
428.379	1017.9
428.756	991.01
429.132	985.36
429.507	1007.05
429.883	1002.76
430.259	1051.57
430.635	1029.87
431.011	1064.45
431.387	1057.22
431.763	1070.32
432.138	1095.86
432.514	1082.98
432.89	1105.35
433.265	1136.99
433.641	1118.46
434.016	1127.95
434.392	1178.12
434.767	1192.81
435.143	1184.9
435.518	1206.59
435.894	1196.42
436.269	1234.16
436.644	1222.86
437.02	1223.77
437.395	1235.52
437.77	1249.53
438.145	1281.62
438.52	1263.31
438.895	1291.34
439.271	1263.77
439.646	1302.18
440.021	1310.77
440.395	1334.72
440.77	1301.51
441.145	1309.87
441.52	1315.06
441.895	1330.21
442.27	1370.2
442.645	1341.73
443.019	1378.11
443.394	1357.1
443.769	1377.89
444.143	1364.33
444.518	1393.25
444.892	1375.18
445.267	1399.36
445.641	1401.39
446.016	1414.04
446.39	1439.35
446.764	1455.85
447.139	1446.81
447.513	1446.36
447.887	1461.95
448.262	1470.99
448.636	1470.99
449.01	1498.34
449.384	1508.96
449.758	1493.36
450.132	1534.95
450.506	1546.7
450.88	1567.26
451.254	1555.51
451.628	1574.49
452.002	1607.03
452.376	1618.56
452.75	1595.73
453.123	1616.53
453.497	1637.54
453.871	1629.63
454.244	1708.27
454.618	1710.76
454.992	1754.6
455.365	1729.29
455.739	1791.21
456.112	1782.17
456.486	1788.5
456.859	1836.86
457.232	1871.21
457.606	1880.02
457.979	1879.8
458.352	1946.91
458.725	1947.14
459.099	1964.76
459.472	1954.37
459.845	2003.63
460.218	2040.02
460.591	2058.32
460.964	2046.34
461.337	2112.78
461.71	2137.19
462.083	2119.56
462.456	2123.63
462.829	2171.99
463.201	2186.23
463.574	2187.58
463.947	2261.93
464.32	2280.01
464.692	2319.33
465.065	2287.69
465.438	2316.17
465.81	2377.86
466.183	2412.44
466.555	2410.85
466.928	2497.63
467.3	2452.66
467.672	2466.9
468.045	2521.81
468.417	2534.69
468.789	2568.36
469.161	2566.33
469.534	2623.96
469.906	2672.54
470.278	2740.56
470.65	2741.92
471.022	2760.45
471.394	2856.49
471.766	2862.37
472.138	2863.95
472.51	2953.67
472.882	2982.59
473.253	3001.8
473.625	3067.33
473.997	3119.08
474.369	3129.25
474.74	3177.39
475.112	3244.96
475.484	3265.75
475.855	3343.49
476.227	3384.84
476.598	3438.62
476.97	3493.76
477.341	3515.01
477.713	3623.93
478.084	3641.56
478.455	3764.04
478.827	3765.62
479.198	3909.57
479.569	3921.32
479.94	4031.6
480.311	4078.38
480.682	4171.03
481.053	4266.4
481.424	4320.18
481.795	4377.36
482.166	4492.38
482.537	4538.48
482.908	4665.71
483.279	4693.73
483.65	4850.79
484.021	4952.71
484.391	5024.57
484.762	5097.34
485.133	5175.98
485.503	5263.44
485.874	5405.8
486.244	5481.28
486.615	5600.6
486.985	5709.3
487.356	5819.8
487.726	5920.14
488.097	6107.03
488.467	6192.9
488.837	6292.33
489.207	6443.74
489.578	6635.15
489.948	6714.47
490.318	6883.28
490.688	6959.21
491.058	7139.54
491.428	7339.54
491.798	7351.97
492.168	7630.83
492.538	7790.37
492.908	7888.68
493.278	8128.44
493.648	8180.19
494.017	8313.98
494.387	8505.61
494.757	8680.75
495.126	8847.75
495.496	9025.6
495.866	9205.48
496.235	9383.55
496.605	9621.96
496.974	9720.94
497.344	9921.84
497.713	10103.76
498.082	10314.6
498.452	10482.51
498.821	10667.13
499.19	10854.02
499.559	11054.7
499.928	11280.45
500.298	11459.43
500.667	11748.91
501.036	11888.57
501.405	12093.09
501.774	12292.63
502.143	12527.88
502.512	12704.82
502.88	12928.54
503.249	13114.98
503.618	13343.45
503.987	13560.17
504.356	13793.61
504.724	13996.54
505.093	14193.14
505.462	14402.18
505.83	14620.93
506.199	14909.96
506.567	15221.82
506.936	15310.85
507.304	15698.19
507.672	15812.76
508.041	16102.92
508.409	16405.51
508.777	16563.48
509.145	16833.07
509.514	17020.41
509.882	17294.31
510.25	17461.76
510.618	17779.49
510.986	17767.97
511.354	18117.79
511.722	18389.87
512.09	18710.99
512.458	18755.74
512.826	19061.49
513.193	19331.09
513.561	19473
513.929	19653.34
514.297	20012.88
514.664	20164.51
515.032	20385.07
515.4	20570.15
515.767	20788.22
516.135	21074.32
516.502	21100.31
516.869	21479.05
517.237	21617.13
517.604	21665.94
517.972	22076.1
518.339	22276.32
518.706	22343.44
519.073	22585.47
519.44	22786.82
519.808	23129.41
520.175	23234.26
520.542	23557.42
520.909	23743.4
521.276	23973.9
521.643	24163.73
522.009	24451.86
522.376	24752.87
522.743	24875.12
523.11	25192.4
523.477	25405.73
523.843	25499.29
524.21	25950.8
524.577	26080.06
524.943	26390.34
525.31	26528.86
525.676	26847.27
526.043	27210.43
526.409	27296.08
526.776	27609.06
527.142	27662.39
527.508	27894.93
527.874	28276.16
528.241	28553.9
528.607	28595.25
528.973	29064.62
529.339	28961.57
529.705	29360.65
530.071	29597.94
530.437	29825.28
530.803	30038.83
531.169	30160.63
531.535	30318.82
531.901	30469.55
532.267	30699.15
532.632	30783.22
532.998	31069.54
533.364	31223.88
533.73	31357.44
534.095	31656.64
534.461	31571.67
534.826	31884.88
535.192	32080.81
535.557	32179.79
535.923	32290.97
536.288	32581.81
536.653	32801.92
537.019	32667.23
537.384	32954.01
537.749	32918.98
538.114	33105.87
538.479	33288.01
538.845	33423.37
539.21	33254.56
539.575	33608
539.94	33685.74
540.305	33904.72
540.67	33892.96
541.034	34074.65
541.399	34267.42
541.764	34292.05
542.129	34445.49
542.494	34453.4
542.858	34852.71
543.223	34603.45
543.587	34847.52
543.952	34969.55
544.316	35116.44
544.681	35146.27
545.045	35310.78
545.41	35417.9
545.774	35414.05
546.138	35486.6
546.503	35638.23
546.867	35755.74
547.231	36059.46
547.595	36004.32
547.959	36182.62
548.324	36237.76
548.688	36322.73
549.052	36464.65
549.416	36499
549.779	36542.61
550.143	36653.57
550.507	36980.79
550.871	37055.37
551.235	36963.17
551.599	37305.98
551.962	37296.27
552.326	37639.53
552.689	37703.71
553.053	37516.15
553.417	37852.86
553.78	38222.79
554.143	38211.27
554.507	38479.06
554.87	38555.67
555.234	38916.11
555.597	38738.26
555.96	38936.45
556.323	39029.1
556.686	39059.83
557.05	39374.63
557.413	39453.72
557.776	39495.98
558.139	39777.78
558.502	39863.66
558.865	40008.96
559.228	40242.4
559.59	40350.2
559.953	40492.79
560.316	40987.92
560.679	40930.29
561.041	41252.32
561.404	41425.2
561.767	41583.16
562.129	41610.5
562.492	41965.52
562.854	41791.06
563.217	42073.54
563.579	42201.9
563.941	42392.63
564.304	42543.36
564.666	42959.39
565.028	42967.08
565.39	43050.24
565.753	43527.74
566.115	43610
566.477	43698.58
566.839	43897.45
567.201	44274.84
567.563	44154.39
567.925	44466.25
568.287	44592.8
568.648	44787.14
569.01	44929.06
569.372	45304.64
569.734	45333.12
570.095	45552.77
570.457	45899.43
570.819	45852.65
571.18	45853.78
571.542	46173.55
571.903	46256.26
572.265	46470.71
572.626	46784.15
572.987	46715
573.349	47076.8
573.71	47100.75
574.071	47185.72
574.432	47518.37
574.794	47805.14
575.155	47989.54
575.516	47941.41
575.877	48106.83
576.238	48198.13
576.599	48404
576.96	48485.8
577.32	48528.74
577.681	48594.73
578.042	48955.85
578.403	49162.85
578.763	49159
579.124	49130.3
579.485	49562.16
579.845	49632.89
580.206	49561.93
580.566	49743.62
580.927	49878.31
581.287	50124.63
581.648	50105.42
582.008	50443.04
582.368	50485.3
582.728	50540.21
583.089	50732.75
583.449	50835.12
583.809	50864.72
584.169	51153.98
584.529	51036.47
584.889	51447.31
585.249	51296.8
585.609	51337.25
585.969	51664.93
586.329	51553.29
586.688	51791.25
587.048	51899.5
587.408	51999.61
587.768	52059.27
588.127	52203.22
588.487	52424
588.846	52694.05
589.206	52460.39
589.565	52596.65
589.925	52986.25
590.284	53000.03
590.643	53086.36
591.003	53210.65
591.362	53459.23
591.721	53629.62
592.08	53625.1
592.44	53863.06
592.799	53844.3
593.158	53917.07
593.517	53989.16
593.876	54240
594.235	54220.57
594.593	54326.78
594.952	54492.42
595.311	54565.87
595.67	54678.63
596.029	54896.48
596.387	55092.63
596.746	55176.92
597.104	55030.71
597.463	55174.89
597.822	55433.19
598.18	55373.3
598.538	55510.48
598.897	55780.3
599.255	55657.59
599.613	56044.92
599.972	55930.58
600.33	56073.62
600.688	56136.67
601.046	56297.12
601.404	56562.43
601.762	56528.3
602.12	56696.88
602.478	56748.63
602.836	56854.62
603.194	56757.22
603.552	56891.68
603.91	56866.15
604.268	57051.23
604.625	57122.64
604.983	57232.24
605.341	57192.01
605.698	57450.09
606.056	57620.48
606.413	57555.17
606.771	57783.18
607.128	57807.14
607.485	57738.21
607.843	57904.08
608.2	57988.15
608.557	58195.38
608.914	58151.54
609.272	58296.84
609.629	58462.71
609.986	58435.14
610.343	58532.99
610.7	58671.75
611.057	58680.56
611.414	58707.68
611.771	58803.04
612.127	58941.8
612.484	58921.23
612.841	59046.43
613.198	58979.76
613.554	59093.66
613.911	59295.01
614.267	59325.52
614.624	59320.77
614.98	59408
615.337	59653.42
615.693	59606.19
616.05	59710.59
616.406	59801.44
616.762	59707.88
617.118	59753.3
617.475	59767.09
617.831	60007.53
618.187	59923.01
618.543	59969.12
618.899	60160.52
619.255	60136.34
619.611	60118.72
619.967	60241.88
620.323	60359.61
620.678	60276.45
621.034	60285.72
621.39	60236.23
621.746	60324.13
622.101	60661.75
622.457	60439.61
622.812	60597.12
623.168	60634.41
623.523	60649.78
623.879	60773.16
624.234	60582.88
624.589	60713.28
624.945	60711.69
625.3	60754.86
625.655	60810.45
626.01	60760.51
626.365	60811.35
626.72	60740.17
627.075	60755.31
627.43	60788.3
627.785	60761.64
628.14	60802.77
628.495	60796.89
628.85	60839.37
629.205	60816.32
629.559	60858.58
629.914	60810.45
630.269	60784.69
630.623	60731.81
630.978	60661.98
631.332	60842.09
631.687	60763.67
632.041	60797.34
632.396	60774.52
632.75	60743.56
633.104	60777.68
633.459	60650.91
633.813	60656.33
634.167	60711.02
634.521	60703.56
634.875	60692.26
635.229	60611.13
635.583	60520.51
635.937	60597.12
636.291	60531.59
636.645	60532.49
636.999	60439.39
637.352	60510.57
637.706	60375.66
638.06	60482.77
638.413	60454.98
638.767	60346.51
639.121	60373.85
639.474	60294.53
639.828	60257.92
640.181	60274.19
640.534	60285.94
640.888	60155.33
641.241	60066.29
641.594	60131.6
641.947	60212.72
642.301	60079.85
642.654	60122.33
643.007	60017.25
643.36	60067.87
643.713	60030.58
644.066	60128.43
644.419	60022
644.771	59710.82
645.124	59507.66
645.477	59457.26
645.83	59348.79
646.182	59308.57
646.535	59306.53
646.888	59310.38
647.24	59304.5
647.593	59440.99
647.945	59330.04
648.298	59201.9
648.65	59011.17
649.002	58987.67
649.355	58944.51
649.707	58887.79
650.059	58904.96
650.411	59286.2
650.763	59284.39
651.115	59674.89
651.467	59577.94
651.819	59544.49
652.171	59393.31
652.523	59422.69
652.875	59423.59
653.227	59330.94
653.578	59507.88
653.93	59342.24
654.282	59287.55
654.633	59236.71
654.985	59309.02
655.337	59309.7
655.688	59260.43
656.039	59357.83
656.391	59094.79
656.742	59172.3
657.094	59109.93
657.445	59212.75
657.796	59179.76
658.147	59100.66
658.498	59147.44
658.849	59210.27
659.2	59127.1
659.551	59042.59
659.902	59248
660.253	59044.85
660.604	59126.2
660.955	59063.15
661.306	59187.67
661.656	59020.67
662.007	59044.62
662.358	59065.86
662.708	59015.47
663.059	58998.97
663.409	58865.87
663.76	58969.14
664.11	58974.34
664.461	58988.12
664.811	58991.97
665.161	58930.27
665.511	58887.11
665.862	58946.32
666.212	58915.58
666.562	58964.4
666.912	58858.18
667.262	58829.03
667.612	58833.33
667.962	58825.42
668.312	58767.56
668.662	58849.37
669.011	58874.23
669.361	58802.14
669.711	58804.17
670.06	58757.4
670.41	58702.26
670.76	58708.81
671.109	58736.61
671.459	58734.8
671.808	58663.84
672.157	58758.3
672.507	58527.8
672.856	58544.52
673.205	58629.49
673.554	58632.43
673.904	58680.11
674.253	58737.28
674.602	58635.14
674.951	58301.36
675.3	58197.64
675.649	58574.35
675.998	58619.32
676.346	58577.06
676.695	58656.38
677.044	58496.61
677.393	58540.23
677.741	58662.48
678.09	58539.77
678.438	58467.91
678.787	58483.73
679.135	58565.99
679.484	58293.68
679.832	58480.57
680.181	58424.98
680.529	58430.85
680.877	58273.11
681.225	58251.19
681.573	58522.6
681.922	58350.17
682.27	58280.8
682.618	58282.61
682.966	58217.07
683.314	58215.04
683.661	58228.14
684.009	58096.62
684.357	58069.96
684.705	57985.89
685.053	58064.53
685.4	58020.24
685.748	57885.1
686.095	57906.57
686.443	57767.59
686.79	57800.36
687.138	57841.71
687.485	57811.66
687.832	57718.55
688.18	57748.16
688.527	57599.23
688.874	57615.73
689.221	57615.5
689.568	57539.35
689.915	57485.56
690.262	57502.51
690.609	57393.82
690.956	57357.66
691.303	57412.8
691.65	57312.91
691.997	57190.66
692.344	57110.21
692.69	57077.21
693.037	57097.55
693.383	56851.68
693.73	56993.37
694.077	56863.89
694.423	56840.16
694.769	56789.54
695.116	56692.37
695.462	56675.87
695.808	56550.22
696.155	56549.77
696.501	56459.6
696.847	56447.4
697.193	56317.23
697.539	56378.93
697.885	56166.96
698.231	56133.96
698.577	56101.87
698.923	56215.54
699.269	55903.91
699.614	55893.29
699.96	55750.47
700.306	55860.3
700.651	55690.58
700.997	55587.54
701.342	55580.53
701.688	55469.12
702.033	55415.56
702.379	55456.92
702.724	55339.18
703.069	55383.93
703.415	55084.27
703.76	55058.96
704.105	55089.7
704.45	54996.59
704.795	54911.62
705.14	54810.83
705.485	54880.44
705.83	54606.09
706.175	54755.47
706.52	54592.53
706.865	54537.17
707.209	54448.81
707.554	54536.72
707.899	54383.27
708.243	54307.8
708.588	54277.06
708.932	54085.2
709.277	54157.06
709.621	53981.48
709.966	53838.2
710.31	53919.56
710.654	53710.97
710.998	53788.49
711.342	53782.39
711.687	53615.61
712.031	53500.81
712.375	53403.64
712.719	53319.57
713.063	53398.21
713.407	53422.17
713.75	53262.85
714.094	53285.22
714.438	53164.77
714.782	53124.1
715.125	52948.73
715.469	53113.25
715.812	52801.62
716.156	52834.84
716.499	52830.32
716.843	52878.23
717.186	52658.35
717.53	52809.08
717.873	52741.28
718.216	52592.13
718.559	52457.67
718.902	52260.84
719.246	52295.87
719.589	52311.01
719.932	52088.42
720.275	52216.32
720.617	52165.25
720.96	52000.29
721.303	52058.36
721.646	52059.94
721.989	51802.1
722.331	52031.92
722.674	51872.15
723.016	51804.58
723.359	51717.13
723.701	51739.5
724.044	51657.7
724.386	51429.23
724.729	51678.71
725.071	51502.67
725.413	51479.62
725.755	51371.83
726.097	51317.59
726.439	51219.29
726.782	51116.01
727.124	51323.01
727.465	51054.55
727.807	51064.26
728.149	51064.04
728.491	50975.23
728.833	51040.54
729.175	50862.24
729.516	50903.59
729.858	50832.63
730.199	50849.36
730.541	50751.73
730.882	50615.24
731.224	50763.48
731.565	50411.17
731.906	50521.91
732.248	50601.23
732.589	50386.32
732.93	50246.43
733.271	50320.78
733.612	50217.96
733.953	50446.43
734.294	50282.36
734.635	50063.16
734.976	50345.41
735.317	50176.83
735.658	50116.04
735.999	50038.98
736.339	49958.08
736.68	50003.73
737.021	49841.47
737.361	49823.17
737.702	49932.32
738.042	49813.22
738.383	49772.55
738.723	49763.96
739.063	49667.47
739.404	49759.67
739.744	49680.8
740.084	49514.47
740.424	49652.1
740.764	49539.11
741.104	49613.68
741.444	49535.94
741.784	49297.08
742.124	49362.84
742.464	49383.18
742.804	49250.3
743.143	49261.83
743.483	49247.82
743.823	48832.46
744.162	49025.67
744.502	49011.89
744.841	48873.36
745.181	49015.5
745.52	48777.09
745.86	48886.69
746.199	48824.1
746.538	48790.2
746.877	48919.01
747.216	48746.13
747.556	48609.87
747.895	48622.29
748.234	48626.59
748.573	48474.73
748.911	48332.59
749.25	48312.92
749.589	48089.88
749.928	48206.03
750.267	48229.31
750.605	48217.56
750.944	47966.27
751.283	47955.87
751.621	48147.96
751.96	47778.48
752.298	47806.72
752.636	47873.16
752.975	47630.46
753.313	47559.5
753.651	47732.6
753.989	47241.54
754.327	47336.68
754.666	47217.81
755.004	47133.97
755.342	47113.86
