Data from 14-0852_FLMS001491_004.txt Node
Date: Thu Apr 12 17:07:07 BST 2018
User: hsy
Spectrometer: FLMS00149
Trigger mode: 0
Integration Time (sec): 1.000000E-2
Scans to average: 10
Electric dark correction enabled: true
Nonlinearity correction enabled: false
Boxcar width: 0
XAxis mode: Wavelengths
Number of Pixels in Spectrum: 2048
>>>>>Begin Spectral Data<<<<<
341.393	-4.14
341.776	-4.14
342.16	-4.14
342.543	-53.63
342.927	-71.93
343.31	-77.36
343.693	-70.13
344.077	-71.71
344.46	-55.21
344.843	-49.79
345.226	-38.26
345.61	-38.49
345.993	-15.66
346.376	-2.33
346.759	8.52
347.142	13.26
347.525	43.54
347.908	67.95
348.291	91.45
348.674	100.49
349.057	93.71
349.44	117.44
349.823	155.41
350.206	181.17
350.588	228.85
350.971	255.29
351.354	278.57
351.737	292.35
352.119	297.77
352.502	305.01
352.884	312.92
353.267	319.24
353.65	310.2
354.032	338.23
354.414	356.53
354.797	342.07
355.179	345.01
355.562	376.19
355.944	369.64
356.326	387.26
356.709	385.68
357.091	390.2
357.473	375.74
357.855	391.33
358.238	389.52
358.62	382.74
359.002	395.4
359.384	391.11
359.766	399.92
360.148	402.18
360.53	409.18
360.912	382.74
361.294	403.99
361.676	387.26
362.057	389.98
362.439	394.27
362.821	391.78
363.203	375.96
363.584	383.42
363.966	375.06
364.348	360.37
364.729	399.92
365.111	381.16
365.493	373.25
365.874	385.46
366.256	382.74
366.637	400.37
367.019	381.84
367.4	383.87
367.781	392.69
368.163	390.2
368.544	387.94
368.925	374.83
369.306	371.67
369.688	392.91
370.069	379.13
370.45	404.66
370.831	370.99
371.212	373.48
371.593	393.37
371.974	378.45
372.355	359.02
372.736	370.54
373.117	389.98
373.498	390.43
373.879	392.24
374.26	401.5
374.641	375.51
375.021	365.34
375.402	400.14
375.783	405.79
376.163	418.68
376.544	385
376.925	403.76
377.305	429.75
377.686	406.47
378.066	411.44
378.447	408.51
378.827	402.86
379.208	413.93
379.588	420.71
379.968	427.71
380.349	439.24
380.729	431.78
381.109	438.79
381.489	435.62
381.87	422.07
382.25	425
382.63	415.74
383.01	410.54
383.39	435.17
383.77	440.82
384.15	422.29
384.53	431.33
384.91	447.38
385.29	445.57
385.67	465
386.049	448.73
386.429	471.1
386.809	477.43
387.189	462.06
387.568	483.53
387.948	470.65
388.328	483.31
388.707	454.38
389.087	465.45
389.466	486.7
389.846	473.82
390.225	475.4
390.605	488.05
390.984	480.59
391.363	497.09
391.743	480.82
392.122	498
392.501	490.09
392.881	493.48
393.26	504.77
393.639	531.89
394.018	523.31
394.397	509.97
394.776	526.47
395.155	520.59
395.534	521.95
395.913	535.96
396.292	516.75
396.671	518.11
397.05	545
397.429	544.55
397.808	534.6
398.186	538.45
398.565	535.28
398.944	533.02
399.323	544.77
399.701	545.68
400.08	545.23
400.458	550.88
400.837	571.67
401.215	553.36
401.594	578.22
401.972	559.01
402.351	585
402.729	579.35
403.107	610.76
403.486	570.54
403.864	592
404.242	583.64
404.62	590.2
404.999	608.27
405.377	631.55
405.755	598.33
406.133	657.54
406.511	616.86
406.889	625.45
407.267	647.6
407.645	628.39
408.023	652.34
408.401	667.71
408.779	639.01
409.156	657.99
409.534	657.77
409.912	662.96
410.29	693.92
410.667	701.61
411.045	691.44
411.422	685.11
411.8	709.74
412.178	709.74
412.555	711.55
412.933	725.33
413.31	740.47
413.687	739.12
414.065	743.19
414.442	775.73
414.819	759.23
415.197	735.05
415.574	762.17
415.951	768.27
416.328	798.55
416.705	790.42
417.082	804.88
417.46	809.85
417.837	793.35
418.214	805.56
418.591	822.96
418.967	808.72
419.344	800.59
419.721	813.92
420.098	837.2
420.475	857.76
420.852	848.72
421.228	820.25
421.605	846.69
421.982	875.61
422.358	860.02
422.735	878.32
423.111	872.67
423.488	860.25
423.864	886.46
424.241	884.2
424.617	899.34
424.994	903.86
425.37	916.74
425.746	895.95
426.123	956.74
426.499	928.27
426.875	944.76
427.251	959.23
427.627	970.98
428.003	956.06
428.379	1003.07
428.756	993.35
429.132	1019.79
429.507	1030.86
429.883	1011.88
430.259	1048.94
430.635	1049.17
431.011	1038.32
431.387	1064.76
431.763	1046.23
432.138	1094.36
432.514	1123.06
432.89	1104.99
433.265	1124.42
433.641	1134.59
434.016	1140.69
434.392	1162.16
434.767	1168.71
435.143	1154.48
435.518	1176.4
435.894	1194.47
436.269	1206.9
436.644	1224.08
437.02	1221.14
437.395	1246.68
437.77	1259.56
438.145	1253
438.52	1231.99
438.895	1277.64
439.271	1264.53
439.646	1293.68
440.021	1292.1
440.395	1314.02
440.77	1284.64
441.145	1304.08
441.52	1320.12
441.895	1335.04
442.27	1345.66
442.645	1333.68
443.019	1358.54
443.394	1354.47
443.769	1357.18
444.143	1362.83
444.518	1392.21
444.892	1384.75
445.267	1381.36
445.641	1390.85
446.016	1414.58
446.39	1418.2
446.764	1424.07
447.139	1417.07
447.513	1443.51
447.887	1442.15
448.262	1467.24
448.636	1469.27
449.01	1492.09
449.384	1489.61
449.758	1488.7
450.132	1504.97
450.506	1526.89
450.88	1545.43
451.254	1543.62
451.628	1576.39
452.002	1587.46
452.376	1567.8
452.75	1636.04
453.123	1631.3
453.497	1608.7
453.871	1647.12
454.244	1705.87
454.618	1695.7
454.992	1692.99
455.365	1725.08
455.739	1756.49
456.112	1770.5
456.486	1819.77
456.859	1832.42
457.232	1829.94
457.606	1879.2
457.979	1884.85
458.352	1899.54
458.725	1922.59
459.099	1932.53
459.472	1945.19
459.845	2007.11
460.218	2029.93
460.591	2060.44
460.964	2047.11
461.337	2095.47
461.71	2131.4
462.083	2121.91
462.456	2157.84
462.829	2132.75
463.201	2154.45
463.574	2169.36
463.947	2214.11
464.32	2242.58
464.692	2276.93
465.065	2300.21
465.438	2338.4
465.81	2339.75
466.183	2356.7
466.555	2440.32
466.928	2440.32
467.3	2393.54
467.672	2470.6
468.045	2501.78
468.417	2523.25
468.789	2532.07
469.161	2570.26
469.534	2592.63
469.906	2650.93
470.278	2632.63
470.65	2716.02
471.022	2784.71
471.394	2807.31
471.766	2830.59
472.138	2833.08
472.51	2900.87
472.882	2956.91
473.253	2990.13
473.625	3000.75
473.997	3102.9
474.369	3090.7
474.74	3143.8
475.112	3249.56
475.484	3313.29
475.855	3323.01
476.227	3347.86
476.598	3425.6
476.97	3489.33
477.341	3497.24
477.713	3612.04
478.084	3610.91
478.455	3725.26
478.827	3750.11
479.198	3871.69
479.569	3872.37
479.94	3991.69
480.311	4064.23
480.682	4142.42
481.053	4242.98
481.424	4325.24
481.795	4332.24
482.166	4425.8
482.537	4522.3
482.908	4614.95
483.279	4724.32
483.65	4807.94
484.021	4845.45
484.391	4995.96
484.762	5032.11
485.133	5092.45
485.503	5243.18
485.874	5386.91
486.244	5443.18
486.615	5588.48
486.985	5631.87
487.356	5832.77
487.726	5946.89
488.097	6115.47
488.467	6100.33
488.837	6277.73
489.207	6423.49
489.578	6594.56
489.948	6686.08
490.318	6856.25
490.688	6913.87
491.058	7115.67
491.428	7319.06
491.798	7376.68
492.168	7576.45
492.538	7674.98
492.908	7903.22
493.278	8096.89
493.648	8204.23
494.017	8380.05
494.387	8542.3
494.757	8725.8
495.126	8870.88
495.496	9023.19
495.866	9232
496.235	9403.75
496.605	9559.68
496.974	9726.91
497.344	10014.58
497.713	10182.71
498.082	10281.69
498.452	10594.91
498.821	10758.06
499.19	10871.96
499.559	11161.44
499.928	11353.98
500.298	11619.96
500.667	11831.93
501.036	12017.47
501.405	12225.6
501.774	12416.55
502.143	12636.21
502.512	12847.05
502.88	13175.85
503.249	13371.1
503.618	13574.94
503.987	13747.59
504.356	14040.92
504.724	14224.87
505.093	14457.18
505.462	14698.3
505.83	14902.14
506.199	15183.26
506.567	15545.06
506.936	15646.3
507.304	15968.1
507.672	16225.94
508.041	16381.42
508.409	16608.08
508.777	16932.82
509.145	17223.66
509.514	17347.04
509.882	17614.38
510.25	17761.04
510.618	18082.84
510.986	18259.56
511.354	18621.59
511.722	18805.31
512.09	19112.42
512.458	19179.31
512.826	19473.99
513.193	19655.23
513.561	19857.49
513.929	20120.98
514.297	20411.14
514.664	20552.61
515.032	20880.74
515.4	21260.39
515.767	21334.51
516.135	21525.69
516.502	21535.86
516.869	21981.95
517.237	22186.01
517.604	22118.9
517.972	22599.79
518.339	22710.52
518.706	22970.4
519.073	23070.51
519.44	23322.93
519.808	23652.64
520.175	23826.42
520.542	24063.25
520.909	24262.79
521.276	24527.87
521.643	24848.09
522.009	25000.4
522.376	25324.91
522.743	25363.1
523.11	25798.35
523.477	26004.44
523.843	26114.72
524.21	26529.18
524.577	26818.21
524.943	26914.93
525.31	27182.72
525.676	27615.7
526.043	27715.13
526.409	27829.71
526.776	28376.36
527.142	28397.37
527.508	28549.46
527.874	28904.03
528.241	29191.03
528.607	29349.89
528.973	29625.59
529.339	29527.06
529.705	30096.77
530.071	30295.86
530.437	30443.87
530.803	30755.28
531.169	30849.29
531.535	30982.62
531.901	31258.99
532.267	31319.56
532.632	31567.01
532.998	31835.48
533.364	32015.58
533.73	32157.28
534.095	32393.2
534.461	32464.61
534.826	32727.88
535.192	32776.92
535.557	33193.63
535.923	33131.71
536.288	33360.63
536.653	33429.33
537.019	33525.83
537.384	33688.99
537.749	33812.83
538.114	33824.8
538.479	34019.83
538.845	34079.71
539.21	34153.16
539.575	34412.36
539.94	34343.89
540.305	34795.85
540.67	34744.1
541.034	34930.54
541.399	35009.86
541.764	35063.19
542.129	35242.62
542.494	35359.45
542.858	35620.24
543.223	35396.74
543.587	35656.62
543.952	35755.83
544.316	35949.72
544.681	35955.59
545.045	36187.23
545.41	36313.55
545.774	36275.13
546.138	36293.21
546.503	36440.78
546.867	36561.23
547.231	36646.2
547.595	37023.14
547.959	37060.2
548.324	37088.45
548.688	37219.06
549.052	37421.54
549.416	37403.24
549.779	37485.27
550.143	37706.06
550.507	37939.72
550.871	38012.94
551.235	37959.84
551.599	38380.84
551.962	38551.01
552.326	38567.5
552.689	38644.34
553.053	38549.42
553.417	38834.39
553.78	39252
554.143	39160.93
554.507	39218.79
554.87	39472.56
555.234	39695.83
555.597	39548.27
555.96	39724.31
556.323	39991.65
556.686	39983.06
557.05	40453.1
557.413	40463.95
557.776	40596.6
558.139	40831.85
558.502	40873.2
558.865	40872.98
559.228	41308.67
559.59	41284.95
559.953	41464.6
560.316	41916.57
560.679	41748.66
561.041	42261.42
561.404	42420.96
561.767	42688.07
562.129	42596.55
562.492	42969.2
562.854	42956.31
563.217	43026.14
563.579	43222.97
563.941	43509.52
564.304	43685.11
564.666	43995.83
565.028	44024.99
565.39	44162.16
565.753	44405.99
566.115	44523.73
566.477	44748.58
566.839	44809.15
567.201	45252.75
567.563	45285.74
567.925	45604.38
568.287	45568.22
568.648	45650.03
569.01	45912.62
569.372	46303.12
569.734	46174.08
570.095	46494.53
570.457	46860.84
570.819	46763.9
571.18	46797.79
571.542	47159.82
571.903	47127.05
572.265	47406.37
572.626	47682.52
572.987	47647.04
573.349	47953.02
573.71	48009.51
574.071	48149.17
574.432	48518.88
574.794	48778.08
575.155	48719.78
575.516	48764.75
575.877	49015.14
576.238	49056.94
576.599	49369.7
576.96	49308.69
577.32	49496.26
577.681	49632.52
578.042	49871.16
578.403	50004.26
578.763	50011.04
579.124	50073.42
579.485	50573.97
579.845	50554.98
580.206	50569.9
580.566	50700.52
580.927	50816.22
581.287	50987.52
581.648	51035.42
582.008	51371.46
582.368	51386.83
582.728	51452.59
583.089	51490.55
583.449	51652.58
583.809	51792.92
584.169	51895.74
584.529	51966.47
584.889	52314.03
585.249	52155.17
585.609	52218.22
585.969	52545.44
586.329	52448.04
586.688	52739.33
587.048	52844.19
587.408	52976.16
587.768	52956.73
588.127	53156.95
588.487	53257.96
588.846	53582.02
589.206	53340.67
589.565	53459.54
589.925	53812.3
590.284	53813.66
590.643	53964.39
591.003	54047.32
591.362	54309.69
591.721	54367.99
592.08	54399.85
592.44	54685.95
592.799	54588.55
593.158	54761.65
593.517	54804.14
593.876	54961.42
594.235	55004.36
594.593	55176.56
594.952	55307.18
595.311	55321.41
595.67	55472.14
596.029	55686.37
596.387	55776.99
596.746	56016.54
597.104	55906.71
597.463	55989.64
597.822	56242.97
598.18	56247.49
598.538	56293.82
598.897	56538.33
599.255	56395.28
599.613	56895.83
599.972	56783.3
600.33	56924.08
600.688	56914.37
601.046	57020.35
601.404	57312.32
601.762	57228.48
602.12	57374.47
602.478	57459.89
602.836	57558.42
603.194	57409.49
603.552	57709.82
603.91	57706.66
604.268	57834.11
604.625	57835.7
604.983	58016.03
605.341	57980.33
605.698	58183.48
606.056	58389.13
606.413	58315.91
606.771	58555.68
607.128	58557.71
607.485	58567.2
607.843	58641.78
608.2	58736.69
608.557	58923.35
608.914	58878.38
609.272	59076.12
609.629	59166.96
609.986	59213.29
610.343	59227.3
610.7	59453.51
611.057	59427.97
611.414	59460.29
611.771	59642.88
612.127	59686.04
612.484	59735.76
612.841	59846.94
613.198	59775.98
613.554	59803.1
613.911	60020.05
614.267	60036.77
614.624	60020.95
614.98	60159.93
615.337	60357.44
615.693	60268.18
616.05	60388.62
616.406	60480.82
616.762	60428.62
617.118	60475.4
617.475	60526.02
617.831	60645.34
618.187	60714.27
618.543	60755.62
618.899	60898.89
619.255	60826.35
619.611	60804.43
619.967	61006.91
620.323	61079.91
620.678	61012.56
621.034	60944.99
621.39	61019.57
621.746	61077.87
622.101	61311.99
622.457	61156.51
622.812	61326.23
623.168	61326.23
623.523	61295.27
623.879	61379.78
624.234	61256.4
624.589	61305.66
624.945	61415.04
625.3	61375.72
625.655	61423.4
626.01	61480.8
626.365	61482.38
626.72	61414.59
627.075	61423.17
627.43	61438.09
627.785	61479.67
628.14	61471.08
628.495	61483.96
628.85	61588.14
629.205	61516.96
629.559	61624.98
629.914	61504.98
630.269	61585.43
630.623	61467.24
630.978	61468.14
631.332	61592.66
631.687	61598.31
632.041	61510.63
632.396	61518.09
632.75	61482.83
633.104	61537.97
633.459	61419.78
633.813	61352.44
634.167	61427.24
634.521	61375.04
634.875	61382.27
635.229	61310.18
635.583	61263.63
635.937	61249.17
636.291	61253.91
636.645	61203.07
636.999	61179.34
637.352	61260.47
637.706	61109.96
638.06	61220.01
638.413	61142.5
638.767	61053.24
639.121	61134.82
639.474	61033.13
639.828	61008.27
640.181	60884.43
640.534	61017.99
640.888	60933.92
641.241	60798.78
641.594	60935.28
641.947	60955.84
642.301	60780.03
642.654	60848.72
643.007	60752.46
643.36	60877.88
643.713	60772.57
644.066	60833.13
644.419	60752
644.771	60503.65
645.124	60213.94
645.477	60188.86
645.83	60042.87
646.182	60058.69
646.535	59951.35
646.888	60075.64
647.24	60007.17
647.593	60095.07
647.945	60006.26
648.298	59925.13
648.65	59822.99
649.002	59686.04
649.355	59712.48
649.707	59636.78
650.059	59677
650.411	59952.7
650.763	60051.91
651.115	60354.05
651.467	60301.62
651.819	60344.11
652.171	60270.89
652.523	60143.21
652.875	60172.58
653.227	60142.3
653.578	60315.63
653.93	60172.81
654.282	60023.21
654.633	59996.09
654.985	60067.73
655.337	60099.37
655.688	60042.19
656.039	60083.32
656.391	59858.92
656.742	59952.25
657.094	59928.75
657.445	59913.16
657.796	59930.33
658.147	59794.06
658.498	59926.94
658.849	59905.47
659.2	59816.89
659.551	59782.76
659.902	59890.56
660.253	59695.99
660.604	59847.4
660.955	59678.36
661.306	59796.78
661.656	59684.24
662.007	59671.13
662.358	59639.27
662.708	59700.96
663.059	59639.04
663.409	59534.86
663.76	59683.78
664.11	59630.23
664.461	59706.61
664.811	59613.96
665.161	59636.1
665.511	59623.67
665.862	59593.62
666.212	59634.97
666.562	59596.33
666.912	59538.7
667.262	59544.8
667.612	59469.78
667.962	59526.05
668.312	59476.11
668.662	59610.11
669.011	59571.47
669.361	59482.43
669.711	59560.17
670.06	59469.55
670.41	59416.9
670.76	59418.71
671.109	59517.23
671.459	59431.81
671.808	59441.08
672.157	59530.34
672.507	59329.44
672.856	59335.54
673.205	59402.21
673.554	59452.15
673.904	59387.75
674.253	59554.97
674.602	59355.2
674.951	59145.49
675.3	58989.79
675.649	59391.14
675.998	59359.5
676.346	59351.14
676.695	59393.62
677.044	59227.52
677.393	59354.3
677.741	59398.14
678.09	59290.8
678.438	59190.92
678.787	59218.71
679.135	59237.47
679.484	59129.67
679.832	59223
680.181	59073.63
680.529	59174.42
680.877	59102.1
681.225	59128.77
681.573	59243.12
681.922	59112.73
682.27	59048.77
682.618	59015.55
682.966	58924.93
683.314	59027.98
683.661	58956.12
684.009	58861.21
684.357	58849
684.705	58774.2
685.053	58781.43
685.4	58761.55
685.748	58656.24
686.095	58683.13
686.443	58573.53
686.79	58583.02
687.138	58593.64
687.485	58547.09
687.832	58482.01
688.18	58520.2
688.527	58405.63
688.874	58457.38
689.221	58400.43
689.568	58309.81
689.915	58269.36
690.262	58251.96
690.609	58224.39
690.956	58134.22
691.303	58161.56
691.65	58002.7
691.997	57997.73
692.344	57847.45
692.69	57838.41
693.037	57871.85
693.383	57612.65
693.73	57709.15
694.077	57610.39
694.423	57613.56
694.769	57520
695.116	57518.87
695.462	57385.99
695.808	57308.25
696.155	57385.31
696.501	57162.72
696.847	57219.44
697.193	57017.41
697.539	57150.74
697.885	56989.62
698.231	56886.8
698.577	56850.64
698.923	56879.11
699.269	56724.77
699.614	56574.04
699.96	56583.53
700.306	56587.82
700.651	56477.54
700.997	56412.46
701.342	56347.6
701.688	56219.02
702.033	56262.18
702.379	56127.72
702.724	56063.54
703.069	56159.36
703.415	55831.23
703.76	55867.39
704.105	55906.48
704.45	55800.04
704.795	55729.31
705.14	55612.03
705.485	55590.33
705.83	55409.32
706.175	55557.56
706.52	55384.69
706.865	55308.76
707.209	55210
707.554	55193.28
707.899	55170.68
708.243	55065.6
708.588	55004.58
708.932	54887.07
709.277	54888.2
709.621	54798.04
709.966	54725.72
710.31	54676.68
710.654	54504.71
710.998	54553.75
711.342	54606.18
711.687	54469.01
712.031	54382.45
712.375	54311.72
712.719	54206.87
713.063	54170.03
713.407	54329.57
713.75	54191.05
714.094	54068.79
714.438	53939.75
714.782	54030.83
715.125	53854.33
715.469	54020.66
715.812	53669.48
716.156	53649.14
716.499	53698.86
716.843	53631.97
717.186	53445.53
717.53	53616.82
717.873	53667.9
718.216	53481.24
718.559	53439.88
718.902	53121.47
719.246	53273.78
719.589	53053.68
719.932	52985.2
720.275	52993.11
720.617	52979.1
720.96	52908.82
721.303	52873.79
721.646	52935.26
721.989	52596.96
722.331	52849.16
722.674	52709.96
723.016	52703.85
723.359	52527.36
723.701	52512.67
724.044	52522.16
724.386	52363.52
724.729	52491.66
725.071	52374.15
725.413	52297.31
725.755	52312.45
726.097	52153.59
726.439	52108.62
726.782	52192.23
727.124	52262.96
727.465	52108.39
727.807	51908.4
728.149	51939.58
728.491	51830.66
728.833	51978.9
729.175	51865.46
729.516	51734.84
729.858	51703.43
730.199	51794.27
730.541	51731.9
730.882	51595.63
731.224	51589.99
731.565	51510.67
731.906	51561.06
732.248	51578.23
732.589	51357.68
732.93	51296.66
733.271	51353.16
733.612	51306.38
733.953	51358.13
734.294	51191.13
734.635	51015.31
734.976	51280.39
735.317	51149.09
735.658	50968.08
735.999	50829.33
736.339	50806.96
736.68	50975.99
737.021	50893.73
737.361	50681.99
737.702	50918.36
738.042	50651.25
738.383	50741.65
738.723	50791.59
739.063	50577.13
739.404	50656.22
739.744	50501.43
740.084	50446.06
740.424	50522.22
740.764	50458.94
741.104	50515.21
741.444	50230.25
741.784	50208.78
742.124	50292.17
742.464	50190.93
742.804	50132.62
743.143	49995
743.483	50063.47
743.823	49849.24
744.162	49928.11
744.502	49924.04
744.841	49749.58
745.181	49894.66
745.52	49740.99
745.86	49875
746.199	49691.73
746.538	49676.59
746.877	49717.72
747.216	49715.91
747.556	49451.06
747.895	49445.41
748.234	49359.76
748.573	49275.24
748.911	49347.11
749.25	49254.68
749.589	49034.57
749.928	49091.75
750.267	49237.5
750.605	49003.84
750.944	48946.66
751.283	48901.92
751.621	48984.18
751.96	48872.32
752.298	48780.57
752.636	48638.88
752.975	48630.29
753.313	48474.59
753.651	48510.52
753.989	48190.3
754.327	48448.15
754.666	48035.73
755.004	48178.78
755.342	48120.25
