Data from 14-0852_FLMS001491_001.txt Node
Date: Thu Apr 12 17:06:58 BST 2018
User: hsy
Spectrometer: FLMS00149
Trigger mode: 0
Integration Time (sec): 1.000000E-2
Scans to average: 10
Electric dark correction enabled: true
Nonlinearity correction enabled: false
Boxcar width: 0
XAxis mode: Wavelengths
Number of Pixels in Spectrum: 2048
>>>>>Begin Spectral Data<<<<<
341.393	-26.78
341.776	-26.78
342.16	-26.78
342.543	-46.44
342.927	-69.94
343.31	-76.72
343.693	-75.59
344.077	-69.26
344.46	-58.64
344.843	-68.59
345.226	-43.95
345.61	-19.55
345.993	-11.86
346.376	10.06
346.759	7.12
347.142	17.29
347.525	50.28
347.908	50.73
348.291	64.74
348.674	104.97
349.057	118.98
349.44	106.78
349.823	115.59
350.206	164.18
350.588	238.52
350.971	253.44
351.354	272.87
351.737	275.13
352.119	292.31
352.502	289.14
352.884	311.07
353.267	298.64
353.65	348.13
354.032	347.45
354.414	361.91
354.797	364.17
355.179	363.95
355.562	386.32
355.944	367.56
356.326	368.24
356.709	375.24
357.091	391.97
357.473	410.5
357.855	397.84
358.238	403.94
358.62	398.29
359.002	384.96
359.384	384.28
359.766	390.39
360.148	387.9
360.53	388.35
360.912	400.1
361.294	398.52
361.676	383.83
362.057	363.27
362.439	397.62
362.821	359.88
363.203	369.14
363.584	383.15
363.966	413.21
364.348	378.63
364.729	381.8
365.111	365.08
365.493	369.37
365.874	396.71
366.256	379.31
366.637	348.35
367.019	368.01
367.4	373.21
367.781	369.14
368.163	379.99
368.544	392.65
368.925	380.22
369.306	385.41
369.688	406.66
370.069	377.05
370.45	356.94
370.831	379.31
371.212	376.15
371.593	371.18
371.974	368.01
372.355	391.06
372.736	388.35
373.117	377.96
373.498	385.41
373.879	394
374.26	386.54
374.641	364.62
375.021	389.93
375.402	389.03
375.783	410.27
376.163	403.72
376.544	383.15
376.925	406.88
377.305	404.4
377.686	384.74
378.066	420.89
378.447	401.01
378.827	419.09
379.208	432.87
379.588	407.79
379.968	414.79
380.349	421.34
380.729	432.19
381.109	416.37
381.489	424.96
381.87	409.82
382.25	438.29
382.63	424.96
383.01	412.76
383.39	419.09
383.77	465.86
384.15	429.03
384.53	458.63
384.91	434.9
385.29	448.24
385.67	451.4
386.049	465.41
386.429	480.55
386.809	458.63
387.189	463.38
387.568	474
387.948	479.65
388.328	447.78
388.707	451.4
389.087	456.15
389.466	487.11
389.846	486.43
390.225	497.5
390.605	487.11
390.984	472.42
391.363	484.85
391.743	501.57
392.122	513.77
392.501	507.22
392.881	524.62
393.26	505.64
393.639	490.27
394.018	493.66
394.397	529.59
394.776	526.88
395.155	522.13
395.534	513.77
395.913	542.25
396.292	534.56
396.671	539.99
397.05	542.92
397.429	530.27
397.808	533.43
398.186	534.56
398.565	554
398.944	523.49
399.323	549.25
399.701	565.07
400.08	577.27
400.458	569.36
400.837	568.91
401.215	575.47
401.594	577.72
401.972	571.62
402.351	549.48
402.729	587.22
403.107	572.3
403.486	608.46
403.864	587.22
404.242	619.76
404.62	601.45
404.999	606.2
405.377	626.31
405.755	628.57
406.133	629.47
406.511	635.35
406.889	660.21
407.267	647.78
407.645	638.51
408.023	657.95
408.401	676.71
408.779	646.65
409.156	649.81
409.534	670.38
409.912	691.39
410.29	721.45
410.667	712.18
411.045	681.68
411.422	690.04
411.8	717.61
412.178	721
412.555	721.9
412.933	746.99
413.31	765.29
413.687	747.89
414.065	759.87
414.442	769.58
414.819	755.8
415.197	752.18
415.574	770.04
415.951	802.8
416.328	800.54
416.705	805.06
417.082	806.42
417.46	813.2
417.837	818.17
418.214	829.47
418.591	826.98
418.967	808
419.344	822.92
419.721	857.72
420.098	837.15
420.475	832.63
420.852	872.18
421.228	851.62
421.605	872.41
421.982	889.36
422.358	887.1
422.735	902.91
423.111	899.75
423.488	899.52
423.864	885.51
424.241	904.95
424.617	935.68
424.994	936.81
425.37	912.18
425.746	933.87
426.123	932.97
426.499	938.39
426.875	969.35
427.251	967.09
427.627	997.37
428.003	1010.26
428.379	993.31
428.756	1023.59
429.132	1014.32
429.507	1030.59
429.883	1055.45
430.259	1055
430.635	1060.65
431.011	1090.48
431.387	1065.85
431.763	1113.98
432.138	1136.13
432.514	1116.24
432.89	1102.46
433.265	1160.08
433.641	1166.64
434.016	1179.29
434.392	1193.53
434.767	1195.56
435.143	1173.64
435.518	1236.46
435.894	1236.01
436.269	1231.49
436.644	1239.85
437.02	1241.66
437.395	1229.46
437.77	1267.2
438.145	1275.33
438.52	1275.56
438.895	1318.27
439.271	1283.92
439.646	1298.16
440.021	1325.28
440.395	1341.55
440.77	1319.17
441.145	1349.46
441.52	1392.62
441.895	1365.27
442.27	1378.16
442.645	1388.1
443.019	1406.63
443.394	1383.81
443.769	1389.45
444.143	1392.39
444.518	1422
444.892	1424.03
445.267	1435.33
445.641	1435.33
446.016	1462
446.39	1465.61
446.764	1442.33
447.139	1450.47
447.513	1492.96
447.887	1487.08
448.262	1497.7
448.636	1528.89
449.01	1536.12
449.384	1519.85
449.758	1574.76
450.132	1557.13
450.506	1585.38
450.88	1560.75
451.254	1598.94
451.628	1618.83
452.002	1639.84
452.376	1612.95
452.75	1634.19
453.123	1653.18
453.497	1691.82
453.871	1721.42
454.244	1739.28
454.618	1730.69
454.992	1720.97
455.365	1765.26
455.739	1804.59
456.112	1810.23
456.486	1846.62
456.859	1858.82
457.232	1877.35
457.606	1868.99
457.979	1875.09
458.352	1960.51
458.725	1932.27
459.099	1970.23
459.472	1989.89
459.845	2054.3
460.218	2033.96
460.591	2081.87
460.964	2093.17
461.337	2131.36
461.71	2151.69
462.083	2211.13
462.456	2226.72
462.829	2210.22
463.201	2233.27
463.574	2219.04
463.947	2290.9
464.32	2317.57
464.692	2315.08
465.065	2336.32
465.438	2391.24
465.81	2407.06
466.183	2426.72
466.555	2442.99
466.928	2508.97
467.3	2478.92
467.672	2498.58
468.045	2592.14
468.417	2575.41
468.789	2625.35
469.161	2651.34
469.534	2647.05
469.906	2736.99
470.278	2717.33
470.65	2805.01
471.022	2840.04
471.394	2892.69
471.766	2855.63
472.138	2924.1
472.51	2977.44
472.882	3033.48
473.253	3077.77
473.625	3120.03
473.997	3146.92
474.369	3164.32
474.74	3231.44
475.112	3271.21
475.484	3338.56
475.855	3392.11
476.227	3447.25
476.598	3494.03
476.97	3566.8
477.341	3617.64
477.713	3684.31
478.084	3691.32
478.455	3841.37
478.827	3824.42
479.198	3957.07
479.569	3976.05
479.94	4106.67
480.311	4116.16
480.682	4249.72
481.053	4316.16
481.424	4380.11
481.795	4493.33
482.166	4538.75
482.537	4640.22
482.908	4717.05
483.279	4818.52
483.65	4861.68
484.021	4986.42
484.391	5078.62
484.762	5156.59
485.133	5218.28
485.503	5342.8
485.874	5419.63
486.244	5531.04
486.615	5626.63
486.985	5732.39
487.356	5908.21
487.726	5989.56
488.097	6133.51
488.467	6246.73
488.837	6418.25
489.207	6559.71
489.578	6611.01
489.948	6775.08
490.318	6938.46
490.688	6953.83
491.058	7213.48
491.428	7329.19
491.798	7478.79
492.168	7666.8
492.538	7845.1
492.908	7980.69
493.278	8170.75
493.648	8206.22
494.017	8354.7
494.387	8556.72
494.757	8738.87
495.126	8844.63
495.496	9025.64
495.866	9218.85
496.235	9412.52
496.605	9651.84
496.974	9785.39
497.344	10017.93
497.713	10146.29
498.082	10291.14
498.452	10542.21
498.821	10725.93
499.19	10890.67
499.559	11027.39
499.928	11292.25
500.298	11500.38
500.667	11772.23
501.036	11877.99
501.405	12124.54
501.774	12323.4
502.143	12561.36
502.512	12775.82
502.88	13053.1
503.249	13228.24
503.618	13503.71
503.987	13686.08
504.356	13907.77
504.724	14106.63
505.093	14347.53
505.462	14562.67
505.83	14728.31
506.199	15019.83
506.567	15399.93
506.936	15436.77
507.304	15831.34
507.672	16130.08
508.041	16203.53
508.409	16537.98
508.777	16695.27
509.145	16958.31
509.514	17158.53
509.882	17391.52
510.25	17540.89
510.618	17876.71
510.986	18070.82
511.354	18292.29
511.722	18648.89
512.09	18850.01
512.458	18869.9
512.826	19326.61
513.193	19486.83
513.561	19737.45
513.929	19885.01
514.297	20145.35
514.664	20434.6
515.032	20552.57
515.4	21019
515.767	21094.02
516.135	21340.34
516.502	21185.32
516.869	21670.73
517.237	21883.38
517.604	21962.47
517.972	22400.2
518.339	22470.93
518.706	22789.12
519.073	22884.48
519.44	23105.27
519.808	23455.54
520.175	23567.4
520.542	23832.71
520.909	24137.56
521.276	24121.06
521.643	24594.49
522.009	24825
522.376	25080.13
522.743	25210.07
523.11	25542.04
523.477	25909.94
523.843	25993.1
524.21	26363.71
524.577	26513.77
524.943	26807.54
525.31	26974.54
525.676	27226.29
526.043	27566.39
526.409	27738.14
526.776	27980.85
527.142	27993.73
527.508	28368.41
527.874	28653.14
528.241	28736.98
528.607	28910.77
528.973	29244.09
529.339	29513.91
529.705	29818.76
530.071	30109.15
530.437	30206.78
530.803	30477.5
531.169	30626.43
531.535	30707.55
531.901	30920.66
532.267	31134.21
532.632	31338.05
532.998	31385.05
533.364	31751.82
533.73	31816.45
534.095	32068.87
534.461	32261.19
534.826	32378.24
535.192	32636.77
535.557	32774.62
535.923	32857.78
536.288	33102.75
536.653	33195.62
537.019	33125.34
537.384	33353.81
537.749	33454.6
538.114	33626.8
538.479	33804.87
538.845	33898.66
539.21	33896.4
539.575	34169.61
539.94	34296.84
540.305	34507
540.67	34396.5
541.034	34805.3
541.399	34802.59
541.764	34942.7
542.129	35017.05
542.494	35238.06
542.858	35355.57
543.223	35213.88
543.587	35469.91
543.952	35494.32
544.316	35780.87
544.681	35577.71
545.045	36009.11
545.41	36105.6
545.774	36148.32
546.138	36178.82
546.503	36302.89
546.867	36478.02
547.231	36625.82
547.595	36678.92
547.959	36825.81
548.324	36880.5
548.688	36972.7
549.052	37185.12
549.416	37107.84
549.779	37262.64
550.143	37401.84
550.507	37695.17
550.871	37937.42
551.235	37857.42
551.599	38266.23
551.962	38284.3
552.326	38422.83
552.689	38515.03
553.053	38289.28
553.417	38564.75
553.78	38985.08
554.143	39005.42
554.507	39141
554.87	39222.81
555.234	39581.45
555.597	39313.43
555.96	39593.87
556.323	39769.24
556.686	39991.83
557.05	40155.44
557.413	40043.81
557.776	40197.25
558.139	40556.11
558.502	40649.67
558.865	40771.92
559.228	41132.59
559.59	41170.78
559.953	41149.99
560.316	41794.27
560.679	41689.64
561.041	41875.62
561.404	42149.06
561.767	42549.95
562.129	42377.53
562.492	42637.64
562.854	42745.66
563.217	42808.7
563.579	42956.05
563.941	43255.92
564.304	43487.56
564.666	43578.18
565.028	43664.73
565.39	43885.74
565.753	44095.45
566.115	44141.1
566.477	44466.97
566.839	44633.29
567.201	44941.98
567.563	44788.09
567.925	45165.25
568.287	45237.34
568.648	45411.8
569.01	45564.79
569.372	46020.6
569.734	45872.13
570.095	46120.71
570.457	46356.41
570.819	46522.28
571.18	46609.51
571.542	46958.2
571.903	47020.35
572.265	47232.32
572.626	47445.87
572.987	47449.94
573.349	47613.32
573.71	47873.43
574.071	48108.68
574.432	48270.48
574.794	48552.51
575.155	48580.98
575.516	48540.08
575.877	48713.86
576.238	48822.11
576.599	49018.03
576.96	49141.87
577.32	49348.42
577.681	49366.72
578.042	49714.96
578.403	49717.22
578.763	49822.76
579.124	50002.64
579.485	50275.18
579.845	50357.66
580.206	50371.22
580.566	50502.29
580.927	50601.95
581.287	50805.56
581.648	50866.57
582.008	51077.87
582.368	51069.5
582.728	51138.43
583.089	51356.05
583.449	51396.95
583.809	51563.5
584.169	51799.2
584.529	51680.34
584.889	52098.63
585.249	52003.04
585.609	51925.75
585.969	52348.57
586.329	52311.51
586.688	52436.7
587.048	52515.12
587.408	52739.74
587.768	52688.67
588.127	52840.98
588.487	52946.74
588.846	53309.22
589.206	53158.49
589.565	53320.29
589.925	53584.24
590.284	53558.93
590.643	53668.98
591.003	53906.72
591.362	54096.54
591.721	54092.93
592.08	54209.54
592.44	54386.03
592.799	54412.24
593.158	54509.87
593.517	54586.25
593.876	54797.32
594.235	54837.32
594.593	54900.59
594.952	55061.49
595.311	55117.53
595.67	55310.07
596.029	55459.45
596.387	55646.11
596.746	55726.56
597.104	55668.03
597.463	55785.09
597.822	56013.78
598.18	55952.09
598.538	56086.55
598.897	56336.94
599.255	56274.11
599.613	56618.74
599.972	56542.81
600.33	56720.66
600.688	56662.8
601.046	56831.39
601.404	57060.76
601.762	57135.79
602.12	57235.9
602.478	57267.53
602.836	57330.36
603.194	57234.77
603.552	57367.64
603.91	57488.54
604.268	57590.24
604.625	57717.24
604.983	57847.41
605.341	57772.38
605.698	58061.64
606.056	58185.93
606.413	58101.18
606.771	58382.76
607.128	58339.14
607.485	58354.06
607.843	58375.75
608.2	58578.01
608.557	58643.77
608.914	58680.83
609.272	58902.29
609.629	59037.88
609.986	59051.22
610.343	59063.64
610.7	59313.58
611.057	59304.09
611.414	59233.13
611.771	59429.96
612.127	59518.32
612.484	59556.74
612.841	59722.38
613.198	59608.04
613.554	59647.81
613.911	59816.85
614.267	59936.84
614.624	59916.05
614.98	60033.79
615.337	60162.37
615.693	60142.94
616.05	60176.84
616.406	60304.06
616.762	60309.49
617.118	60313.78
617.475	60308.58
617.831	60542.48
618.187	60579.76
618.543	60586.99
618.899	60688.91
619.255	60715.8
619.611	60625.19
619.967	60862.69
620.323	60925.06
620.678	60783.6
621.034	60904.95
621.39	60863.82
621.746	60850.94
622.101	61147.66
622.457	61026.98
622.812	61158.73
623.168	61133.87
623.523	61127.09
623.879	61201.89
624.234	61123.7
624.589	61196.02
624.945	61287.09
625.3	61256.81
625.655	61286.86
626.01	61309.01
626.365	61382.91
626.72	61337.26
627.075	61293.87
627.43	61294.55
627.785	61320.31
628.14	61310.59
628.495	61324.38
628.85	61369.12
629.205	61284.15
629.559	61473.3
629.914	61351.72
630.269	61441.66
630.623	61308.78
630.978	61265.17
631.332	61360.08
631.687	61412.06
632.041	61360.08
632.396	61345.62
632.75	61294.55
633.104	61356.47
633.459	61262.68
633.813	61200.09
634.167	61198.96
634.521	61279.63
634.875	61294.55
635.229	61220.42
635.583	61073.54
635.937	61073.76
636.291	61093.65
636.645	61081.44
636.999	60979.07
637.352	61075.8
637.706	60933.88
638.06	61113.31
638.413	60953.99
638.767	60862.92
639.121	60972.3
639.474	60833.09
639.828	60808.01
640.181	60811.62
640.534	60843.26
640.888	60788.57
641.241	60686.65
641.594	60721.23
641.947	60781.57
642.301	60640.1
642.654	60730.72
643.007	60655.92
643.36	60765.52
643.713	60654.56
644.066	60704.28
644.419	60535.7
644.771	60292.09
645.124	60042.15
645.477	60059.78
645.83	59921.7
646.182	59920.12
646.535	59845.77
646.888	59957.86
647.24	59784.53
647.593	59977.52
647.945	59830.63
648.298	59742.5
648.65	59636.96
649.002	59513.35
649.355	59549.28
649.707	59478.55
650.059	59442.62
650.411	59837.64
650.763	59844.42
651.115	60236.95
651.467	60101.36
651.819	60137.74
652.171	60032.21
652.523	59937.97
652.875	60009.38
653.227	59856.17
653.578	60103.62
653.93	60038.31
654.282	59918.76
654.633	59859.33
654.985	59896.84
655.337	59898.43
655.688	59827.92
656.039	59959.21
656.391	59681.93
656.742	59745.89
657.094	59725.77
657.445	59804.87
657.796	59707.24
658.147	59682.61
658.498	59749.28
658.849	59742.04
659.2	59695.49
659.551	59584.08
659.902	59710.18
660.253	59537.3
660.604	59703.4
660.955	59541.82
661.306	59693.68
661.656	59507.25
662.007	59510.64
662.358	59495.72
662.708	59501.83
663.059	59440.81
663.409	59403.52
663.76	59476.97
664.11	59451.66
664.461	59491.2
664.811	59494.37
665.161	59465.67
665.511	59376.86
665.862	59526.46
666.212	59556.51
666.562	59493.24
666.912	59428.83
667.262	59397.65
667.612	59388.16
667.962	59489.62
668.312	59302.96
668.662	59486.68
669.011	59450.3
669.361	59327.37
669.711	59438.55
670.06	59321.94
670.41	59238.33
670.76	59271.1
671.109	59414.6
671.459	59354.03
671.808	59279.46
672.157	59304.32
672.507	59131.44
672.856	59161.5
673.205	59217.99
673.554	59242.85
673.904	59213.47
674.253	59398.1
674.602	59198.56
674.951	58870.2
675.3	58807.83
675.649	59232.23
675.998	59251.21
676.346	59175.51
676.695	59246.92
677.044	59125.34
677.393	59150.87
677.741	59184.55
678.09	59125.79
678.438	59055.96
678.787	59048.5
679.135	59103.64
679.484	58894.16
679.832	59024.1
680.181	58957.88
680.529	58952.24
680.877	58927.83
681.225	58878.79
681.573	59042.18
681.922	58841.28
682.27	58847.83
682.618	58843.54
682.966	58716.76
683.314	58798.79
683.661	58767.83
684.009	58643.77
684.357	58603.54
684.705	58542.53
685.053	58609.87
685.4	58467.28
685.748	58461.4
686.095	58481.29
686.443	58309.09
686.79	58355.64
687.138	58380.5
687.485	58340.27
687.832	58275.87
688.18	58392.48
688.527	58140.05
688.874	58167.17
689.221	58180.73
689.568	58131.69
689.915	58014.18
690.262	58061.19
690.609	58013.73
690.956	57937.8
691.303	57975.31
691.65	57822.55
691.997	57854.86
692.344	57690.57
692.69	57651.03
693.037	57740.74
693.383	57507.98
693.73	57600.18
694.077	57451.71
694.423	57404.25
694.769	57375.33
695.116	57349.11
695.462	57263.47
695.808	57163.58
696.155	57243.81
696.501	56973.76
696.847	57118.39
697.193	56965.17
697.539	57060.99
697.885	56782.12
698.231	56781.9
698.577	56754.78
698.923	56738.51
699.269	56560.89
699.614	56477.05
699.96	56484.05
700.306	56501
700.651	56417.84
700.997	56222.82
701.342	56209.93
701.688	56199.54
702.033	56046.32
702.379	56082.93
702.724	55928.59
703.069	55963.16
703.415	55727.24
703.76	55700.8
704.105	55715.26
704.45	55572.44
704.795	55537.86
705.14	55528.6
705.485	55460.8
705.83	55260.35
706.175	55438.43
706.52	55401.82
706.865	55215.84
707.209	55065.56
707.554	54999.8
707.899	55076.86
708.243	54884.55
708.588	54735.4
708.932	54687.49
709.277	54779.24
709.621	54609.98
709.966	54485.01
710.31	54490.66
710.654	54297.89
710.998	54343.54
711.342	54417.21
711.687	54344.67
712.031	54217.22
712.375	54024.23
712.719	54029.88
713.063	53998.69
713.407	54057.9
713.75	53875.53
714.094	53856.1
714.438	53839.83
714.782	53771.81
715.125	53611.13
715.469	53723.22
715.812	53438.03
716.156	53416.11
716.499	53368.43
716.843	53477.58
717.186	53238.71
717.53	53416.11
717.873	53410.46
718.216	53285.27
718.559	53126.4
718.902	52861.77
719.246	53009.57
719.589	52867.2
719.932	52798.05
720.275	52799.4
720.617	52819.74
720.96	52748.78
721.303	52789.91
721.646	52726.18
721.989	52531.39
722.331	52581.1
722.674	52481.44
723.016	52513.08
723.359	52359.64
723.701	52426.08
724.044	52252.3
724.386	52089.36
724.729	52305.86
725.071	52232.64
725.413	52173.43
725.755	52185.41
726.097	52018.63
726.439	51992.42
726.782	51780.9
727.124	52052.76
727.465	51848.69
727.807	51709.94
728.149	51764.63
728.491	51572.09
728.833	51624.07
729.175	51624.97
729.516	51550.85
729.858	51450.06
730.199	51526.67
730.541	51337.29
730.882	51343.4
731.224	51413.22
731.565	51272.89
731.906	51318.99
732.248	51329.38
732.589	51017.75
732.93	51008.49
733.271	51076.51
733.612	50949.96
733.953	51126.68
734.294	50961.48
734.635	50855.95
734.976	51000.35
735.317	50873.35
735.658	50821.6
735.999	50727.82
736.339	50744.54
736.68	50838.1
737.021	50608.05
737.361	50500.48
737.702	50766.46
738.042	50599.23
738.383	50525.34
738.723	50546.13
739.063	50325.8
739.404	50582.29
739.744	50496.64
740.084	50285.12
740.424	50422.74
740.764	50173.93
741.104	50285.34
741.444	50215.97
741.784	49994.05
742.124	50121.28
742.464	50052.81
742.804	49935.07
743.143	49930.1
743.483	49952.25
743.823	49774.17
744.162	49698.47
744.502	49695.08
744.841	49692.37
745.181	49684.46
745.52	49580.96
745.86	49630.45
746.199	49532.6
746.538	49445.59
746.877	49636.32
747.216	49482.88
747.556	49369.66
747.895	49392.26
748.234	49228.2
748.573	49247.41
748.911	49065.26
749.25	49147.3
749.589	48935.32
749.928	49023
750.267	48985.27
750.605	48824.14
750.944	48824.37
751.283	48760.86
751.621	48789.56
751.96	48617.59
752.298	48656.01
752.636	48594.54
752.975	48458.27
753.313	48320.2
753.651	48486.07
753.989	48188.45
754.327	48262.8
754.666	48008.34
755.004	48121.33
