Data from 14-1119_FLMS001491_007.txt Node
Date: Thu Apr 19 16:09:52 BST 2018
User: hsy
Spectrometer: FLMS00149
Trigger mode: 0
Integration Time (sec): 1.000000E-2
Scans to average: 10
Electric dark correction enabled: true
Nonlinearity correction enabled: false
Boxcar width: 0
XAxis mode: Wavelengths
Number of Pixels in Spectrum: 2048
>>>>>Begin Spectral Data<<<<<
341.393	-13.09
341.776	-13.09
342.16	-13.09
342.543	-58.06
342.927	-69.36
343.31	-64.62
343.693	-61.45
344.077	-68.46
344.46	-63.26
344.843	-48.12
345.226	-30.95
345.61	-33.88
345.993	-32.53
346.376	4.08
346.759	-1.34
347.142	29.62
347.525	44.31
347.908	52.44
348.291	61.26
348.674	99.22
349.057	113.68
349.44	138.32
349.823	167.24
350.206	175.6
350.588	234.58
350.971	244.98
351.354	250.85
351.737	280.46
352.119	279.78
352.502	298.54
352.884	320.23
353.267	322.72
353.65	319.78
354.032	325.2
354.414	317.29
354.797	357.97
355.179	342.83
355.562	383.73
355.944	346.9
356.326	355.94
356.709	384.41
357.091	374.24
357.473	382.83
357.855	376.05
358.238	387.8
358.62	403.85
359.002	380.34
359.384	390.74
359.766	372.89
360.148	390.06
360.53	370.85
360.912	368.82
361.294	356.84
361.676	386.22
362.057	376.73
362.439	371.76
362.821	354.13
363.203	364.75
363.584	378.08
363.966	377.63
364.348	379.21
364.729	377.18
365.111	401.36
365.493	367.91
365.874	366.56
366.256	371.08
366.637	361.81
367.019	367.01
367.4	387.35
367.781	356.16
368.163	381.47
368.544	344.86
368.925	329.72
369.306	376.73
369.688	373.79
370.069	361.36
370.45	343.51
370.831	363.62
371.212	371.3
371.593	365.2
371.974	355.49
372.355	371.3
372.736	402.49
373.117	361.36
373.498	371.98
373.879	350.97
374.26	377.41
374.641	367.24
375.021	378.31
375.402	383.05
375.783	400.23
376.163	403.62
376.544	388.03
376.925	379.44
377.305	400.46
377.686	405.88
378.066	398.42
378.447	387.12
378.827	405.43
379.208	397.29
379.588	397.07
379.968	379.89
380.349	400.68
380.729	393.45
381.109	390.96
381.489	396.16
381.87	408.14
382.25	413.34
382.63	388.7
383.01	410.4
383.39	407.69
383.77	446.56
384.15	427.8
384.53	421.92
384.91	423.73
385.29	440.91
385.67	438.19
386.049	438.42
386.429	449.95
386.809	465.54
387.189	455.37
387.568	447.01
387.948	426.44
388.328	468.25
388.707	476.39
389.087	456.27
389.466	468.25
389.846	468.93
390.225	476.39
390.605	481.81
390.984	474.13
391.363	489.27
391.743	480.45
392.122	469.38
392.501	494.01
392.881	501.7
393.26	508.48
393.639	500.57
394.018	505.99
394.397	522.03
394.776	475.71
395.155	506.67
395.534	524.75
395.913	511.64
396.292	510.74
396.671	517.06
397.05	530.4
397.429	526.33
397.808	525.88
398.186	530.17
398.565	529.27
398.944	542.6
399.323	540.11
399.701	564.07
400.08	557.97
400.458	576.27
400.837	576.72
401.215	596.38
401.594	560.45
401.972	580.79
402.351	595.25
402.729	608.59
403.107	594.57
403.486	611.07
403.864	626.66
404.242	619.21
404.62	629.38
404.999	631.64
405.377	620.56
405.755	645.42
406.133	624.18
406.511	650.84
406.889	663.95
407.267	643.39
407.645	664.63
408.023	696.27
408.401	689.49
408.779	690.84
409.156	694.46
409.534	705.31
409.912	723.84
410.29	764.51
410.667	723.16
411.045	752.08
411.422	769.71
411.8	762.25
412.178	773.55
412.555	810.39
412.933	801.35
413.31	821.46
413.687	813.33
414.065	836.15
414.442	828.47
414.819	861.23
415.197	888.8
415.574	860.56
415.951	875.47
416.328	889.93
416.705	902.36
417.082	905.53
417.46	928.58
417.837	934
418.214	953.44
418.591	936.26
418.967	972.64
419.344	963.15
419.721	969.03
420.098	985.75
420.475	984.4
420.852	980.1
421.228	1033.21
421.605	1000.44
421.982	1023.26
422.358	1054.68
422.735	1036.82
423.111	1046.54
423.488	1092.87
423.864	1075.92
424.241	1103.71
424.617	1122.24
424.994	1101.45
425.37	1109.59
425.746	1124.96
426.123	1137.84
426.499	1129.7
426.875	1187.55
427.251	1182.36
427.627	1176.03
428.003	1223.48
428.379	1226.42
428.756	1223.71
429.132	1231.62
429.507	1262.58
429.883	1282.69
430.259	1301.22
430.635	1316.59
431.011	1316.14
431.387	1324.27
431.763	1360.88
432.138	1359.98
432.514	1371.73
432.89	1399.53
433.265	1411.5
433.641	1465.96
434.016	1432.52
434.392	1470.71
434.767	1487.88
435.143	1495.12
435.518	1521.78
435.894	1516.81
436.269	1566.98
436.644	1561.55
437.02	1572.4
437.395	1594.77
437.77	1623.7
438.145	1617.15
438.52	1620.08
438.895	1670.93
439.271	1677.48
439.646	1689.24
440.021	1729.91
440.395	1722.68
440.77	1698.27
441.145	1758.16
441.52	1759.29
441.895	1751.83
442.27	1789.57
442.645	1776.92
443.019	1763.13
443.394	1777.59
443.769	1838.84
444.143	1800.42
444.518	1818.95
444.892	1842
445.267	1844.71
445.641	1844.94
446.016	1895.56
446.39	1883.58
446.764	1896.69
447.139	1912.73
447.513	1948.44
447.887	1927.42
448.262	1933.52
448.636	1957.25
449.01	1996.12
449.384	1969.23
449.758	2001.09
450.132	2018.94
450.506	2045.61
450.88	2043.58
451.254	2034.99
451.628	2098.49
452.002	2103.69
452.376	2131.94
452.75	2148.66
453.123	2161.99
453.497	2203.12
453.871	2177.13
454.244	2248.09
454.618	2279.5
454.992	2310.91
455.365	2309.78
455.739	2345.26
456.112	2355.88
456.486	2403.34
456.859	2399.5
457.232	2432.72
457.606	2462.55
457.979	2490.12
458.352	2503
458.725	2559.72
459.099	2557.01
459.472	2631.81
459.845	2675.42
460.218	2684.92
460.591	2702.32
460.964	2739.15
461.337	2777.57
461.71	2795.87
462.083	2854.4
462.456	2924.23
462.829	2914.51
463.201	2878.36
463.574	2951.8
463.947	2980.73
464.32	3023.66
464.692	3081.74
465.065	3081.29
465.438	3108.41
465.81	3131.46
466.183	3209.87
466.555	3250.1
466.928	3340.72
467.3	3275.18
467.672	3328.51
468.045	3377.78
468.417	3338.01
468.789	3453.71
469.161	3438.79
469.534	3523.31
469.906	3563.08
470.278	3634.04
470.65	3634.72
471.022	3671.33
471.394	3783.64
471.766	3801.72
472.138	3822.29
472.51	3909.52
472.882	3989.51
473.253	3978.67
473.625	4052.79
473.997	4107.7
474.369	4156.74
474.74	4217.3
475.112	4291.2
475.484	4323.52
475.855	4418.88
476.227	4431.76
476.598	4577.29
476.97	4643.73
477.341	4730.96
477.713	4777.97
478.084	4874.24
478.455	4939.32
478.827	5026.77
479.198	5119.88
479.569	5203.72
479.94	5276.71
480.311	5285.07
480.682	5469.7
481.053	5533.88
481.424	5649.81
481.795	5709.92
482.166	5821.33
482.537	5848.22
482.908	6105.39
483.279	6114.43
483.65	6238.27
484.021	6341.77
484.391	6440.75
484.762	6494.31
485.133	6644.36
485.503	6739.5
485.874	6893.17
486.244	7000.73
486.615	7133.61
486.985	7187.62
487.356	7292.93
487.726	7466.71
488.097	7619.47
488.467	7697.89
488.837	7857.43
489.207	7978.79
489.578	8155.51
489.948	8193.25
490.318	8434.37
490.688	8422.62
491.058	8711.42
491.428	8843.62
491.798	8864.64
492.168	9123.62
492.538	9195.03
492.908	9342.14
493.278	9552.31
493.648	9586.88
494.017	9766.09
494.387	9925.18
494.757	10014.89
495.126	10138.05
495.496	10225.28
495.866	10396.35
496.235	10488.78
496.605	10721.31
496.974	10796.57
497.344	10990.69
497.713	11084.47
498.082	11221.19
498.452	11310.68
498.821	11437.23
499.19	11533.27
499.559	11680.16
499.928	11838.57
500.298	12022.07
500.667	12137.55
501.036	12222.97
501.405	12380.25
501.774	12481.72
502.143	12630.87
502.512	12767.36
502.88	12935.04
503.249	12926.45
503.618	13169.16
503.987	13265.43
504.356	13414.58
504.724	13568.92
505.093	13610.05
505.462	13804.4
505.83	13870.84
506.199	14076.48
506.567	14290.49
506.936	14377.94
507.304	14519.86
507.672	14665.39
508.041	14714.88
508.409	14912.62
508.777	15120.75
509.145	15200.97
509.514	15262.44
509.882	15398.93
510.25	15530.91
510.618	15746.94
510.986	15761.18
511.354	15913.49
511.722	16141.74
512.09	16312.58
512.458	16258.34
512.826	16475.97
513.193	16556.41
513.561	16762.96
513.929	16840.93
514.297	17035.72
514.664	17118.66
515.032	17165.89
515.4	17467.35
515.767	17551.19
516.135	17623.96
516.502	17530.17
516.869	17996.83
517.237	18074.57
517.604	17984.85
517.972	18364.28
518.339	18453.54
518.706	18541.22
519.073	18630.94
519.44	18774.21
519.808	19069.34
520.175	19008.1
520.542	19380.07
520.909	19345.04
521.276	19518.6
521.643	19681.3
522.009	19821.87
522.376	20021.63
522.743	20001.97
523.11	20357.22
523.477	20608.51
523.843	20655.97
524.21	20955.85
524.577	20990.87
524.943	21210.98
525.31	21221.83
525.676	21460.92
526.043	21701.82
526.409	21763.51
526.776	22147
527.142	22231.97
527.508	22303.16
527.874	22517.84
528.241	22659.76
528.607	22741.11
528.973	23022.01
529.339	23036.7
529.705	23216.13
530.071	23424.26
530.437	23564.37
530.803	23750.8
531.169	23967.75
531.535	23906.28
531.901	24044.35
532.267	24249.77
532.632	24389.2
532.998	24471.91
533.364	24664.68
533.73	24810.89
534.095	24873.26
534.461	24989.64
534.826	25174.72
535.192	25252.01
535.557	25400.7
535.923	25408.61
536.288	25517.54
536.653	25662.39
537.019	25634.59
537.384	25777.19
537.749	25844.08
538.114	26071.87
538.479	25998.43
538.845	26217.86
539.21	26146.67
539.575	26231.64
539.94	26290.4
540.305	26415.82
540.67	26645.64
541.034	26748.46
541.399	26785.07
541.764	26763.38
542.129	26846.09
542.494	26938.29
542.858	27120.88
543.223	27018.74
543.587	27170.83
543.952	27244.04
544.316	27287.88
544.681	27283.14
545.045	27444.94
545.41	27608.33
545.774	27442.68
546.138	27580.76
546.503	27615.11
546.867	27712.51
547.231	27868.21
547.595	28010.35
547.959	28107.75
548.324	28128.09
548.688	28028.88
549.052	28187.3
549.416	28179.84
549.779	28280.4
550.143	28347.97
550.507	28417.57
550.871	28470.45
551.235	28465.48
551.599	28839.93
551.962	28825.92
552.326	28986.37
552.689	28987.27
553.053	28716.55
553.417	28973.49
553.78	29345.91
554.143	29386.81
554.507	29403.76
554.87	29439.92
555.234	29757.2
555.597	29520.14
555.96	29674.26
556.323	29803.3
556.686	29870.19
557.05	30107.92
557.413	30157.41
557.776	30168.26
558.139	30420.91
558.502	30431.53
558.865	30582.26
559.228	30689.6
559.59	30699.32
559.953	30763.5
560.316	31191.96
560.679	31059.31
561.041	31293.88
561.404	31448.23
561.767	31731.16
562.129	31574.1
562.492	31833.98
562.854	31819.97
563.217	31909.68
563.579	32131.15
563.941	32283.46
564.304	32434.64
564.666	32762.09
565.028	32669.89
565.39	32742.66
565.753	33064.46
566.115	33033.72
566.477	33261.06
566.839	33384.22
567.201	33704.89
567.563	33537.21
567.925	33826.24
568.287	33872.57
568.648	34035.28
569.01	34315.04
569.372	34654.7
569.734	34507.13
570.095	34773.56
570.457	34992.09
570.819	34982.6
571.18	35018.75
571.542	35348.69
571.903	35368.12
572.265	35479.31
572.626	35660.77
572.987	35871.84
573.349	36012.17
573.71	36105.05
574.071	36343.69
574.432	36449.45
574.794	36842.89
575.155	36863.9
575.516	36820.51
575.877	37174.86
576.238	37100.28
576.599	37347.51
576.96	37478.35
577.32	37562.87
577.681	37817.55
578.042	37915.85
578.403	38123.76
578.763	38176.86
579.124	38375.05
579.485	38598.1
579.845	38801.03
580.206	38780.24
580.566	38921.48
580.927	39076.05
581.287	39296.83
581.648	39349.26
582.008	39652.08
582.368	39773.88
582.728	39951.51
583.089	40051.62
583.449	40118.06
583.809	40350.14
584.169	40716.91
584.529	40543.35
584.889	41063.34
585.249	40939.5
585.609	40927.98
585.969	41488.87
586.329	41292.26
586.688	41792.59
587.048	41863.09
587.408	41962.75
587.768	42163.65
588.127	42429.18
588.487	42444.1
588.846	42995.49
589.206	42780.13
589.565	43047.92
589.925	43503.95
590.284	43647.68
590.643	43821.23
591.003	43917.28
591.362	44358.62
591.721	44315.46
592.08	44513.87
592.44	44879.96
592.799	45049.9
593.158	45048.32
593.517	45204.48
593.876	45519.27
594.235	45710.45
594.593	45852.14
594.952	46086.71
595.311	46301.17
595.67	46513.37
596.029	46873.36
596.387	47103.18
596.746	47319.9
597.104	47244.87
597.463	47417.75
597.822	47809.15
598.18	47788.14
598.538	47853.45
598.897	48348.57
599.255	48107.45
599.613	48839.41
599.972	48672.41
600.33	48744.04
600.688	48890.25
601.046	49182.45
601.404	49499.96
601.762	49592.38
602.12	49791.47
602.478	49811.81
602.836	50065.59
603.194	50013.39
603.552	50203.67
603.91	50248.64
604.268	50599.81
604.625	50483.21
604.983	50877.09
605.341	50721.17
605.698	51107.37
606.056	51234.6
606.413	51104.89
606.771	51453.58
607.128	51475.27
607.485	51551.2
607.843	51731.99
608.2	51945.77
608.557	52162.26
608.914	52108.93
609.272	52390.05
609.629	52568.12
609.986	52649.03
610.343	52714.33
610.7	53016.25
611.057	52957.94
611.414	52976.47
611.771	53193.42
612.127	53353.64
612.484	53385.28
612.841	53444.03
613.198	53410.59
613.554	53490.36
613.911	53753.85
614.267	53801.76
614.624	53822.55
614.98	53881.99
615.337	54185.71
615.693	54123.56
616.05	54226.16
616.406	54312.48
616.762	54368.53
617.118	54457.57
617.475	54440.84
617.831	54608.07
618.187	54719.03
618.543	54789.08
618.899	54967.61
619.255	54936.65
619.611	54949.3
619.967	55117.66
620.323	55234.72
620.678	55124.89
621.034	55079.47
621.39	55173.7
621.746	55179.13
622.101	55503.19
622.457	55246.25
622.812	55488.72
623.168	55501.83
623.523	55441.49
623.879	55632.9
624.234	55524.43
624.589	55652.11
624.945	55594.71
625.3	55741.6
625.655	55734.82
626.01	55810.07
626.365	55812.78
626.72	55784.31
627.075	55747.7
627.43	55774.82
627.785	55837.87
628.14	55813.24
628.495	55830.86
628.85	55898.21
629.205	55870.86
629.559	56029.5
629.914	55895.49
630.269	55821.37
630.623	55728.04
630.978	55702.73
631.332	55934.59
631.687	55878.09
632.041	55885.78
632.396	55876.74
632.75	55839.45
633.104	55937.53
633.459	55755.61
633.813	55726.46
634.167	55720.13
634.521	55727.81
634.875	55754.71
635.229	55782.73
635.583	55628.38
635.937	55629.06
636.291	55629.06
636.645	55620.7
636.999	55479.69
637.352	55626.57
637.706	55472.23
638.06	55562.39
638.413	55432
638.767	55386.13
639.121	55499.12
639.474	55364.66
639.828	55308.62
640.181	55273.82
640.534	55365.79
640.888	55283.98
641.241	55165.34
641.594	55216.42
641.947	55275.62
642.301	55107.72
642.654	55225.68
643.007	55125.34
643.36	55213.25
643.713	55078.57
644.066	55180.26
644.419	55061.84
644.771	54722.19
645.124	54538.24
645.477	54484.01
645.83	54381.18
646.182	54312.71
646.535	54270.23
646.888	54235.2
647.24	54222.09
647.593	54365.59
647.945	54312.71
648.298	54159.95
648.65	54083.11
649.002	53973.96
649.355	53991.81
649.707	53894.19
650.059	53874.76
650.411	54208.76
650.763	54420.73
651.115	54745.24
651.467	54573.49
651.819	54652.14
652.171	54618.47
652.523	54432.48
652.875	54495.3
653.227	54359.71
653.578	54542.31
653.93	54451.69
654.282	54364.46
654.633	54378.02
654.985	54371.01
655.337	54393.84
655.688	54309.09
656.039	54420.28
656.391	54188.19
656.742	54246.27
657.094	54239.27
657.445	54312.94
657.796	54280.62
658.147	54157.91
658.498	54225.71
658.849	54234.29
659.2	54191.81
659.551	54079.72
659.902	54272.03
660.253	54107.29
660.604	54180.96
660.955	54013.96
661.306	54200.4
661.656	54054.19
662.007	54058.25
662.358	54019.38
662.708	54079.5
663.059	54076.56
663.409	53910.46
663.76	54058.48
664.11	54045.82
664.461	54028.65
664.811	53982.32
665.161	54045.37
665.511	53919.27
665.862	53969.89
666.212	54002.44
666.562	54023.45
666.912	53993.4
667.262	53823.46
667.612	53813.29
667.962	53937.35
668.312	53871.82
668.662	54031.36
669.011	53946.39
669.361	53837.69
669.711	53905.72
670.06	53794.76
670.41	53764.7
670.76	53734.65
671.109	53851.03
671.459	53857.58
671.808	53718.6
672.157	53888.77
672.507	53682.67
672.856	53776.45
673.205	53747.98
673.554	53805.61
673.904	53625.5
674.253	53919.5
674.602	53761.54
674.951	53359.74
675.3	53266.18
675.649	53759.73
675.998	53735.78
676.346	53653.29
676.695	53767.41
677.044	53594.99
677.393	53600.19
677.741	53810.12
678.09	53580.53
678.438	53493.75
678.787	53575.55
679.135	53613.07
679.484	53386.18
679.832	53558.38
680.181	53437.48
680.529	53527.87
680.877	53294.43
681.225	53298.27
681.573	53550.02
681.922	53350.48
682.27	53203.13
682.618	53268.44
682.966	53163.81
683.314	53158.62
683.661	53216.02
684.009	53035
684.357	52985.51
684.705	52883.14
685.053	53014.67
685.4	52888.12
685.748	52786.2
686.095	52781
686.443	52688.12
686.79	52654.22
687.138	52688.12
687.485	52672.3
687.832	52586.65
688.18	52631.4
688.527	52455.81
688.874	52411.52
689.221	52423.27
689.568	52204.52
689.915	52202.48
690.262	52299.88
690.609	52156.16
690.956	52108.47
691.303	52089.27
691.65	51886.79
691.997	51909.38
692.344	51803.85
692.69	51705.1
693.037	51794.36
693.383	51457.19
693.73	51547.36
694.077	51376.74
694.423	51451.54
694.769	51213.13
695.116	51249.06
695.462	51058.11
695.808	50927.94
696.155	51113.02
696.501	50814.05
696.847	50988.5
697.193	50638
697.539	50659.93
697.885	50536.31
698.231	50478.46
698.577	50412.93
698.923	50424.68
699.269	50156.66
699.614	49965.71
699.96	49882.09
700.306	49932.49
700.651	49790.8
700.997	49707.86
701.342	49594.87
701.688	49472.39
702.033	49365.5
702.379	49377.7
702.724	49196.91
703.069	49310.81
703.415	48937.26
703.76	48933.64
704.105	48976.13
704.45	48769.13
704.795	48676.93
705.14	48537.27
705.485	48504.05
705.83	48276.48
706.175	48434.9
706.52	48225.86
706.865	48198.75
707.209	48034.46
707.554	47982.93
707.899	47905.87
708.243	47725.54
708.588	47723.51
708.932	47510.86
709.277	47638.08
709.621	47356.06
709.966	47191.09
710.31	47181.6
710.654	46954.49
710.998	46972.79
711.342	47064.54
711.687	47011.66
712.031	46867.26
712.375	46639.01
712.719	46657.54
713.063	46599.92
713.407	46828.84
713.75	46513.59
714.094	46382.52
714.438	46158.12
714.782	46262.53
715.125	46185.01
715.469	46310.43
715.812	45985.25
716.156	45924.46
716.499	45746.83
716.843	45882.65
717.186	45604.01
717.53	45690.56
717.873	45707.51
718.216	45634.52
718.559	45510
718.902	45177.36
719.246	45180.3
719.589	45199.28
719.932	45063.24
720.275	45028.89
720.617	45003.58
720.96	44973.97
721.303	45054.2
721.646	45117.25
721.989	44782.34
722.331	44849
722.674	44812.62
723.016	44649.01
723.359	44570.14
723.701	44627.54
724.044	44512.97
724.386	44364.72
724.729	44426.19
725.071	44412.86
725.413	44468.9
725.755	44390.71
726.097	44061.23
726.439	43909.14
726.782	44007.22
727.124	44171.96
727.465	43993.43
727.807	43723.38
728.149	43880.22
728.491	43807.22
728.833	43973.77
729.175	43772.42
729.516	43583.27
729.858	43593.22
730.199	43730.62
730.541	43698.07
730.882	43620.79
731.224	43335.37
731.565	43400.23
731.906	43449.72
732.248	43574.91
732.589	43286.56
732.93	43212.89
733.271	43292.44
733.612	43284.98
733.953	43360.23
734.294	43072.33
734.635	43048.15
734.976	43178.99
735.317	42972.67
735.658	43080.01
735.999	42905.78
736.339	42929.73
736.68	42962.05
737.021	42921.37
737.361	42838.44
737.702	43220.12
738.042	42841.6
738.383	43002.05
738.723	42950.75
739.063	42642.28
739.404	42893.8
739.744	42803.18
740.084	42715.28
740.424	42831.66
740.764	42709.63
741.104	42746.46
741.444	42651.32
741.784	42562.74
742.124	42828.04
742.464	42630.08
742.804	42573.36
743.143	42438.22
743.483	42627.59
743.823	42440.71
744.162	42350.31
744.502	42650.19
744.841	42441.61
745.181	42602.51
745.52	42380.37
745.86	42556.41
746.199	42489.52
746.538	42215.63
746.877	42582.4
747.216	42448.16
747.556	42367.26
747.895	42382.63
748.234	42368.39
748.573	42151.45
748.911	42179.92
749.25	42324.55
749.589	42112.81
749.928	42243.65
750.267	42246.13
750.605	42043.65
750.944	42136.31
751.283	42094.27
751.621	42162.97
751.96	42061.06
752.298	42138.34
752.636	42099.02
752.975	41997.33
753.313	41873.94
753.651	42101.28
753.989	41653.61
754.327	41974.5
