Data from 14-1119_FLMS001491_002.txt Node
Date: Thu Apr 19 16:09:41 BST 2018
User: hsy
Spectrometer: FLMS00149
Trigger mode: 0
Integration Time (sec): 1.000000E-2
Scans to average: 10
Electric dark correction enabled: true
Nonlinearity correction enabled: false
Boxcar width: 0
XAxis mode: Wavelengths
Number of Pixels in Spectrum: 2048
>>>>>Begin Spectral Data<<<<<
341.393	-3.33
341.776	-3.33
342.16	-3.33
342.543	-63.22
342.927	-72.26
343.31	-61.86
343.693	-70.9
344.077	-63.9
344.46	-63.44
344.843	-51.47
345.226	-30.68
345.61	-16.67
345.993	-16.21
346.376	-11.24
346.759	-8.98
347.142	17.46
347.525	52.03
347.908	57.23
348.291	77.57
348.674	81.18
349.057	109.88
349.44	121.64
349.823	143.78
350.206	168.87
350.588	226.27
350.971	244.34
351.354	257.22
351.737	264.46
352.119	266.26
352.502	309.43
352.884	316.21
353.267	315.53
353.65	332.93
354.032	354.62
354.414	356.66
354.797	343.1
355.179	362.53
355.562	355.98
355.944	349.43
356.326	382.19
356.709	365.24
357.091	384.45
357.473	365.92
357.855	393.94
358.238	380.84
358.62	386.26
359.002	378.13
359.384	369.09
359.766	385.36
360.148	384
360.53	382.19
360.912	357.79
361.294	388.97
361.676	384.23
362.057	361.63
362.439	375.64
362.821	363.89
363.203	385.81
363.584	391.68
363.966	376.32
364.348	349.88
364.729	391.68
365.111	382.19
365.493	389.88
365.874	363.89
366.256	364.11
366.637	372.02
367.019	370.67
367.4	391.91
367.781	362.98
368.163	373.38
368.544	347.62
368.925	353.95
369.306	377.9
369.688	356.21
370.069	349.2
370.45	354.17
370.831	375.41
371.212	358.92
371.593	354.62
371.974	357.79
372.355	380.84
372.736	399.37
373.117	395.53
373.498	377.45
373.879	365.92
374.26	393.94
374.641	372.02
375.021	355.53
375.402	370.22
375.783	388.52
376.163	394.17
376.544	379.71
376.925	409.09
377.305	381.06
377.686	380.16
378.066	378.35
378.447	401.63
378.827	411.12
379.208	395.75
379.588	407.5
379.968	387.84
380.349	407.28
380.729	411.57
381.109	428.52
381.489	417.45
381.87	412.48
382.25	396.88
382.63	395.3
383.01	440.72
383.39	412.25
383.77	408.86
384.15	432.81
384.53	431.46
384.91	441.17
385.29	434.17
385.67	445.24
386.049	435.75
386.429	434.4
386.809	443.66
387.189	454.96
387.568	457.67
387.948	450.21
388.328	440.5
388.707	470.33
389.087	466.48
389.466	453.38
389.846	471.68
390.225	476.43
390.605	482.76
390.984	488.18
391.363	486.15
391.743	490.44
392.122	488.63
392.501	482.98
392.881	503.77
393.26	509.2
393.639	514.39
394.018	496.09
394.397	518.91
394.776	524.56
395.155	511.46
395.534	520.04
395.913	526.37
396.292	546.71
396.671	533.38
397.05	527.5
397.429	541.96
397.808	538.57
398.186	565.47
398.565	529.31
398.944	543.77
399.323	553.49
399.701	553.49
400.08	551.91
400.458	568.18
400.837	580.83
401.215	572.47
401.594	549.87
401.972	576.99
402.351	573.15
402.729	600.94
403.107	607.72
403.486	610.21
403.864	608.18
404.242	612.92
404.62	649.08
404.999	625.8
405.377	636.2
405.755	642.07
406.133	645.24
406.511	653.15
406.889	641.4
407.267	661.51
407.645	696.31
408.023	700.38
408.401	678.46
408.779	708.06
409.156	727.04
409.534	717.55
409.912	739.7
410.29	742.86
410.667	753.71
411.045	753.03
411.422	786.93
411.8	772.92
412.178	808.17
412.555	808.85
412.933	832.13
413.31	834.38
413.687	863.99
414.065	863.08
414.442	850.66
414.819	874.38
415.197	867.15
415.574	880.94
415.951	899.24
416.328	933.59
416.705	940.37
417.082	955.96
417.46	945.57
417.837	957.55
418.214	979.92
418.591	971.33
418.967	971.33
419.344	1006.81
419.721	1018.11
420.098	990.99
420.475	1010.65
420.852	1025.79
421.228	1050.88
421.605	1043.19
421.982	1045.45
422.358	1075.51
422.735	1088.84
423.111	1061.27
423.488	1102.4
423.864	1104.21
424.241	1132.23
424.617	1161.61
424.994	1141.95
425.37	1178.1
425.746	1141.04
426.123	1189.18
426.499	1181.49
426.875	1194.15
427.251	1219.23
427.627	1224.66
428.003	1244.54
428.379	1259.46
428.756	1246.35
429.132	1297.2
429.507	1301.94
429.883	1336.07
430.259	1326.35
430.635	1341.72
431.011	1339.68
431.387	1370.42
431.763	1395.95
432.138	1430.08
432.514	1442.28
432.89	1452.67
433.265	1476.85
433.641	1489.06
434.016	1500.36
434.392	1516.17
434.767	1557.76
435.143	1546
435.518	1594.82
435.894	1581.26
436.269	1619.22
436.644	1625.78
437.02	1636.17
437.395	1655.38
437.77	1698.99
438.145	1668.04
438.52	1700.58
438.895	1710.75
439.271	1719.33
439.646	1741.25
440.021	1775.38
440.395	1732.44
440.77	1747.81
441.145	1799.11
441.52	1814.92
441.895	1829.39
442.27	1860.12
442.645	1801.59
443.019	1834.58
443.394	1810.18
443.769	1867.58
444.143	1856.73
444.518	1903.28
444.892	1897.63
445.267	1911.19
445.641	1922.72
446.016	1927.69
446.39	1951.42
446.764	1946.67
447.139	1956.62
447.513	1966.33
447.887	1978.31
448.262	2000.46
448.636	1991.42
449.01	2050.85
449.384	2037.74
449.758	2066.22
450.132	2102.37
450.506	2115.71
450.88	2105.54
451.254	2106.89
451.628	2122.26
452.002	2158.19
452.376	2169.94
452.75	2219.21
453.123	2204.97
453.497	2252.43
453.871	2258.53
454.244	2344.63
454.618	2332.65
454.992	2374.23
455.365	2367
455.739	2401.8
456.112	2468.24
456.486	2457.39
456.859	2486.54
457.232	2535.36
457.606	2552.08
457.979	2617.16
458.352	2638.18
458.725	2656.03
459.099	2664.85
459.472	2717.73
459.845	2772.19
460.218	2767.67
460.591	2819.64
460.964	2835.01
461.337	2852.64
461.71	2921.79
462.083	2965.4
462.456	2964.5
462.829	2986.42
463.201	3068.45
463.574	3023.93
463.947	3105.96
464.32	3162.01
464.692	3165.62
465.065	3179.86
465.438	3259.41
465.81	3295.56
466.183	3276.81
466.555	3338.95
466.928	3349.57
467.3	3365.17
467.672	3407.42
468.045	3476.58
468.417	3496.24
468.789	3522.9
469.161	3571.04
469.534	3627.53
469.906	3662.79
470.278	3712.28
470.65	3747.98
471.022	3786.62
471.394	3875.21
471.766	3901.65
472.138	3976.68
472.51	4021.65
472.882	4096.45
473.253	4102.77
473.625	4206.73
473.997	4271.36
474.369	4332.82
474.74	4324.91
475.112	4439.04
475.484	4473.39
475.855	4586.38
476.227	4628.18
476.598	4727.16
476.97	4760.38
477.341	4865.92
477.713	4937.55
478.084	4938.46
478.455	5101.17
478.827	5141.39
479.198	5286.25
479.569	5292.35
479.94	5475.62
480.311	5495.73
480.682	5670.87
481.053	5755.39
481.424	5846.23
481.795	5923.29
482.166	6025.66
482.537	6147.24
482.908	6271.3
483.279	6339.78
483.65	6458.19
484.021	6617.06
484.391	6657.28
484.762	6777.96
485.133	6813.89
485.503	6949.93
485.874	7116.93
486.244	7161
486.615	7398.96
486.985	7471.95
487.356	7622.68
487.726	7672.17
488.097	7943.58
488.467	7967.08
488.837	8153.29
489.207	8255.21
489.578	8473.73
489.948	8570
490.318	8699.94
490.688	8800.73
491.058	8953.49
491.428	9131.57
491.798	9242.75
492.168	9432.12
492.538	9487.49
492.908	9632.12
493.278	9829.18
493.648	9947.14
494.017	10102.39
494.387	10276.4
494.757	10340.8
495.126	10494.47
495.496	10626.44
495.866	10763.39
496.235	10893.1
496.605	11089.93
496.974	11219.42
497.344	11345.97
497.713	11526.99
498.082	11636.81
498.452	11784.15
498.821	11923.13
499.19	11963.36
499.559	12198.61
499.928	12311.15
500.298	12502.78
500.667	12621.87
501.036	12648.54
501.405	12819.38
501.774	12960.17
502.143	13122.65
502.512	13206.26
502.88	13391.34
503.249	13462.08
503.618	13636.08
503.987	13830.2
504.356	14004.21
504.724	13975.51
505.093	14075.17
505.462	14226.58
505.83	14343.18
506.199	14629.95
506.567	14768.71
506.936	14783.17
507.304	14981.13
507.672	15093.9
508.041	15196.27
508.409	15490.04
508.777	15604.39
509.145	15730.94
509.514	15875.57
509.882	15990.37
510.25	16066.98
510.618	16212.51
510.986	16319.18
511.354	16513.52
511.722	16647.75
512.09	16838.03
512.458	16812.5
512.826	16981.3
513.193	17144.92
513.561	17204.58
513.929	17420.84
514.297	17625.58
514.664	17733.6
515.032	17816.76
515.4	18067.38
515.767	18066.25
516.135	18247.26
516.502	18132.01
516.869	18564.77
517.237	18651.77
517.604	18665.78
517.972	19025.54
518.339	18985.09
518.706	19179.89
519.073	19237.29
519.44	19352.32
519.808	19635.25
520.175	19679.09
520.542	19888.12
520.909	20053.31
521.276	20078.62
521.643	20346.41
522.009	20537.14
522.376	20700.76
522.743	20840.86
523.11	21124.47
523.477	21288.31
523.843	21502.32
524.21	21612.82
524.577	21821.86
524.943	22002.19
525.31	22088.06
525.676	22309.53
526.043	22414.61
526.409	22645.56
526.776	22944.31
527.142	22979.57
527.508	23177.98
527.874	23295.94
528.241	23543.62
528.607	23586.1
528.973	23904.51
529.339	23872.88
529.705	24086.65
530.071	24352.18
530.437	24436.7
530.803	24629.01
531.169	24774.32
531.535	24843.25
531.901	25087.08
532.267	25069
532.632	25244.36
532.998	25372.5
533.364	25534.53
533.73	25692.49
534.095	25912.37
534.461	25962.54
534.826	26071.01
535.192	26129.54
535.557	26388.52
535.923	26361.4
536.288	26451.34
536.653	26531.34
537.019	26564.56
537.384	26802.29
537.749	26872.8
538.114	26861.05
538.479	26993.02
538.845	27169.06
539.21	27035.73
539.575	27135.84
539.94	27354.14
540.305	27405.89
540.67	27388.04
541.034	27624.41
541.399	27615.6
541.764	27697.18
542.129	27916.38
542.494	27842.94
542.858	28077.74
543.223	27987.34
543.587	28183.95
543.952	28142.37
544.316	28275.92
544.681	28067.12
545.045	28437.05
545.41	28490.38
545.774	28482.7
546.138	28504.17
546.503	28629.81
546.867	28634.11
547.231	28949.13
547.595	28962.91
547.959	29015.56
548.324	29073.19
548.688	29072.29
549.052	29260.3
549.416	29217.37
549.779	29284.71
550.143	29410.36
550.507	29551.82
550.871	29559.05
551.235	29599.28
551.599	29932.15
551.962	29721.31
552.326	29982.77
552.689	29970.57
553.053	30001.08
553.417	29995.88
553.78	30353.83
554.143	30334.85
554.507	30466.37
554.87	30493.72
555.234	30753.82
555.597	30674.96
555.96	30844.44
556.323	30928.73
556.686	30878.34
557.05	31178.67
557.413	31194.26
557.776	31308.61
558.139	31512.45
558.502	31554.03
558.865	31613.69
559.228	31842.84
559.59	31880.57
559.953	32085.99
560.316	32386.78
560.679	32252.77
561.041	32495.93
561.404	32560.56
561.767	32828.57
562.129	32746.09
562.492	32957.83
562.854	33024.95
563.217	33078.06
563.579	33120.77
563.941	33393.53
564.304	33583.35
564.666	33855.44
565.028	33853.86
565.39	34000.74
565.753	34203.9
566.115	34217.69
566.477	34325.03
566.839	34393.73
567.201	34706.49
567.563	34624.46
567.925	34882.3
568.287	35106.7
568.648	35166.82
569.01	35414.27
569.372	35662.62
569.734	35730.64
570.095	35762.96
570.457	35990.52
570.819	36073.91
571.18	36102.38
571.542	36520
571.903	36575.59
572.265	36793.21
572.626	36974.23
572.987	37138.29
573.349	37265.74
573.71	37449.47
574.071	37426.42
574.432	37643.59
574.794	38056.01
575.155	38194.08
575.516	38169.22
575.877	38267.52
576.238	38500.97
576.599	38589.32
576.96	38710.9
577.32	38906.15
577.681	38940.73
578.042	39322.64
578.403	39287.84
578.763	39400.38
579.124	39597.66
579.485	39741.16
579.845	40124.2
580.206	40056.18
580.566	40221.82
580.927	40393.12
581.287	40556.05
581.648	40537.52
582.008	40921.24
582.368	41057.51
582.728	41259.54
583.089	41171.63
583.449	41306.54
583.809	41547.89
584.169	41769.35
584.529	41782.23
584.889	42245.27
585.249	42158.72
585.609	42185.39
585.969	42642.78
586.329	42641.42
586.688	43014.97
587.048	42969.55
587.408	43168.64
587.768	43221.74
588.127	43568.85
588.487	43664.22
588.846	44175.62
589.206	44032.35
589.565	44174.94
589.925	44646.34
590.284	44662.16
590.643	44821.7
591.003	45066.44
591.362	45532.87
591.721	45537.84
592.08	45801.56
592.44	46028.9
592.799	46255.56
593.158	46305.51
593.517	46352.74
593.876	46752.5
594.235	46905.94
594.593	47098.71
594.952	47320.39
595.311	47327.85
595.67	47533.04
596.029	47815.3
596.387	48034.73
596.746	48330.31
597.104	48359.69
597.463	48525.33
597.822	48768.27
598.18	48707.7
598.538	49004.42
598.897	49334.13
599.255	49295.71
599.613	49740.44
599.972	49631.97
600.33	49899.54
600.688	50043.94
601.046	50153.77
601.404	50565.73
601.762	50508.78
602.12	50688.22
602.478	50887.08
602.836	50910.58
603.194	50881.66
603.552	51147.19
603.91	51167.07
604.268	51325.71
604.625	51421.53
604.983	51766.6
605.341	51720.05
605.698	51985.58
606.056	52258.12
606.413	52114.39
606.771	52439.36
607.128	52446.14
607.485	52419.7
607.843	52534.27
608.2	52715.51
608.557	52963.86
608.914	52947.14
609.272	53150.75
609.629	53310.97
609.986	53415.38
610.343	53312.55
610.7	53777.63
611.057	53703.5
611.414	53757.97
611.771	54002.48
612.127	54021.01
612.484	54079.99
612.841	54260.55
613.198	54181.46
613.554	54274.34
613.911	54474.33
614.267	54464.84
614.624	54517.95
614.98	54631.84
615.337	54938.5
615.693	54935.11
616.05	55036.8
616.406	55127.19
616.762	55085.84
617.118	55152.05
617.475	55212.62
617.831	55366.28
618.187	55418.26
618.543	55447.86
618.899	55712.72
619.255	55578.48
619.611	55631.36
619.967	55836.1
620.323	55906.16
620.678	55787.06
621.034	55850.34
621.39	55885.14
621.746	55862.99
622.101	56208.3
622.457	56062.76
622.812	56163.78
623.168	56212.82
623.523	56206.04
623.879	56328.07
624.234	56181.86
624.589	56322.87
624.945	56336.2
625.3	56440.15
625.655	56421.4
626.01	56432.02
626.365	56487.84
626.72	56457.56
627.075	56399.7
627.43	56497.1
627.785	56518.8
628.14	56568.96
628.495	56547.04
628.85	56602.18
629.205	56497.78
629.559	56646.7
629.914	56582.52
630.269	56567.61
630.623	56399.25
630.978	56434.73
631.332	56555.86
631.687	56584.11
632.041	56544.78
632.396	56495.97
632.75	56577.55
633.104	56552.47
633.459	56438.8
633.813	56483.09
634.167	56376.65
634.521	56344.34
634.875	56353.15
635.229	56393.38
635.583	56237
635.937	56110.45
636.291	56249.2
636.645	56180.05
636.999	56085.59
637.352	56191.8
637.706	55994.74
638.06	56162.42
638.413	56119.48
638.767	56043.33
639.121	56048.75
639.474	56005.82
639.828	56005.59
640.181	55959.04
640.534	55996.55
640.888	55907.29
641.241	55786.84
641.594	55837.68
641.947	55826.84
642.301	55774.41
642.654	55822.09
643.007	55717.01
643.36	55857.34
643.713	55733.28
644.066	55868.42
644.419	55630.23
644.771	55334.19
645.124	55140.75
645.477	55130.81
645.83	55016.46
646.182	54916.58
646.535	54811.5
646.888	54901.89
647.24	54788.9
647.593	54930.82
647.945	54868.44
648.298	54792.51
648.65	54750.93
649.002	54554.55
649.355	54603.14
649.707	54531.5
650.059	54548
650.411	54899.63
650.763	55000.64
651.115	55428.43
651.467	55261.65
651.819	55242.45
652.171	55227.3
652.523	55176.46
652.875	55109.57
653.227	55023.69
653.578	55178.72
653.93	55117.25
654.282	55009.91
654.633	54944.83
654.985	55010.81
655.337	55049.91
655.688	54973.98
656.039	55032.28
656.391	54735.34
656.742	54828.22
657.094	54931.04
657.445	54868.9
657.796	54967.42
658.147	54826.19
658.498	54872.74
658.849	54907.54
659.2	54840.2
659.551	54713.65
659.902	54918.39
660.253	54785.73
660.604	54813.08
660.955	54717.04
661.306	54782.8
661.656	54658.05
662.007	54758.62
662.358	54755.9
662.708	54804.27
663.059	54796.58
663.409	54569.7
663.76	54736.02
664.11	54742.57
664.461	54774.44
664.811	54727.66
665.161	54712.06
665.511	54644.5
665.862	54622.35
666.212	54734.21
666.562	54728.33
666.912	54712.29
667.262	54592.97
667.612	54652.18
667.962	54740.54
668.312	54587.1
668.662	54750.48
669.011	54746.87
669.361	54690.14
669.711	54616.02
670.06	54509.13
670.41	54556.14
670.76	54555.46
671.109	54646.76
671.459	54623.25
671.808	54579.19
672.157	54659.41
672.507	54450.83
672.856	54456.25
673.205	54456.25
673.554	54475.91
673.904	54449.25
674.253	54614.89
674.602	54456.48
674.951	54123.61
675.3	53825.76
675.649	54391.17
675.998	54366.99
676.346	54353.66
676.695	54510.71
677.044	54257.16
677.393	54295.8
677.741	54322.24
678.09	54245.64
678.438	54187.56
678.787	54360.44
679.135	54325.63
679.484	54079.76
679.832	54282.02
680.181	54015.59
680.529	54181.23
680.877	54046.32
681.225	54006.09
681.573	54209.93
681.922	54098.97
682.27	53896.49
682.618	54038.18
682.966	53857.62
683.314	53876.38
683.661	53871.41
684.009	53703.5
684.357	53689.72
684.705	53721.58
685.053	53681.36
685.4	53647.01
685.748	53574.92
686.095	53568.59
686.443	53397.3
686.79	53440.46
687.138	53470.51
687.485	53440.69
687.832	53319.33
688.18	53318.65
688.527	53176.29
688.874	53168.83
689.221	53029.85
689.568	53064.65
689.915	52960.25
690.262	52998.44
690.609	52952.79
690.956	52775.39
691.303	52786.01
691.65	52733.59
691.997	52699.69
692.344	52453.14
692.69	52482.74
693.037	52563.42
693.383	52149.87
693.73	52354.16
694.077	52152.13
694.423	52181.06
694.769	52018.12
695.116	51976.99
695.462	51859.03
695.808	51751.92
696.155	51835.08
696.501	51573.84
696.847	51570.68
697.193	51393.06
697.539	51443.45
697.885	51231.03
698.231	51229.67
698.577	51142.67
698.923	51116.9
699.269	50912.16
699.614	50806.18
699.96	50580.2
700.306	50812.28
700.651	50537.71
700.997	50414.1
701.342	50439.18
701.688	50312.41
702.033	50253.65
702.379	50254.78
702.724	49991.28
703.069	49999.87
703.415	49608.7
703.76	49593.78
704.105	49649.82
704.45	49516.04
704.795	49452.32
705.14	49210.74
705.485	49339.55
705.83	48957.64
706.175	49045.32
706.52	49041.25
706.865	48875.83
707.209	48867.7
707.554	48648.95
707.899	48723.3
708.243	48599.91
708.588	48450.53
708.932	48208.73
709.277	48331.67
709.621	48167.38
709.966	47908.4
710.31	47961.51
710.654	47733.72
710.998	47795.18
711.342	47717.9
711.687	47634.28
712.031	47517.45
712.375	47380.05
712.719	47311.13
713.063	47382.09
713.407	47457.11
713.75	47249.89
714.094	47134.18
714.438	47027.97
714.782	47020.29
715.125	46784.36
715.469	47072.04
715.812	46626.4
716.156	46640.19
716.499	46538.72
716.843	46566.74
717.186	46256.69
717.53	46582.11
717.873	46436.35
718.216	46487.65
718.559	46349.35
718.902	46004.27
719.246	46162.46
719.589	45939.41
719.932	45838.17
720.275	45799.53
720.617	45903.26
720.96	45747.78
721.303	45654.22
721.646	45859.87
721.989	45602.25
722.331	45689.7
722.674	45647.22
723.016	45492.42
723.359	45386.21
723.701	45364.29
724.044	45286.1
724.386	45006.33
724.729	45146.21
725.071	45155.93
725.413	45060.79
725.755	45078.19
726.097	45020.34
726.439	44971.53
726.782	44734.02
727.124	44891.98
727.465	44913.45
727.807	44611.76
728.149	44748.71
728.491	44582.84
728.833	44701.93
729.175	44661.93
729.516	44530.86
729.858	44516.63
730.199	44589.84
730.541	44642.95
730.882	44421.26
731.224	44446.35
731.565	44224.2
731.906	44301.94
732.248	44364.77
732.589	44071.21
732.93	43949.86
733.271	44227.82
733.612	44021.05
733.953	44243.19
734.294	43854.04
734.635	43917.09
734.976	44108.95
735.317	43917.77
735.658	43897.21
735.999	43717.1
736.339	43774.05
736.68	43942.4
737.021	43824.44
737.361	43678
737.702	43912.8
738.042	43768.4
738.383	43914.83
738.723	43836.87
739.063	43580.15
739.404	43830.32
739.744	43642.98
740.084	43565.69
740.424	43704.67
740.764	43524.34
741.104	43767.49
741.444	43495.86
741.784	43417.22
742.124	43540.61
742.464	43468.74
742.804	43532.02
743.143	43456.99
743.483	43462.42
743.823	43283.44
744.162	43280.27
744.502	43267.85
744.841	43402.53
745.181	43452.7
745.52	43281.18
745.86	43480.5
746.199	43225.59
746.538	43299.48
746.877	43440.72
747.216	43429.88
747.556	43294.74
747.895	43328.63
748.234	43230.33
748.573	43126.38
748.911	43128.41
749.25	43245.02
749.589	43070.56
749.928	43165.02
750.267	43207.96
750.605	43078.25
750.944	43121.18
751.283	42912.37
751.621	43146.94
751.96	42989.89
752.298	42959.15
752.636	43079.83
752.975	42976.78
753.313	42855.65
753.651	43039.6
753.989	43008.87
754.327	42972.03
