Data from 14-1119_FLMS001491_005.txt Node
Date: Thu Apr 19 16:09:48 BST 2018
User: hsy
Spectrometer: FLMS00149
Trigger mode: 0
Integration Time (sec): 1.000000E-2
Scans to average: 10
Electric dark correction enabled: true
Nonlinearity correction enabled: false
Boxcar width: 0
XAxis mode: Wavelengths
Number of Pixels in Spectrum: 2048
>>>>>Begin Spectral Data<<<<<
341.393	1.29
341.776	1.29
342.16	1.29
342.543	-35.55
342.927	-67.87
343.31	-76
343.693	-72.39
344.077	-52.72
344.46	-78.26
344.843	-64.25
345.226	-47.08
345.61	-26.51
345.993	1.06
346.376	-3.91
346.759	3.77
347.142	16.43
347.525	38.57
347.908	75.41
348.291	85.58
348.674	88.51
349.057	111.79
349.44	123.09
349.823	159.25
350.206	180.49
350.588	210.09
350.971	239.25
351.354	254.61
351.737	281.73
352.119	269.53
352.502	294.38
352.884	340.71
353.267	338
353.65	354.5
354.032	338.23
354.414	354.95
354.797	357.21
355.179	359.69
355.562	359.24
355.944	360.15
356.326	378.9
356.709	386.36
357.091	382.52
357.473	379.81
357.855	388.17
358.238	385.68
358.62	375.96
359.002	378
359.384	375.06
359.766	377.32
360.148	395.63
360.53	390.88
360.912	367.83
361.294	371.22
361.676	388.39
362.057	377.77
362.439	351.33
362.821	362.63
363.203	372.8
363.584	373.48
363.966	386.13
364.348	387.49
364.729	350.43
365.111	345.23
365.493	378
365.874	345.23
366.256	363.31
366.637	362.41
367.019	363.54
367.4	353.59
367.781	361.73
368.163	371.9
368.544	368.73
368.925	367.83
369.306	384.55
369.688	355.63
370.069	374.83
370.45	371.45
370.831	350.2
371.212	373.25
371.593	370.99
371.974	387.72
372.355	376.42
372.736	365.8
373.117	364.21
373.498	369.86
373.879	382.74
374.26	395.17
374.641	368.28
375.021	377.09
375.402	369.41
375.783	386.13
376.163	363.08
376.544	399.24
376.925	378.45
377.305	411.44
377.686	387.72
378.066	404.89
378.447	391.11
378.827	418.45
379.208	405.34
379.588	410.99
379.968	407.6
380.349	400.37
380.729	391.33
381.109	418.22
381.489	413.03
381.87	417.77
382.25	425.45
382.63	409.18
383.01	427.71
383.39	410.99
383.77	422.97
384.15	426.81
384.53	419.35
384.91	434.27
385.29	430.2
385.67	436.08
386.049	461.61
386.429	429.97
386.809	455.96
387.189	436.98
387.568	449.64
387.948	440.6
388.328	465.91
388.707	472.69
389.087	487.37
389.466	471.1
389.846	471.78
390.225	489.18
390.605	469.52
390.984	479.69
391.363	463.65
391.743	474.95
392.122	476.53
392.501	494.38
392.881	496.87
393.26	510.2
393.639	498.67
394.018	515.17
394.397	508.62
394.776	507.71
395.155	514.72
395.534	501.84
395.913	519.46
396.292	514.72
396.671	524.21
397.05	534.15
397.429	535.73
397.808	517.2
398.186	540.48
398.565	541.38
398.944	549.75
399.323	562.4
399.701	559.69
400.08	549.97
400.458	535.06
400.837	555.85
401.215	552.46
401.594	571.44
401.972	566.47
402.351	590.42
402.729	578.22
403.107	593.81
403.486	617.77
403.864	605.56
404.242	608.27
404.62	605.11
404.999	597.65
405.377	641.95
405.755	648.27
406.133	661.83
406.511	635.84
406.889	647.37
407.267	647.14
407.645	674.04
408.023	678.1
408.401	697.09
408.779	692.11
409.156	730.08
409.534	703.41
409.912	717.42
410.29	710.65
410.667	730.76
411.045	748.38
411.422	740.47
411.8	740.47
412.178	782.96
412.555	783.19
412.933	799.46
413.31	819.57
413.687	813.24
414.065	834.94
414.442	865.9
414.819	873.35
415.197	874.03
415.574	849.85
415.951	890.08
416.328	879.91
416.705	925.78
417.082	930.07
417.46	916.06
417.837	904.76
418.214	936.4
418.591	941.37
418.967	946.57
419.344	962.84
419.721	985.67
420.098	962.39
420.475	992.67
420.852	993.58
421.228	995.38
421.605	1020.92
421.982	1013.91
422.358	1024.76
422.735	1033.35
423.111	1045.33
423.488	1074.93
423.864	1070.41
424.241	1088.26
424.617	1083.74
424.994	1110.86
425.37	1137.3
425.746	1109.05
426.123	1139.56
426.499	1133.91
426.875	1137.07
427.251	1203.74
427.627	1211.87
428.003	1204.87
428.379	1232.89
428.756	1214.36
429.132	1260.24
429.507	1260.91
429.883	1257.52
430.259	1258.2
430.635	1296.62
431.011	1304.98
431.387	1332.55
431.763	1349.95
432.138	1375.71
432.514	1373.45
432.89	1412.55
433.265	1436.5
433.641	1451.87
434.016	1456.16
434.392	1474.01
434.767	1517.4
435.143	1504.97
435.518	1497.74
435.894	1519.21
436.269	1552.88
436.644	1561.7
437.02	1576.61
437.395	1596.05
437.77	1608.02
438.145	1640.34
438.52	1619.1
438.895	1661.35
439.271	1667.23
439.646	1695.93
440.021	1687.12
440.395	1687.79
440.77	1672.88
441.145	1723.05
441.52	1770.05
441.895	1719.88
442.27	1781.8
442.645	1739.09
443.019	1768.92
443.394	1801.01
443.769	1790.39
444.143	1782.03
444.518	1824.97
444.892	1833.33
445.267	1837.17
445.641	1850.05
446.016	1861.35
446.39	1883.27
446.764	1920.33
447.139	1874.23
447.513	1934.57
447.887	1955.13
448.262	1917.17
448.636	1952.19
449.01	1980.44
449.384	1986.54
449.758	1992.19
450.132	1993.55
450.506	2049.59
450.88	2004.17
451.254	2030.84
451.628	2082.81
452.002	2084.17
452.376	2092.08
452.75	2133.66
453.123	2125.07
453.497	2162.58
453.871	2200.78
454.244	2236.71
454.618	2252.07
454.992	2302.02
455.365	2298.4
455.739	2339.98
456.112	2364.61
456.486	2386.76
456.859	2392.63
457.232	2462.69
457.606	2494.1
457.979	2509.02
458.352	2544.95
458.725	2556.92
459.099	2587.21
459.472	2628.79
459.845	2635.11
460.218	2680.08
460.591	2707.88
460.964	2711.95
461.337	2772.51
461.71	2863.58
462.083	2837.59
462.456	2874.43
462.829	2871.27
463.201	2911.94
463.574	2942
463.947	2948.33
464.32	3021.09
464.692	3065.84
465.065	3056.35
465.438	3100.41
465.81	3159.39
466.183	3150.81
466.555	3231.48
466.928	3234.19
467.3	3228.32
467.672	3294.98
468.045	3366.17
468.417	3411.14
468.789	3385.15
469.161	3423.57
469.534	3466.73
469.906	3525.49
470.278	3568.65
470.65	3566.16
471.022	3689.78
471.394	3727.06
471.766	3790.34
472.138	3821.98
472.51	3863.1
472.882	3940.16
473.253	3963.22
473.625	4038.92
473.997	4095.64
474.369	4114.17
474.74	4159.82
475.112	4281.17
475.484	4326.82
475.855	4375.18
476.227	4408.85
476.598	4517.1
476.97	4587.61
477.341	4688.62
477.713	4746.47
478.084	4789.63
478.455	4864.89
478.827	4963.87
479.198	5054.94
479.569	5079.34
479.94	5264.42
480.311	5318.89
480.682	5404.08
481.053	5500.12
481.424	5608.6
481.795	5669.84
482.166	5777.86
482.537	5860.11
482.908	6007.68
483.279	6045.19
483.65	6189.82
484.021	6374.68
484.391	6393.21
484.762	6509.59
485.133	6583.26
485.503	6668.23
485.874	6782.35
486.244	6884.27
486.615	7090.82
486.985	7215.11
487.356	7322.22
487.726	7354.99
488.097	7563.12
488.467	7611.48
488.837	7807.41
489.207	7960.17
489.578	8097.8
489.948	8187.28
490.318	8315.42
490.688	8368.3
491.058	8571.23
491.428	8722.19
491.798	8817.1
492.168	8984.1
492.538	9121.95
492.908	9275.84
493.278	9443.07
493.648	9565.1
494.017	9621.6
494.387	9813.46
494.757	9864.08
495.126	10034.24
495.496	10180.45
495.866	10338.41
496.235	10448.92
496.605	10620.22
496.974	10676.26
497.344	10886.2
497.713	10977.27
498.082	11109.47
498.452	11263.36
498.821	11476.46
499.19	11470.59
499.559	11632.62
499.928	11796.23
500.298	11993.96
500.667	12095.2
501.036	12192.6
501.405	12243.9
501.774	12445.03
502.143	12609.32
502.512	12706.71
502.88	12859.03
503.249	12914.84
503.618	13145.8
503.987	13175.85
504.356	13371.56
504.724	13487.48
505.093	13601.15
505.462	13751.66
505.83	13882.05
506.199	13998.88
506.567	14267.8
506.936	14232.1
507.304	14469.15
507.672	14509.83
508.041	14665.98
508.409	14917.96
508.777	15031.17
509.145	15108.23
509.514	15197.27
509.882	15396.59
510.25	15472.06
510.618	15559.75
510.986	15658.73
511.354	15869.79
511.722	16105.49
512.09	16160.86
512.458	16197.24
512.826	16431.14
513.193	16514.75
513.561	16651.69
513.929	16774.63
514.297	17016.43
514.664	17048.52
515.032	17178.01
515.4	17357.44
515.767	17518.79
516.135	17551.11
516.502	17593.59
516.869	17963.52
517.237	17986.12
517.604	17947.03
517.972	18369.39
518.339	18324.42
518.706	18554.92
519.073	18642.6
519.44	18756.5
519.808	18899.09
520.175	18991.07
520.542	19148.58
520.909	19346.99
521.276	19493.65
521.643	19638.96
522.009	19720.99
522.376	20041.44
522.743	20132.73
523.11	20301.54
523.477	20619.27
523.843	20608.88
524.21	21004.8
524.577	20954.18
524.943	21104.01
525.31	21306.26
525.676	21542.87
526.043	21679.81
526.409	21799.36
526.776	22044.1
527.142	22170.87
527.508	22259.68
527.874	22465.1
528.241	22604.08
528.607	22777.41
528.973	23006.33
529.339	22905.54
529.705	23310.5
530.071	23366.32
530.437	23513.89
530.803	23699.87
531.169	23926.31
531.535	23871.17
531.901	23982.35
532.267	24109.13
532.632	24317.03
532.998	24505.27
533.364	24594.54
533.73	24707.75
534.095	24934.42
534.461	24926.28
534.826	25165.37
535.192	25212.6
535.557	25409.66
535.923	25312.03
536.288	25468.86
536.653	25605.36
537.019	25518.58
537.384	25840.15
537.749	25759.03
538.114	25821.85
538.479	25980.72
538.845	26004.9
539.21	25966.7
539.575	26204.21
539.94	26284.89
540.305	26498.89
540.67	26580.7
541.034	26577.76
541.399	26627.03
541.764	26796.29
542.129	26862.27
542.494	26884.65
542.858	27056.17
543.223	27021.37
543.587	27178.2
543.952	27075.6
544.316	27285.54
544.681	27282.83
545.045	27483.95
545.41	27584.51
545.774	27426.55
546.138	27536.83
546.503	27659.32
546.867	27694.12
547.231	27895.02
547.595	27963.71
547.959	27973.66
548.324	27913.55
548.688	28128.91
549.052	28316.92
549.416	28128.68
549.779	28303.37
550.143	28350.14
550.507	28584.04
550.871	28499.07
551.235	28602.12
551.599	28810.7
551.962	28893.63
552.326	28831.04
552.689	29211.59
553.053	28871.71
553.417	29104.47
553.78	29321.19
554.143	29389.89
554.507	29536.1
554.87	29596.44
555.234	29921.18
555.597	29626.04
555.96	29827.62
556.323	29882.99
556.686	29904.45
557.05	30301.28
557.413	30209.76
557.776	30428.06
558.139	30388.96
558.502	30473.03
558.865	30461.5
559.228	30849.06
559.59	30889.29
559.953	30908.95
560.316	31261.71
560.679	31236.17
561.041	31293.8
561.404	31553
561.767	31810.39
562.129	31636.39
562.492	31998.64
562.854	31938.52
563.217	32066.66
563.579	32111.18
563.941	32260.55
564.304	32552.07
564.666	32722.23
565.028	32823.02
565.39	32818.5
565.753	33036.57
566.115	33065.27
566.477	33340.3
566.839	33312.95
567.201	33747.74
567.563	33645.6
567.925	33906.83
568.287	33944.35
568.648	34047.62
569.01	34232.02
569.372	34566.93
569.734	34529.42
570.095	34687.83
570.457	34907.94
570.819	34888.73
571.18	35048.05
571.542	35390.64
571.903	35394.93
572.265	35545.21
572.626	35756.73
572.987	35868.14
573.349	35982.49
573.71	36283.5
574.071	36314
574.432	36570.95
574.794	36759.87
575.155	36812.07
575.516	36728.68
575.877	37102.23
576.238	37248.67
576.599	37396.23
576.96	37461.77
577.32	37551.26
577.681	37744.47
578.042	37996.44
578.403	38125.25
578.763	38290
579.124	38288.19
579.485	38658.8
579.845	38751.45
580.206	38646.6
580.566	38866.7
580.927	39052.91
581.287	39165.23
581.648	39238.9
582.008	39727.02
582.368	39643.18
582.728	39871.42
583.089	39905.77
583.449	40112.32
583.809	40253.11
584.169	40544.4
584.529	40406.55
584.889	41005.63
585.249	40813.09
585.609	40856.03
585.969	41283.82
586.329	41250.82
586.688	41758.83
587.048	41698.95
587.408	41768.1
587.768	41943.23
588.127	42167.41
588.487	42201.31
588.846	42702.54
589.206	42591.13
589.565	42808.97
589.925	43194.5
590.284	43345
590.643	43545.23
591.003	43677.2
591.362	44093.69
591.721	44085.78
592.08	44127.13
592.44	44587.23
592.799	44760.33
593.158	44786.77
593.517	44964.4
593.876	45267.67
594.235	45301.11
594.593	45525.74
594.952	45923.92
595.311	45870.14
595.67	46071.94
596.029	46467.63
596.387	46687.29
596.746	46958.69
597.104	46862.65
597.463	47075.53
597.822	47415.41
598.18	47435.07
598.538	47497.89
598.897	48098.1
599.255	47863.3
599.613	48387.81
599.972	48208.15
600.33	48503.06
600.688	48501.03
601.046	48884.75
601.404	49166.77
601.762	49200.67
602.12	49461.68
602.478	49615.35
602.836	49642.47
603.194	49652.86
603.552	49813.08
603.91	49878.39
604.268	50080.87
604.625	50101.21
604.983	50536.45
605.341	50263.01
605.698	50733.28
606.056	50882.43
606.413	50924.01
606.771	51171.24
607.128	51267.96
607.485	51182.76
607.843	51389.99
608.2	51597.44
608.557	51821.17
608.914	51741.85
609.272	52017.32
609.629	52106.58
609.986	52370.76
610.343	52311.1
610.7	52595.83
611.057	52606.91
611.414	52652.33
611.771	52812.1
612.127	52888.48
612.484	53060.46
612.841	53169.15
613.198	53069.27
613.554	53126.89
613.911	53361.46
614.267	53480.78
614.624	53471.52
614.98	53616.15
615.337	53876.25
615.693	53745.41
616.05	53808.23
616.406	54040.32
616.762	53958.51
617.118	54075.8
617.475	54184.95
617.831	54277.6
618.187	54335.68
618.543	54399.18
618.899	54598.95
619.255	54713.07
619.611	54551.04
619.967	54775.89
620.323	54854.98
620.678	54772.73
621.034	54775.44
621.39	54820.63
621.746	54890.92
622.101	55259.27
622.457	54971.82
622.812	55141.76
623.168	55149.21
623.523	55114.86
623.879	55200.74
624.234	55121.64
624.589	55249.78
624.945	55266.72
625.3	55370.68
625.655	55293.39
626.01	55356.21
626.365	55396.89
626.72	55337.23
627.075	55366.61
627.43	55506.72
627.785	55398.47
628.14	55418.59
628.495	55503.33
628.85	55534.74
629.205	55407.29
629.559	55589.2
629.914	55533.16
630.269	55513.27
630.623	55407.74
630.978	55421.97
631.332	55529.54
631.687	55562.99
632.041	55398.25
632.396	55462.65
632.75	55423.56
633.104	55533.84
633.459	55436.44
633.813	55369.32
634.167	55364.35
634.521	55306.95
634.875	55343.11
635.229	55292.94
635.583	55199.16
635.937	55143.79
636.291	55165.26
636.645	55272.83
636.999	55066.5
637.352	55179.5
637.706	55012.49
638.06	55103.79
638.413	55025.6
638.767	55000.52
639.121	55057.46
639.474	54954.64
639.828	54921.65
640.181	54902.44
640.534	54979.5
640.888	54913.29
641.241	54660.64
641.594	54801.2
641.947	54861.76
642.301	54698.83
642.654	54770.92
643.007	54699.96
643.36	54748.09
643.713	54725.72
644.066	54872.38
644.419	54528.21
644.771	54332.51
645.124	54003.71
645.477	54038.73
645.83	53857.27
646.182	53716.71
646.535	53760.55
646.888	53802.13
647.24	53767.56
647.593	53897.04
647.945	53807.78
648.298	53686.2
648.65	53638.97
649.002	53444.85
649.355	53539.09
649.707	53432.65
650.059	53438.75
650.411	53784.73
650.763	53859.3
651.115	54278.73
651.467	54179.75
651.819	54204.38
652.171	54187.66
652.523	54040.54
652.875	54008.45
653.227	53946.53
653.578	54145.17
653.93	54079.86
654.282	53954.89
654.633	53875.57
654.985	53943.6
655.337	53980.88
655.688	53951.28
656.039	54047.32
656.391	53614.34
656.742	53797.38
657.094	53812.98
657.445	53869.47
657.796	53821.57
658.147	53641.23
658.498	53864.28
658.849	53892.52
659.2	53767.56
659.551	53720.32
659.902	53888
660.253	53709.7
660.604	53761.91
660.955	53577.05
661.306	53736.14
661.656	53625.64
662.007	53594.23
662.358	53660.67
662.708	53598.75
663.059	53604.17
663.409	53429.71
663.76	53647.56
664.11	53575.02
664.461	53634.45
664.811	53639.42
665.161	53572.53
665.511	53517.39
665.862	53523.95
666.212	53567.56
666.562	53602.59
666.912	53576.15
667.262	53370.96
667.612	53444.4
667.962	53575.47
668.312	53440.78
668.662	53692.08
669.011	53513.32
669.361	53417.06
669.711	53485.98
670.06	53454.8
670.41	53452.76
670.76	53417.73
671.109	53528.47
671.459	53485.08
671.808	53435.59
672.157	53472.42
672.507	53340.45
672.856	53271.97
673.205	53365.76
673.554	53384.06
673.904	53274.91
674.253	53418.86
674.602	53333.44
674.951	52933.68
675.3	52766
675.649	53364.63
675.998	53306.32
676.346	53294.35
676.695	53368.7
677.044	53069.04
677.393	53176.84
677.741	53259.77
678.09	53160.11
678.438	52955.37
678.787	53184.52
679.135	53087.12
679.484	52937.97
679.832	52963.06
680.181	52967.12
680.529	53012.32
680.877	52874.47
681.225	52835.38
681.573	53056.84
681.922	52845.77
682.27	52795.83
682.618	52772.33
682.966	52720.58
683.314	52789.95
683.661	52740.92
684.009	52591.99
684.357	52548.15
684.705	52473.58
685.053	52608.26
685.4	52448.27
685.748	52392.45
686.095	52370.53
686.443	52222.06
686.79	52164.21
687.138	52229.29
687.485	52269.29
687.832	52038.11
688.18	52086.92
688.527	52009.41
688.874	52006.02
689.221	52038.11
689.568	51771.45
689.915	51722.19
690.262	51701.85
690.609	51707.04
690.956	51681.28
691.303	51612.81
691.65	51492.59
691.997	51284.91
692.344	51258.92
692.69	51187.74
693.037	51278.13
693.383	50988.19
693.73	51089.66
694.077	50919.04
694.423	50902.09
694.769	50748.65
695.116	50784.36
695.462	50637.69
695.808	50518.38
696.155	50604.25
696.501	50346.18
696.847	50409.45
697.193	50093.75
697.539	50219.63
697.885	49946.19
698.231	49902.12
698.577	49924.27
698.923	49681.33
699.269	49536.93
699.614	49520.44
699.96	49281.8
700.306	49343.94
700.651	49425.52
700.997	49136.26
701.342	49031.86
701.688	49034.8
702.033	48891.07
702.379	48843.16
702.724	48676.62
703.069	48757.97
703.415	48296.74
703.76	48322.05
704.105	48356.62
704.45	48139.23
704.795	48087.93
705.14	47893.81
705.485	47885.22
705.83	47629.41
706.175	47845.68
706.52	47661.05
706.865	47536.76
707.209	47443.88
707.554	47355.07
707.899	47426.93
708.243	47158.46
708.588	47133.15
708.932	46821.98
709.277	46866.72
709.621	46703.11
709.966	46607.29
710.31	46751.47
710.654	46327.52
710.998	46474.19
711.342	46431.02
711.687	46420.86
712.031	46175.66
712.375	46000.98
712.719	45894.77
713.063	45844.15
713.407	46126.4
713.75	45749.01
714.094	45761.44
714.438	45542.69
714.782	45726.18
715.125	45478.51
715.469	45597.83
715.812	45300.66
716.156	45246.2
716.499	45166.88
716.843	45227.44
717.186	44958.52
717.53	45134.11
717.873	45057.28
718.216	44894.12
718.559	44892.08
718.902	44568.25
719.246	44636.27
719.589	44470.85
719.932	44349.72
720.275	44371.64
720.617	44333.9
720.96	44263.4
721.303	44276.05
721.646	44325.09
721.989	43907.25
722.331	44171.65
722.674	43927.81
723.016	43926.01
723.359	43722.4
723.701	43903.41
724.044	43657.31
724.386	43475.4
724.729	43688.5
725.071	43740.02
725.413	43563.3
725.755	43379.81
726.097	43428.17
726.439	43226.82
726.782	43220.71
727.124	43513.81
727.465	43320.6
727.807	43085.12
728.149	43223.65
728.491	43095.75
728.833	43165.12
729.175	43038.12
729.516	42971
729.858	42969.65
730.199	42966.48
730.541	42876.32
730.882	42674.06
731.224	42847.62
731.565	42685.13
731.906	42745.25
732.248	42714.96
732.589	42507.74
732.93	42379.15
733.271	42621.63
733.612	42534.86
733.953	42749.31
734.294	42511.81
734.635	42395.88
734.976	42610.11
735.317	42265.48
735.658	42313.85
735.999	42180.74
736.339	42307.97
736.68	42358.82
737.021	42182.78
737.361	42249.89
737.702	42438.81
738.042	42189.78
738.383	42251.02
738.723	42243.34
739.063	42061.65
739.404	42176.22
739.744	42082.21
740.084	41921.31
740.424	41972.61
740.764	41992.72
741.104	42237.91
741.444	41953.18
741.784	41762
742.124	41992.72
742.464	41860.07
742.804	41812.62
743.143	41819.62
743.483	41906.17
743.823	41675.22
744.162	41726.97
744.502	41886.51
744.841	41654.65
745.181	41862.78
745.52	41695.33
745.86	41789.34
746.199	41753.18
746.538	41735.1
746.877	41994.98
747.216	41891.94
747.556	41721.09
747.895	41802.9
748.234	41663.47
748.573	41645.16
748.911	41583.47
749.25	41689
749.589	41522.23
749.928	41644.48
750.267	41623.24
750.605	41622.79
750.944	41636.35
751.283	41437.48
751.621	41586.63
751.96	41474.77
752.298	41430.48
752.636	41522.68
752.975	41465.51
753.313	41372.85
753.651	41551.15
753.989	41309.58
754.327	41283.36
754.666	40993.65
