Data from 14-1119_FLMS001491_003.txt Node
Date: Thu Apr 19 16:09:43 BST 2018
User: hsy
Spectrometer: FLMS00149
Trigger mode: 0
Integration Time (sec): 1.000000E-2
Scans to average: 10
Electric dark correction enabled: true
Nonlinearity correction enabled: false
Boxcar width: 0
XAxis mode: Wavelengths
Number of Pixels in Spectrum: 2048
>>>>>Begin Spectral Data<<<<<
341.393	-5.54
341.776	-5.54
342.16	-5.54
342.543	-28.59
342.927	-49.83
343.31	-84.18
343.693	-76.5
344.077	-59.32
344.46	-48.25
344.843	-45.76
345.226	-54.35
345.61	-30.85
345.993	-9.38
346.376	-1.24
346.759	-0.34
347.142	28.36
347.525	55.25
347.908	66.78
348.291	66.33
348.674	89.38
349.057	104.07
349.44	121.92
349.823	138.41
350.206	162.82
350.588	224.74
350.971	236.94
351.354	273.33
351.737	286.21
352.119	281.24
352.502	298.86
352.884	305.42
353.267	318.3
353.65	320.56
354.032	337.51
354.414	333.44
354.797	340.22
355.179	341.12
355.562	372.31
355.944	365.75
356.326	374.57
356.709	378.86
357.091	395.36
357.473	372.31
357.855	363.95
358.238	395.36
358.62	372.53
359.002	370.05
359.384	368.92
359.766	385.87
360.148	367.11
360.53	388.35
360.912	386.32
361.294	372.76
361.676	367.56
362.057	378.41
362.439	358.97
362.821	386.77
363.203	374.57
363.584	361.23
363.966	390.16
364.348	379.54
364.729	369.82
365.111	370.5
365.493	384.51
365.874	356.26
366.256	353.55
366.637	368.46
367.019	354.68
367.4	367.33
367.781	361.46
368.163	393.55
368.544	355.58
368.925	368.01
369.306	346.77
369.688	365.98
370.069	385.64
370.45	379.99
370.831	359.2
371.212	375.47
371.593	377.73
371.974	364.85
372.355	368.24
372.736	384.28
373.117	376.15
373.498	375.02
373.879	375.24
374.26	364.85
374.641	362.82
375.021	364.62
375.402	387.67
375.783	398.97
376.163	412.08
376.544	396.49
376.925	401.01
377.305	388.13
377.686	404.85
378.066	383.38
378.447	398.75
378.827	372.76
379.208	410.05
379.588	407.11
379.968	383.83
380.349	397.16
380.729	390.16
381.109	397.16
381.489	403.72
381.87	411.4
382.25	390.16
382.63	429.93
383.01	423.15
383.39	428.8
383.77	427.9
384.15	413.21
384.53	428.58
384.91	421.57
385.29	436.49
385.67	431.29
386.049	439.65
386.429	449.82
386.809	432.87
387.189	450.72
387.568	447.56
387.948	434.23
388.328	457.28
388.707	452.3
389.087	445.98
389.466	450.95
389.846	459.08
390.225	466.09
390.605	497.5
390.984	491.4
391.363	471.51
391.743	465.41
392.122	481.23
392.501	479.2
392.881	498.4
393.26	480.55
393.639	507.9
394.018	516.71
394.397	508.57
394.776	518.29
395.155	511.96
395.534	523.72
395.913	529.36
396.292	527.1
396.671	511.96
397.05	513.77
397.429	532.98
397.808	548.8
398.186	560.55
398.565	540.44
398.944	551.51
399.323	550.83
399.701	532.08
400.08	559.19
400.458	568.91
400.837	572.75
401.215	579.08
401.594	579.31
401.972	588.8
402.351	583.83
402.729	574.56
403.107	593.54
403.486	617.72
403.864	591.51
404.242	594.22
404.62	601.91
404.999	617.05
405.377	638.97
405.755	619.31
406.133	635.8
406.511	649.36
406.889	635.35
407.267	674.45
407.645	689.13
408.023	671.51
408.401	678.51
408.779	683.48
409.156	690.72
409.534	701.56
409.912	735.46
410.29	743.82
410.667	737.49
411.045	752.86
411.422	768.23
411.8	740.88
412.178	769.13
412.555	784.05
412.933	818.62
413.31	822.92
413.687	834.44
414.065	867.66
414.442	848.23
414.819	854.78
415.197	850.49
415.574	871.28
415.951	879.64
416.328	889.13
416.705	912.63
417.082	907.89
417.46	924.16
417.837	889.13
418.214	923.93
418.591	968.45
418.967	963.03
419.344	991.05
419.721	971.84
420.098	973.87
420.475	1003.02
420.852	1005.74
421.228	1005.74
421.605	1022.91
421.982	1045.28
422.358	1034.44
422.735	1049.12
423.111	1055.9
423.488	1097.94
423.864	1082.12
424.241	1091.61
424.617	1126.19
424.994	1104.49
425.37	1129.8
425.746	1080.08
426.123	1146.3
426.499	1160.53
426.875	1141.33
427.251	1168.22
427.627	1172.74
428.003	1203.92
428.379	1206.86
428.756	1207.54
429.132	1243.92
429.507	1259.06
429.883	1262
430.259	1301.1
430.635	1311.94
431.011	1311.26
431.387	1349
431.763	1368.44
432.138	1336.12
432.514	1370.02
432.89	1406.86
433.265	1435.78
433.641	1439.85
434.016	1422.9
434.392	1473.29
434.767	1489.34
435.143	1496.8
435.518	1501.32
435.894	1518.72
436.269	1551.03
436.644	1552.84
437.02	1565.27
437.395	1561.88
437.77	1648.21
438.145	1623.35
438.52	1640.07
438.895	1625.83
439.271	1646.17
439.646	1659.73
440.021	1717.58
440.395	1711.25
440.77	1708.32
441.145	1689.11
441.52	1724.14
441.895	1732.27
442.27	1750.8
442.645	1744.25
443.019	1782.89
443.394	1752.61
443.769	1808.88
444.143	1817.92
444.518	1842.32
444.892	1829.67
445.267	1826.96
445.641	1845.04
446.016	1863.11
446.39	1888.2
446.764	1881.65
447.139	1869.67
447.513	1917.12
447.887	1941.53
448.262	1941.3
448.636	1939.95
449.01	1943.34
449.384	1969.78
449.758	1992.6
450.132	2028.08
450.506	1998.03
450.88	2058.14
451.254	2039.83
451.628	2072.83
452.002	2084.13
452.376	2142.2
452.75	2125.93
453.123	2156.44
453.497	2164.58
453.871	2170.9
454.244	2212.94
454.618	2192.37
454.992	2245.03
455.365	2282.31
455.739	2314.63
456.112	2398.92
456.486	2387.62
456.859	2382.2
457.232	2408.64
457.606	2447.51
457.979	2528.18
458.352	2502.87
458.725	2577.45
459.099	2571.8
459.472	2634.62
459.845	2661.96
460.218	2633.49
460.591	2754.16
460.964	2714.84
461.337	2734.5
461.71	2791.23
462.083	2845.46
462.456	2833.03
462.829	2873.48
463.201	2934.27
463.574	2907.38
463.947	2943.09
464.32	2992.35
464.692	3035.51
465.065	3066.02
465.438	3103.08
465.81	3080.48
466.183	3157.54
466.555	3183.08
466.928	3221.5
467.3	3267.15
467.672	3281.61
468.045	3377.65
468.417	3379.23
468.789	3380.59
469.161	3411.55
469.534	3472.79
469.906	3567.93
470.278	3574.71
470.65	3600.47
471.022	3681.82
471.394	3725.89
471.766	3745.78
472.138	3769.96
472.51	3894.93
472.882	3916.17
473.253	3921.82
473.625	4014.47
473.997	4119.1
474.369	4138.54
474.74	4144.64
475.112	4228.25
475.484	4315.71
475.855	4349.38
476.227	4444.06
476.598	4531.07
476.97	4562.7
477.341	4674.34
477.713	4739.42
478.084	4815.13
478.455	4919.76
478.827	4948.46
479.198	5116.81
479.569	5132.86
479.94	5211.5
480.311	5295.79
480.682	5402.91
481.053	5486.97
481.424	5631.6
481.795	5696.01
482.166	5763.58
482.537	5901.2
482.908	5955.66
483.279	6071.59
483.65	6225.94
484.021	6267.97
484.391	6390.23
484.762	6458.02
485.133	6545.93
485.503	6661.41
485.874	6842.87
486.244	6888.29
486.615	7043.09
486.985	7131
487.356	7286.48
487.726	7360.15
488.097	7568.28
488.467	7614.38
488.837	7813.47
489.207	7886.69
489.578	8000.35
489.948	8246.45
490.318	8338.42
490.688	8446.67
491.058	8599.89
491.428	8738.64
491.798	8865.64
492.168	9032.64
492.538	9144.28
492.908	9327.1
493.278	9471.95
493.648	9463.37
494.017	9709.01
494.387	9832.4
494.757	9976.57
495.126	10137.02
495.496	10216.34
495.866	10353.97
496.235	10438.03
496.605	10546.05
496.974	10655.2
497.344	10863.33
497.713	10996.43
498.082	11122.98
498.452	11313.94
498.821	11436.42
499.19	11394.62
499.559	11647.94
499.928	11780.14
500.298	11940.36
500.667	12024.43
501.036	12083.41
501.405	12263.29
501.774	12412.44
502.143	12571.08
502.512	12724.52
502.88	12902.6
503.249	12916.38
503.618	13086.55
503.987	13074.57
504.356	13396.37
504.724	13529.93
505.093	13560.66
505.462	13651.28
505.83	13867.54
506.199	14086.07
506.567	14193.19
506.936	14172.62
507.304	14506.4
507.672	14573.29
508.041	14627.3
508.409	14882.66
508.777	15040.62
509.145	15076.33
509.514	15144.8
509.882	15309.77
510.25	15472.25
510.618	15653.71
510.986	15689.42
511.354	15899.36
511.722	16023.65
512.09	16230.42
512.458	16203.08
512.826	16448.04
513.193	16511.54
513.561	16669.51
513.929	16813.23
514.297	16861.36
514.664	17097.52
515.032	17276.95
515.4	17410.28
515.767	17497.05
516.135	17686.43
516.502	17592.64
516.869	17898.85
517.237	17994.44
517.604	17994.67
517.972	18340.2
518.339	18366.18
518.706	18437.14
519.073	18617.93
519.44	18706.97
519.808	18963
520.175	19026.05
520.542	19314.86
520.909	19393.95
521.276	19492.93
521.643	19767.28
522.009	19802.98
522.376	19942.64
522.743	20100.38
523.11	20279.81
523.477	20604.99
523.843	20726.35
524.21	20944.2
524.577	21141.03
524.943	21206.79
525.31	21291.08
525.676	21516.16
526.043	21818.97
526.409	21747.56
526.776	22071.4
527.142	22201.34
527.508	22305.97
527.874	22574.21
528.241	22712.74
528.607	22727.2
528.973	23121.54
529.339	23087.87
529.705	23375.77
530.071	23563.79
530.437	23670
530.803	23691.24
531.169	23912.25
531.535	23955.87
531.901	24177.56
532.267	24208.29
532.632	24375.97
532.998	24473.14
533.364	24762.63
533.73	24709.52
534.095	24997.2
534.461	24986.12
534.826	25106.57
535.192	25161.03
535.557	25364.19
535.923	25394.02
536.288	25516.96
536.653	25649.16
537.019	25558.31
537.384	25794.69
537.749	25893.22
538.114	26016.83
538.479	26042.37
538.845	26088.47
539.21	26080.33
539.575	26268.57
539.94	26301.34
540.305	26488.46
540.67	26427.67
541.034	26614.1
541.399	26652.29
541.764	26662.91
542.129	26811.84
542.494	26824.49
542.858	27000.76
543.223	26967.31
543.587	27238.04
543.952	27122.56
544.316	27241.66
544.681	27302.67
545.045	27355.1
545.41	27602.78
545.774	27466.96
546.138	27583.79
546.503	27716.45
546.867	27704.24
547.231	27874.86
547.595	27946.72
547.959	27969.55
548.324	28032.37
548.688	28184.68
549.052	28205.02
549.416	28270.78
549.779	28216.09
550.143	28294.74
550.507	28649.76
550.871	28635.52
551.235	28573.82
551.599	28874.38
551.962	28878.68
552.326	29056.07
552.689	29039.35
553.053	28959.13
553.417	29026.24
553.78	29436.4
554.143	29351.21
554.507	29464.42
554.87	29453.35
555.234	29805.88
555.597	29606.34
555.96	29708.26
556.323	29892.89
556.686	29831.42
557.05	30151.64
557.413	30244.06
557.776	30178.08
558.139	30482.25
558.502	30447.45
558.865	30519.54
559.228	30813.99
559.59	30873.43
559.953	30943.93
560.316	31254.88
560.679	31287.43
561.041	31371.94
561.404	31535.1
561.767	31824.13
562.129	31680.41
562.492	31988.2
562.854	32078.59
563.217	32033.62
563.579	32107.29
563.941	32316.1
564.304	32410.33
564.666	32719.25
565.028	32695.3
565.39	32938.91
565.753	32957.44
566.115	33068.4
566.477	33130.99
566.839	33333.7
567.201	33644.88
567.563	33652.79
567.925	33985.66
568.287	33869.28
568.648	34009.61
569.01	34382.03
569.372	34539.32
569.734	34426.1
570.095	34749.71
570.457	34948.12
570.819	34995.8
571.18	35044.84
571.542	35337.71
571.903	35362.57
572.265	35515.79
572.626	35753.3
572.987	35756.01
573.349	36064.93
573.71	36273.96
574.071	36326.16
574.432	36485.48
574.794	36816.55
575.155	37014.51
575.516	36887.5
575.877	37092.7
576.238	37093.6
576.599	37353.93
576.96	37481.61
577.32	37605.68
577.681	37894.48
578.042	38112.78
578.403	38063.52
578.763	38133.57
579.124	38250.86
579.485	38674.35
579.845	38819.21
580.206	38778.3
580.566	38857.17
580.927	38969.71
581.287	39274.11
581.648	39226.65
582.008	39439.75
582.368	39660.77
582.728	39811.27
583.089	39723.36
583.449	40066.63
583.809	40228.66
584.169	40371.03
584.529	40473.17
584.889	41045.14
585.249	40915.65
585.609	40837.91
585.969	41269.31
586.329	41238.35
586.688	41535.29
587.048	41662.97
587.408	41846.02
587.768	41992.23
588.127	42282.84
588.487	42179.12
588.846	42763.73
589.206	42533.23
589.565	42775.26
589.925	43264.51
590.284	43281.46
590.643	43453.66
591.003	43746.53
591.362	44063.14
591.721	43990.59
592.08	44260.19
592.44	44579.96
592.799	44638.26
593.158	44946.73
593.517	45081.87
593.876	45317.34
594.235	45398.69
594.593	45724.56
594.952	45821.28
595.311	45977.44
595.67	46158.9
596.029	46476.86
596.387	46651.54
596.746	46920.46
597.104	47020.8
597.463	47032.1
597.822	47498.53
598.18	47487.9
598.538	47588.47
598.897	47928.57
599.255	47816.93
599.613	48545.28
599.972	48374.66
600.33	48512.96
600.688	48700.3
601.046	48800.64
601.404	49256.9
601.762	49358.59
602.12	49443.33
602.478	49736.66
602.836	49714.51
603.194	49660.95
603.552	49941.85
603.91	49991.34
604.268	50292.35
604.625	50324.67
604.983	50507.49
605.341	50534.38
605.698	50848.49
606.056	51053.91
606.413	51006.68
606.771	51265.43
607.128	51408.93
607.485	51380.91
607.843	51418.87
608.2	51708.58
608.557	51851.4
608.914	51951.52
609.272	52057.5
609.629	52326.65
609.986	52409.13
610.343	52356.93
610.7	52696.35
611.057	52623.59
611.414	52701.1
611.771	52955.33
612.127	53116
612.484	53086.17
612.841	53233.97
613.198	53207.08
613.554	53257.92
613.911	53565.26
614.267	53619.04
614.624	53616.56
614.98	53788.76
615.337	53988.3
615.693	53922.99
616.05	54057.45
616.406	54144.23
616.762	54120.5
617.118	54290.21
617.475	54293.15
617.831	54489.75
618.187	54568.4
618.543	54634.16
618.899	54765
619.255	54691.78
619.611	54702.4
619.967	54845.45
620.323	54974.03
620.678	54886.58
621.034	54916.86
621.39	55017.42
621.746	54957.76
622.101	55278.43
622.457	55088.61
622.812	55224.65
623.168	55415.15
623.523	55313.46
623.879	55390.97
624.234	55353.69
624.589	55427.36
624.945	55429.62
625.3	55519.78
625.655	55595.49
626.01	55579.44
626.365	55640.91
626.72	55591.42
627.075	55516.85
627.43	55599.1
627.785	55618.99
628.14	55627.8
628.495	55643.62
628.85	55708.93
629.205	55642.49
629.559	55746.22
629.914	55686.33
630.269	55720
630.623	55552.32
630.978	55495.38
631.332	55690.17
631.687	55649.72
632.041	55561.14
632.396	55652.89
632.75	55621.02
633.104	55631.42
633.459	55479.78
633.813	55481.82
634.167	55549.84
634.521	55548.93
634.875	55592.55
635.229	55507.13
635.583	55410.63
635.937	55394.14
636.291	55402.27
636.645	55429.16
636.999	55301.03
637.352	55438.66
637.706	55210.41
638.06	55417.19
638.413	55283.18
638.767	55171.32
639.121	55246.12
639.474	55170.41
639.828	55115.73
640.181	55185.33
640.534	55139.23
640.888	55112.56
641.241	54904.88
641.594	55025.56
641.947	55122.51
642.301	54932
642.654	55034.15
643.007	54933.13
643.36	54993.02
643.713	54870.08
644.066	54969.52
644.419	54739.01
644.771	54461.05
645.124	54217.22
645.477	54170.44
645.83	54008.64
646.182	54068.75
646.535	53948.75
646.888	54002.53
647.24	53984.46
647.593	54058.35
647.945	53988.98
648.298	53919.6
648.65	53807.06
649.002	53657.69
649.355	53728.19
649.707	53687.29
650.059	53564.35
650.411	53924.12
650.763	54216.99
651.115	54565.46
651.467	54374.73
651.819	54432.35
652.171	54363.88
652.523	54173.15
652.875	54293.6
653.227	54165.92
653.578	54360.27
653.93	54210.89
654.282	54122.31
654.633	54115.07
654.985	54215.86
655.337	54194.17
655.688	54143.32
656.039	54257.44
656.391	53928.19
656.742	54060.16
657.094	53989.43
657.445	54076.43
657.796	54081.18
658.147	53927.96
658.498	54071.46
658.849	54043.44
659.2	53931.8
659.551	53876.44
659.902	53993.72
660.253	53932.71
660.604	54007.73
660.955	53832.82
661.306	53964.8
661.656	53791.69
662.007	53818.13
662.358	53841.18
662.708	53862.65
663.059	53709.89
663.409	53707.4
663.76	53814.29
664.11	53786.5
664.461	53839.15
664.811	53774.07
665.161	53817.91
665.511	53668.53
665.862	53770.9
666.212	53747.85
666.562	53883.67
666.912	53733.62
667.262	53688.42
667.612	53691.36
667.962	53754.63
668.312	53636.89
668.662	53887.51
669.011	53781.3
669.361	53654.3
669.711	53798.7
670.06	53714.18
670.41	53704.01
670.76	53562.77
671.109	53768.64
671.459	53685.03
671.808	53611.58
672.157	53667.63
672.507	53521.87
672.856	53444.81
673.205	53559.16
673.554	53661.53
673.904	53459.95
674.253	53737.46
674.602	53477.35
674.951	53170.01
675.3	52962.11
675.649	53569.1
675.998	53443.23
676.346	53534.07
676.695	53431.93
677.044	53345.38
677.393	53292.5
677.741	53362.1
678.09	53216.34
678.438	53273.74
678.787	53370.69
679.135	53349.67
679.484	53142.22
679.832	53270.35
680.181	53118.26
680.529	53205.04
680.877	53148.55
681.225	53093.86
681.573	53292.05
681.922	53083.24
682.27	52992.84
682.618	53010.47
682.966	52976.12
683.314	52899.51
683.661	52938.16
684.009	52845.05
684.357	52692.29
684.705	52667.88
685.053	52788.1
685.4	52638.95
685.748	52586.53
686.095	52556.7
686.443	52365.29
686.79	52476.47
687.138	52540.2
687.485	52464.27
687.832	52358.96
688.18	52302.47
688.527	52287.33
688.874	52358.51
689.221	52353.31
689.568	52098.86
689.915	52076.71
690.262	52159.19
690.609	51953.1
690.956	51816.38
691.303	51975.24
691.65	51685.99
691.997	51769.83
692.344	51552.2
692.69	51564.86
693.037	51530.51
693.383	51299.1
693.73	51506.1
694.077	51114.93
694.423	51284.87
694.769	51116.28
695.116	51047.36
695.462	50974.59
695.808	50840.36
696.155	50926.01
696.501	50651.89
696.847	50872.67
697.193	50495.96
697.539	50546.81
697.885	50355.63
698.231	50297.32
698.577	50077.89
698.923	50234.72
699.269	49968.06
699.614	49859.59
699.96	49755.19
700.306	49852.81
700.651	49519.94
700.997	49456.89
701.342	49448.76
701.688	49284.92
702.033	49206.28
702.379	49259.61
702.724	49032.72
703.069	49169.22
703.415	48689.68
703.76	48718.61
704.105	48667.76
704.45	48657.14
704.795	48456.01
705.14	48364.72
705.485	48378.05
705.83	48132.86
706.175	48248.56
706.52	48019.42
706.865	47936.71
707.209	47729.03
707.554	47708.69
707.899	47697.84
708.243	47522.71
708.588	47502.14
708.932	47246.33
709.277	47355.25
709.621	47280.45
709.966	46949.16
710.31	47030.29
710.654	46629.4
710.998	46875.26
711.342	46825.1
711.687	46677.08
712.031	46558.89
712.375	46405.67
712.719	46372.9
713.063	46339.46
713.407	46473.47
713.75	46211.78
714.094	46062.4
714.438	45956.87
714.782	45992.35
715.125	45754.62
715.469	46033.93
715.812	45599.14
716.156	45508.07
716.499	45559.59
716.843	45674.62
717.186	45423.78
717.53	45633.94
717.873	45716.43
718.216	45396.66
718.559	45224.46
718.902	44914.64
719.246	45107.4
719.589	45036.67
719.932	44863.11
720.275	44870.8
720.617	45062.66
720.96	44836.9
721.303	44871.48
721.646	44854.98
721.989	44532.28
722.331	44758.48
722.674	44603.69
723.016	44533.86
723.359	44339.74
723.701	44471.49
724.044	44246.86
724.386	44124.6
724.729	44300.64
725.071	44150.14
725.413	44131.61
725.755	43968.22
726.097	44011.16
726.439	43749.02
726.782	43736.82
727.124	44045.28
727.465	43817.27
727.807	43765.06
728.149	43789.47
728.491	43649.13
728.833	43696.82
729.175	43572.98
729.516	43510.38
729.858	43383.38
730.199	43617.5
730.541	43596.48
730.882	43349.71
731.224	43467.22
731.565	43261.8
731.906	43278.98
732.248	43334.11
732.589	43027.68
732.93	42986.33
733.271	43046.44
733.612	43080.34
733.953	43061.35
734.294	42930.06
734.635	42984.07
734.976	43011.41
735.317	42863.84
735.658	42842.83
735.999	42831.53
736.339	42792.21
736.68	42872.21
737.021	42679.22
737.361	42674.47
737.702	42909.49
738.042	42683.51
738.383	42733.23
738.723	42751.31
739.063	42485.55
739.404	42675.83
739.744	42516.28
740.084	42440.13
740.424	42539.79
740.764	42412.33
741.104	42677.63
741.444	42364.65
741.784	42246.46
742.124	42433.35
742.464	42352.67
742.804	42330.07
743.143	42068.84
743.483	42395.38
743.823	42209.4
744.162	42159
744.502	42268.83
744.841	42165.56
745.181	42270.41
745.52	42188.16
745.86	42245.78
746.199	42174.37
746.538	42181.15
746.877	42262.5
747.216	42248.49
747.556	42205.78
747.895	42177.99
748.234	42184.77
748.573	42087.37
748.911	41947.26
749.25	42122.85
749.589	41872.68
749.928	41961.27
750.267	42100.7
750.605	42037.65
750.944	41996.52
751.283	41947.94
751.621	42050.31
751.96	41817.32
752.298	41801.5
752.636	41925.11
752.975	41757.89
753.313	41696.87
753.651	41952.23
753.989	41727.6
754.327	41808.73
754.666	41540.72
