Data from 14-1119_FLMS001491_010.txt Node
Date: Thu Apr 19 16:10:01 BST 2018
User: hsy
Spectrometer: FLMS00149
Trigger mode: 0
Integration Time (sec): 1.000000E-2
Scans to average: 10
Electric dark correction enabled: true
Nonlinearity correction enabled: false
Boxcar width: 0
XAxis mode: Wavelengths
Number of Pixels in Spectrum: 2048
>>>>>Begin Spectral Data<<<<<
341.393	-8.49
341.776	-8.49
342.16	-8.49
342.543	-61.37
342.927	-77.64
343.31	-87.81
343.693	-63.63
344.077	-60.01
344.46	-49.17
344.843	-53.01
345.226	-46.91
345.61	-13.91
345.993	-26.12
346.376	-28.6
346.759	0.55
347.142	45.97
347.525	29.93
347.908	59.31
348.291	83.26
348.674	98.18
349.057	111.96
349.44	108.34
349.823	132.07
350.206	173.2
350.588	223.37
350.971	241.67
351.354	278.28
351.737	269.7
352.119	322.58
352.502	312.63
352.884	311.5
353.267	312.41
353.65	342.91
354.032	330.71
354.414	349.92
354.797	340.88
355.179	355.12
355.562	365.74
355.944	361.22
356.326	366.87
356.709	372.52
357.091	384.5
357.473	389.24
357.855	378.39
358.238	373.2
358.62	385.63
359.002	384.27
359.384	394.66
359.766	372.97
360.148	358.51
360.53	379.07
360.912	367.77
361.294	377.04
361.676	396.02
362.057	360.99
362.439	371.16
362.821	363.25
363.203	363.03
363.584	364.16
363.966	380.43
364.348	389.92
364.729	363.71
365.111	356.02
365.493	372.07
365.874	354.44
366.256	337.94
366.637	357.83
367.019	388.56
367.4	375.91
367.781	391.5
368.163	331.62
368.544	344.27
368.925	366.64
369.306	372.97
369.688	368.68
370.069	351.28
370.45	350.6
370.831	364.61
371.212	344.5
371.593	361.67
371.974	367.55
372.355	363.25
372.736	381.11
373.117	370.48
373.498	361.9
373.879	391.95
374.26	361.67
374.641	393.08
375.021	379.3
375.402	382.01
375.783	398.51
376.163	372.97
376.544	398.51
376.925	393.53
377.305	394.44
377.686	386.53
378.066	376.81
378.447	406.19
378.827	403.25
379.208	401.67
379.588	392.63
379.968	397.83
380.349	415.46
380.729	408.22
381.109	399.86
381.489	411.84
381.87	413.42
382.25	436.02
382.63	410.03
383.01	394.89
383.39	424.72
383.77	429.24
384.15	424.27
384.53	400.77
384.91	441.67
385.29	426.08
385.67	448.9
386.049	452.52
386.429	445.06
386.809	445.06
387.189	413.42
387.568	432.4
387.948	451.84
388.328	456.36
388.707	458.84
389.087	459.75
389.466	484.61
389.846	475.79
390.225	471.95
390.605	474.44
390.984	479.41
391.363	480.76
391.743	484.83
392.122	512.18
392.501	507.88
392.881	494.78
393.26	485.51
393.639	516.02
394.018	492.29
394.397	492.06
394.776	495.68
395.155	514.89
395.534	506.75
395.913	517.83
396.292	530.48
396.671	527.32
397.05	523.02
397.429	533.87
397.808	523.93
398.186	545.17
398.565	538.62
398.944	529.8
399.323	542.68
399.701	532.51
400.08	545.85
400.458	551.95
400.837	542.68
401.215	574.32
401.594	582.91
401.972	574.77
402.351	578.61
402.729	559.63
403.107	584.26
403.486	572.06
403.864	587.2
404.242	615.9
404.62	610.7
404.999	611.16
405.377	622.91
405.755	613.42
406.133	620.65
406.511	639.4
406.889	652.29
407.267	663.81
407.645	641.44
408.023	682.11
408.401	696.58
408.779	694.77
409.156	706.07
409.534	699.52
409.912	719.63
410.29	719.85
410.667	727.31
411.045	757.14
411.422	747.88
411.8	751.27
412.178	760.08
412.555	775.9
412.933	791.49
413.31	799.85
413.687	823.13
414.065	824.26
414.442	824.26
414.819	843.01
415.197	871.26
415.574	899.96
415.951	884.14
416.328	900.19
416.705	901.77
417.082	874.88
417.46	897.48
417.837	918.04
418.214	948.55
418.591	944.25
418.967	955.55
419.344	968.89
419.721	949.9
420.098	957.59
420.475	979.96
420.852	987.87
421.228	991.49
421.605	988.32
421.982	1014.31
422.358	1045.5
422.735	1056.12
423.111	1062.9
423.488	1073.29
423.864	1069
424.241	1112.61
424.617	1111.71
424.994	1119.84
425.37	1123.69
425.746	1089.11
426.123	1122.56
426.499	1164.14
426.875	1165.72
427.251	1170.46
427.627	1213.4
428.003	1187.41
428.379	1225.38
428.756	1226.28
429.132	1259.05
429.507	1278.94
429.883	1295.43
430.259	1280.52
430.635	1288.2
431.011	1332.72
431.387	1333.85
431.763	1369.55
432.138	1376.33
432.514	1391.93
432.89	1401.42
433.265	1417.01
433.641	1409.33
434.016	1443
434.392	1461.98
434.767	1464.92
435.143	1497.01
435.518	1547.4
435.894	1497.69
436.269	1536.1
436.644	1551.7
437.02	1587.85
437.395	1607.29
437.77	1600.96
438.145	1606.16
438.52	1626.72
438.895	1635.76
439.271	1640.73
439.646	1678.92
440.021	1701.52
440.395	1682.31
440.77	1702.65
441.145	1718.02
441.52	1732.26
441.895	1760.5
442.27	1760.73
442.645	1744.23
443.019	1797.79
443.394	1781.29
443.769	1763.44
444.143	1822.42
444.518	1826.04
444.892	1823.78
445.267	1828.75
445.641	1861.29
446.016	1881.86
446.39	1882.08
446.764	1861.97
447.139	1878.69
447.513	1908.3
447.887	1918.69
448.262	1927.28
448.636	1925.25
449.01	1951.69
449.384	1962.99
449.758	2013.61
450.132	1998.92
450.506	2014.51
450.88	2039.37
451.254	2038.92
451.628	2066.94
452.002	2081.85
452.376	2092.25
452.75	2113.72
453.123	2108.52
453.497	2164.79
453.871	2180.61
454.244	2220.61
454.618	2230.32
454.992	2289.76
455.365	2309.42
455.739	2320.26
456.112	2353.03
456.486	2377.44
456.859	2411.79
457.232	2463.54
457.606	2452.69
457.979	2465.57
458.352	2511.67
458.725	2535.4
459.099	2586.02
459.472	2611.56
459.845	2680.48
460.218	2628.96
460.591	2717.99
460.964	2699.69
461.337	2752.79
461.71	2805.9
462.083	2867.14
462.456	2854.49
462.829	2869.4
463.201	2875.5
463.574	2917.08
463.947	2934.03
464.32	3006.8
464.692	2993.92
465.065	3059.91
465.438	3074.82
465.81	3120.02
466.183	3134.71
466.555	3216.29
466.928	3268.04
467.3	3231.65
467.672	3281.59
468.045	3323.63
468.417	3331.31
468.789	3379.45
469.161	3413.34
469.534	3417.18
469.906	3516.39
470.278	3554.36
470.65	3606.11
471.022	3686.33
471.394	3694.47
471.766	3715.71
472.138	3794.58
472.51	3849.94
472.882	3898.08
473.253	3963.84
473.625	3985.08
473.997	4091.52
474.369	4091.29
474.74	4149.37
475.112	4229.14
475.484	4289.7
475.855	4372.41
476.227	4392.53
476.598	4516.14
476.97	4553.2
477.341	4647.21
477.713	4689.02
478.084	4752.74
478.455	4872.97
478.827	4957.03
479.198	5041.55
479.569	5096.24
479.94	5207.65
480.311	5270.02
480.682	5392.73
481.053	5523.57
481.424	5572.83
481.795	5597.47
482.166	5739.83
482.537	5816.67
482.908	5942.99
483.279	6012.14
483.65	6134.4
484.021	6338.01
484.391	6390.44
484.762	6457.1
485.133	6497.78
485.503	6587.5
485.874	6786.81
486.244	6835.17
486.615	7031.33
486.985	7097.99
487.356	7272.45
487.726	7366.01
488.097	7578.66
488.467	7609.84
488.837	7760.12
489.207	7916.5
489.578	8035.37
489.948	8139.32
490.318	8290.95
490.688	8352.87
491.058	8565.3
491.428	8704.05
491.798	8759.42
492.168	9008
492.538	9050.03
492.908	9207.77
493.278	9333.19
493.648	9440.98
494.017	9641.43
494.387	9685.72
494.757	9858.14
495.126	10017.46
495.496	10111.92
495.866	10274.63
496.235	10354.63
496.605	10623.55
496.974	10617.45
497.344	10833.26
497.713	10955.29
498.082	11073.03
498.452	11236.41
498.821	11341.72
499.19	11424.88
499.559	11620.81
499.928	11707.36
500.298	11870.52
500.667	12016.05
501.036	12126.56
501.405	12286.33
501.774	12386.89
502.143	12444.07
502.512	12635.47
502.88	12858.29
503.249	12913.43
503.618	13062.58
503.987	13098.51
504.356	13412.85
504.724	13500.99
505.093	13595.67
505.462	13653.3
505.83	13721.09
506.199	13974.19
506.567	14216
506.936	14240.4
507.304	14437.69
507.672	14503.67
508.041	14669.77
508.409	14862.31
508.777	14914.96
509.145	15127.38
509.514	15145.69
509.882	15389.07
510.25	15360.15
510.618	15560.37
510.986	15688.5
511.354	15839.23
511.722	16053.69
512.09	16181.37
512.458	16126.45
512.826	16474.02
513.193	16348.82
513.561	16563.05
513.929	16732.54
514.297	16858.41
514.664	17082.81
515.032	17124.39
515.4	17308.12
515.767	17461.79
516.135	17545.63
516.502	17542.24
516.869	17875.11
517.237	17956.69
517.604	17891.83
517.972	18219.96
518.339	18290.01
518.706	18358.49
519.073	18482.32
519.44	18586.95
519.808	18883.67
520.175	18951.01
520.542	19217.22
520.909	19283.89
521.276	19352.81
521.643	19611.56
522.009	19749.41
522.376	19887.94
522.743	19920.25
523.11	20226.23
523.477	20460.35
523.843	20535.15
524.21	20839.55
524.577	20975.14
524.943	21021.92
525.31	21247.9
525.676	21549.36
526.043	21605.63
526.409	21706.19
526.776	21953.42
527.142	22036.58
527.508	22284.94
527.874	22376.23
528.241	22596.34
528.607	22600.18
528.973	22950
529.339	22864.81
529.705	23161.52
530.071	23361.52
530.437	23492.59
530.803	23566.71
531.169	23734.39
531.535	23847.61
531.901	24008.96
532.267	24132.12
532.632	24328.72
532.998	24296.18
533.364	24499.34
533.73	24523.3
534.095	24846
534.461	24831.76
534.826	24938.88
535.192	25117.18
535.557	25350.39
535.923	25396.04
536.288	25450.73
536.653	25564.62
537.019	25546.09
537.384	25642.14
537.749	25714
538.114	25844.39
538.479	25927.33
538.845	26009.36
539.21	26024.5
539.575	26121.9
539.94	26167.09
540.305	26251.84
540.67	26327.54
541.034	26387.65
541.399	26543.13
541.764	26575.67
542.129	26564.82
542.494	26721.66
542.858	26923.23
543.223	26859.28
543.587	26974.76
543.952	27043
544.316	27079.84
544.681	27101.99
545.045	27345.14
545.41	27418.14
545.774	27312.38
546.138	27291.81
546.503	27523.22
546.867	27506.72
547.231	27557.34
547.595	27740.84
547.959	27844.11
548.324	27847.73
548.688	27797.11
549.052	28011.79
549.416	27961.85
549.779	28083.2
550.143	28121.17
550.507	28251.79
550.871	28463.76
551.235	28408.84
551.599	28681.6
551.962	28683.41
552.326	28656.75
552.689	28809.28
553.053	28516.41
553.417	28835.95
553.78	29109.84
554.143	29068.94
554.507	29110.75
554.87	29288.59
555.234	29495.82
555.597	29368.82
555.96	29588.93
556.323	29609.72
556.686	29722.71
557.05	29821.46
557.413	29912.08
557.776	29974.23
558.139	30252.18
558.502	30294.9
558.865	30309.58
559.228	30569.24
559.59	30605.62
559.953	30737.6
560.316	31046.06
560.679	30901.89
561.041	31088.1
561.404	31182.1
561.767	31491.47
562.129	31346.62
562.492	31715.2
562.854	31711.81
563.217	31699.15
563.579	31913.61
563.941	32082.87
564.304	32183.89
564.666	32613.25
565.028	32401.96
565.39	32613.7
565.753	32787.94
566.115	32801.72
566.477	32962.62
566.839	33144.31
567.201	33458.2
567.563	33557.63
567.925	33594.02
568.287	33667.24
568.648	33768.25
569.01	34093.67
569.372	34278.75
569.734	34273.55
570.095	34464.05
570.457	34769.35
570.819	34767.55
571.18	34736.13
571.542	35104.49
571.903	35068.33
572.265	35365.95
572.626	35412.28
572.987	35592.61
573.349	35869.21
573.71	35897.01
574.071	36034.41
574.432	36332.93
574.794	36731.34
575.155	36631
575.516	36820.37
575.877	36928.17
576.238	36924.78
576.599	37055.17
576.96	37240.25
577.32	37509.4
577.681	37461.03
578.042	37754.59
578.403	37885.2
578.763	37881.81
579.124	38033.22
579.485	38357.96
579.845	38518.86
580.206	38616.48
580.566	38628.01
580.927	38650.16
581.287	39057.6
581.648	39130.82
582.008	39410.14
582.368	39418.95
582.728	39484.03
583.089	39726.74
583.449	39865.27
583.809	39963.79
584.169	40175.99
584.529	40129.21
584.889	40752.47
585.249	40646.71
585.609	40672.7
585.969	41078.11
586.329	41039.92
586.688	41383.19
587.048	41419.12
587.408	41642.62
587.768	41820.02
588.127	41975.94
588.487	42042.84
588.846	42698.64
589.206	42380.68
589.565	42540.9
589.925	43058.4
590.284	43130.72
590.643	43318.28
591.003	43540.65
591.362	43917.59
591.721	44035.1
592.08	44099.96
592.44	44479.61
592.799	44611.58
593.158	44765.02
593.517	44856.77
593.876	45325.46
594.235	45331.11
594.593	45474.84
594.952	45848.38
595.311	45815.39
595.67	46118.66
596.029	46484.98
596.387	46763.62
596.746	46956.83
597.104	46966.1
597.463	47125.87
597.822	47522.69
598.18	47473.65
598.538	47576.93
598.897	48121.55
599.255	47943.92
599.613	48511.14
599.972	48405.15
600.33	48705.71
600.688	48657.35
601.046	48994.97
601.404	49363.32
601.762	49457.33
602.12	49668.85
602.478	49739.81
602.836	49823.65
603.194	49789.52
603.552	50109.52
603.91	50192.23
604.268	50455.95
604.625	50604.42
604.983	50694.81
605.341	50658.65
605.698	51014.12
606.056	51266.32
606.413	51158.75
606.771	51471.51
607.128	51563.94
607.485	51648.68
607.843	51758.29
608.2	51871.28
608.557	52186.3
608.914	52156.69
609.272	52388.1
609.629	52584.25
609.986	52728.43
610.343	52718.03
610.7	52987.63
611.057	52945.37
611.414	52949.89
611.771	53216.33
612.127	53324.35
612.484	53445.7
612.841	53653.15
613.198	53525.92
613.554	53572.48
613.911	53803.43
614.267	53912.35
614.624	53872.35
614.98	54088.62
615.337	54339.24
615.693	54341.27
616.05	54346.01
616.406	54482.73
616.762	54437.99
617.118	54581.26
617.475	54605.22
617.831	54732.9
618.187	54811.09
618.543	54858.77
618.899	55075.94
619.255	54998.2
619.611	55030.29
619.967	55243.84
620.323	55317.74
620.678	55218.99
621.034	55258.98
621.39	55318.87
621.746	55370.85
622.101	55725.41
622.457	55437.74
622.812	55543.72
623.168	55637.05
623.523	55613.55
623.879	55811.51
624.234	55647.9
624.589	55777.39
624.945	55760.89
625.3	55846.54
625.655	55911.4
626.01	55929.93
626.365	55898.06
626.72	55858.29
627.075	55859.2
627.43	55860.78
627.785	55961.57
628.14	55974.9
628.495	56043.82
628.85	55993.65
629.205	55948.01
629.559	56052.64
629.914	55981.23
630.269	56060.77
630.623	55876.6
630.978	55843.15
631.332	56036.37
631.687	55991.85
632.041	55966.31
632.396	56034.78
632.75	55904.84
633.104	55982.36
633.459	55828.24
633.813	55894.45
634.167	55862.36
634.521	55795.24
634.875	55893.32
635.229	55795.24
635.583	55674.12
635.937	55740.33
636.291	55721.35
636.645	55701.46
636.999	55500.11
637.352	55706.66
637.706	55447.68
638.06	55603.61
638.413	55526.77
638.767	55466.66
639.121	55484.97
639.474	55369.26
639.828	55435.48
640.181	55338.3
640.534	55448.13
640.888	55330.17
641.241	55276.61
641.594	55284.29
641.947	55460.79
642.301	55277.97
642.654	55299.89
643.007	55191.87
643.36	55288.36
643.713	55155.26
644.066	55309.38
644.419	55086.56
644.771	54781.03
645.124	54551.88
645.477	54550.53
645.83	54431.44
646.182	54312.57
646.535	54332.46
646.888	54339.46
647.24	54316.41
647.593	54458.1
647.945	54369.74
648.298	54259.01
648.65	54163.87
649.002	54058.34
649.355	53992.35
649.707	53994.84
650.059	53980.37
650.411	54360.25
650.763	54440.93
651.115	54849.05
651.467	54743.74
651.819	54822.39
652.171	54666.68
652.523	54606.35
652.875	54611.32
653.227	54561.6
653.578	54756.63
653.93	54713.69
654.282	54529.74
654.633	54541.04
654.985	54560.47
655.337	54547.59
655.688	54529.06
656.039	54609.51
656.391	54369.97
656.742	54465.33
657.094	54376.3
657.445	54492.45
657.796	54422.62
658.147	54317.99
658.498	54394.37
658.849	54391.21
659.2	54282.97
659.551	54246.58
659.902	54494.03
660.253	54261.5
660.604	54326.13
660.955	54249.07
661.306	54316.41
661.656	54221.95
662.007	54264.89
662.358	54302.63
662.708	54222.18
663.059	54225.11
663.409	54047.04
663.76	54247.71
664.11	54196.41
664.461	54260.14
664.811	54200.48
665.161	54198.67
665.511	54069.64
665.862	54114.61
666.212	54134.95
666.562	54174.49
666.912	54149.64
667.262	54036.42
667.612	54064.67
667.962	54129.75
668.312	54159.35
668.662	54205
669.011	54112.57
669.361	54070.09
669.711	54087.04
670.06	54070.99
670.41	54008.17
670.76	53960.49
671.109	54005.46
671.459	53946.25
671.808	53946.7
672.157	54014.05
672.507	53851.34
672.856	53839.81
673.205	53939.47
673.554	53945.57
673.904	53846.14
674.253	54094.72
674.602	53801.62
674.951	53455.64
675.3	53345.36
675.649	53806.37
675.998	53898.57
676.346	53795.29
676.695	53900.83
677.044	53719.36
677.393	53751.23
677.741	53878.68
678.09	53728.18
678.438	53628.29
678.787	53762.08
679.135	53732.7
679.484	53486.15
679.832	53643.66
680.181	53586.71
680.529	53587.84
680.877	53514.4
681.225	53393.05
681.573	53654.51
681.922	53562.08
682.27	53382.65
682.618	53367.06
682.966	53338.13
683.314	53307.62
683.661	53390.11
684.009	53160.73
684.357	53137.91
684.705	53109.66
685.053	53161.19
685.4	53088.65
685.748	53000.29
686.095	53034.41
686.443	52964.81
686.79	52855.43
687.138	53007.97
687.485	52958.48
687.832	52770.46
688.18	52745.6
688.527	52671.48
688.874	52593.52
689.221	52578.6
689.568	52507.64
689.915	52385.39
690.262	52496.12
690.609	52377.93
690.956	52175.68
691.303	52204.15
691.65	52041.67
691.997	52111.72
692.344	51939.98
692.69	51873.76
693.037	52015.68
693.383	51651.85
693.73	51740.66
694.077	51601.23
694.423	51562.13
694.769	51376.83
695.116	51434.45
695.462	51358.97
695.808	51238.98
696.155	51354
696.501	51065.87
696.847	51203.27
697.193	50861.13
697.539	50896.39
697.885	50581.37
698.231	50585.66
698.577	50556.28
698.923	50551.76
699.269	50346.57
699.614	50133.02
699.96	50259.12
700.306	50170.98
700.651	49966.24
700.997	49799.92
701.342	49820.71
701.688	49696.19
702.033	49640.38
702.379	49570.55
702.724	49390.66
703.069	49490.32
703.415	49194.96
703.76	49056.21
704.105	49034.74
704.45	49049.43
704.795	48759.95
705.14	48581.65
705.485	48687.41
705.83	48467.53
706.175	48544.81
706.52	48474.3
706.865	48278.38
707.209	48134.88
707.554	48033.64
707.899	48059.85
708.243	47785.74
708.588	47862.12
708.932	47710.26
709.277	47669.35
709.621	47580.54
709.966	47319.98
710.31	47449.47
710.654	47155.24
710.998	47307.1
711.342	47279.53
711.687	47056.26
712.031	46982.59
712.375	46743.28
712.719	46717.97
713.063	46658.53
713.407	46765.2
713.75	46617.18
714.094	46534.02
714.438	46380.8
714.782	46330.41
715.125	46165.44
715.469	46457.18
715.812	45974.03
716.156	45919.8
716.499	45795.96
716.843	45983.52
717.186	45741.5
717.53	45920.25
717.873	45815.84
718.216	45740.59
718.559	45589.41
718.902	45219.02
719.246	45435.97
719.589	45433.71
719.932	45180.83
720.275	45285.69
720.617	45188.74
720.96	45024.45
721.303	45228.51
721.646	45100.83
721.989	44734.74
722.331	44870.33
722.674	44782.2
723.016	44727.74
723.359	44605.93
723.701	44745.14
724.044	44550.11
724.386	44336.33
724.729	44582.43
725.071	44619.72
725.413	44326.39
725.755	44331.36
726.097	44283.45
726.439	44105.15
726.782	44082.33
727.124	44366.39
727.465	44172.5
727.807	43890.92
728.149	44011.82
728.491	43925.5
728.833	43956.01
729.175	43862.45
729.516	43819.74
729.858	43627.43
730.199	43880.75
730.541	43667.2
730.882	43442.35
731.224	43539.52
731.565	43347.89
731.906	43513.08
732.248	43478.5
732.589	43205.97
732.93	43303.59
733.271	43236.02
733.612	43368.68
733.953	43375.68
734.294	43145.86
734.635	43184.05
734.976	43276.02
735.317	43164.61
735.658	43158.29
735.999	43030.38
736.339	43086.2
736.68	43051.17
737.021	43096.14
737.361	42799.2
737.702	43155.57
738.042	42854.57
738.383	42923.26
738.723	43046.88
739.063	42727.56
739.404	43090.04
739.744	42797.39
740.084	42672.2
740.424	42836.03
740.764	42526.44
741.104	42915.35
741.444	42674.68
741.784	42594.69
742.124	42814.34
742.464	42786.77
742.804	42602.37
743.143	42542.48
743.483	42723.04
743.823	42481.69
744.162	42448.02
744.502	42593.33
744.841	42375.26
745.181	42718.3
745.52	42353.79
745.86	42535.03
746.199	42363.73
746.538	42578.64
746.877	42644.18
747.216	42522.6
747.556	42393.56
747.895	42588.13
748.234	42497.06
748.573	42446.67
748.911	42224.3
749.25	42456.61
749.589	42317.63
749.928	42356.27
750.267	42353.56
750.605	42327.12
750.944	42296.61
751.283	42355.37
751.621	42461.58
751.96	42269.95
752.298	42316.73
752.636	42319.66
752.975	42152.89
753.313	42052.33
753.651	42332.09
753.989	42095.26
754.327	42135.04
754.666	41894.59
