Data from 14-1119_FLMS001491_008.txt Node
Date: Thu Apr 19 16:09:55 BST 2018
User: hsy
Spectrometer: FLMS00149
Trigger mode: 0
Integration Time (sec): 1.000000E-2
Scans to average: 10
Electric dark correction enabled: true
Nonlinearity correction enabled: false
Boxcar width: 0
XAxis mode: Wavelengths
Number of Pixels in Spectrum: 2048
>>>>>Begin Spectral Data<<<<<
341.393	-2.4
341.776	-2.4
342.16	-2.4
342.543	-34.72
342.927	-61.38
343.31	-73.59
343.693	-55.28
344.077	-83.75
344.46	-56.18
344.843	-40.37
345.226	-52.8
345.61	-54.6
345.993	-18.22
346.376	-3.98
346.759	5.28
347.142	4.83
347.525	54.55
347.908	56.81
348.291	80.08
348.674	114.88
349.057	122.34
349.44	135.22
349.823	139.74
350.206	163.24
350.588	214.54
350.971	228.1
351.354	265.61
351.737	254.99
352.119	265.16
352.502	292.73
352.884	304.03
353.267	346.74
353.65	337.03
354.032	351.94
354.414	346.29
354.797	363.92
355.179	345.16
355.562	380.19
355.944	378.15
356.326	383.35
356.709	392.62
357.091	374.09
357.473	385.16
357.855	367.53
358.238	365.27
358.62	391.71
359.002	388.1
359.384	371.37
359.766	392.16
360.148	386.29
360.53	374.76
360.912	376.57
361.294	376.8
361.676	388.1
362.057	376.57
362.439	372.96
362.821	378.83
363.203	383.58
363.584	371.6
363.966	365.72
364.348	368.66
364.729	373.63
365.111	375.44
365.493	366.63
365.874	367.08
366.256	352.39
366.637	353.3
367.019	390.36
367.4	380.41
367.781	361.43
368.163	361.66
368.544	390.58
368.925	366.4
369.306	347.87
369.688	366.18
370.069	369.11
370.45	382
370.831	369.11
371.212	367.31
371.593	385.84
371.974	363.01
372.355	369.34
372.736	377.48
373.117	377.7
373.498	386.29
373.879	383.58
374.26	376.8
374.641	364.82
375.021	363.24
375.402	360.98
375.783	378.83
376.163	380.64
376.544	382.67
376.925	389
377.305	398.72
377.686	380.41
378.066	387.87
378.447	406.4
378.827	413.86
379.208	401.66
379.588	399.62
379.968	412.05
380.349	404.82
380.729	447.3
381.109	410.24
381.489	420.64
381.87	420.64
382.25	446.4
382.63	393.29
383.01	433.29
383.39	422.22
383.77	427.64
384.15	425.84
384.53	424.71
384.91	423.58
385.29	429.68
385.67	440.75
386.049	433.52
386.429	438.72
386.809	447.53
387.189	451.15
387.568	452.73
387.948	458.38
388.328	473.74
388.707	466.06
389.087	460.41
389.466	443.91
389.846	457.93
390.225	479.62
390.605	477.36
390.984	485.72
391.363	473.74
391.743	511.48
392.122	490.02
392.501	480.3
392.881	497.02
393.26	518.49
393.639	522.33
394.018	511.03
394.397	509
394.776	489.11
395.155	513.52
395.534	527.08
395.913	513.97
396.292	508.55
396.671	505.38
397.05	530.47
397.429	532.27
397.808	560.52
398.186	521.2
398.565	539.51
398.944	528.43
399.323	536.34
399.701	564.14
400.08	553.97
400.458	575.21
400.837	573.85
401.215	570.47
401.594	573.63
401.972	587.19
402.351	579.5
402.729	595.78
403.107	591.48
403.486	625.38
403.864	598.94
404.242	607.98
404.62	621.99
404.999	625.61
405.377	646.62
405.755	628.09
406.133	655.89
406.511	649.33
406.889	674.87
407.267	671.71
407.645	665.6
408.023	697.69
408.401	699.05
408.779	715.09
409.156	708.54
409.534	710.35
409.912	734.75
410.29	760.97
410.667	743.57
411.045	761.65
411.422	755.09
411.8	784.47
412.178	779.27
412.555	823.34
412.933	816.56
413.31	821.76
413.687	849.55
414.065	852.72
414.442	864.24
414.819	858.82
415.197	864.92
415.574	892.72
415.951	912.15
416.328	914.64
416.705	919.61
417.082	928.65
417.46	904.92
417.837	927.97
418.214	967.97
418.591	974.97
418.967	1000.06
419.344	976.56
419.721	1008.87
420.098	989.21
420.475	1027.4
420.852	1012.49
421.228	1040.51
421.605	1037.8
421.982	1031.92
422.358	1058.14
422.735	1051.81
423.111	1084.58
423.488	1095.2
423.864	1108.76
424.241	1117.8
424.617	1110.56
424.994	1113.05
425.37	1122.09
425.746	1146.5
426.123	1160.05
426.499	1175.65
426.875	1172.48
427.251	1204.35
427.627	1244.35
428.003	1239.83
428.379	1223.1
428.756	1236.44
429.132	1260.62
429.507	1267.17
429.883	1307.17
430.259	1308.07
430.635	1325.7
431.011	1317.56
431.387	1358.92
431.763	1413.83
432.138	1393.95
432.514	1385.59
432.89	1410.22
433.265	1458.35
433.641	1478.24
434.016	1473.27
434.392	1492.93
434.767	1518.46
435.143	1510.78
435.518	1548.97
435.894	1594.62
436.269	1576.54
436.644	1596.2
437.02	1625.58
437.395	1619.48
437.77	1628.29
438.145	1657.67
438.52	1676.42
438.895	1687.95
439.271	1675.52
439.646	1732.69
440.021	1738.8
440.395	1734.73
440.77	1722.07
441.145	1791.68
441.52	1789.19
441.895	1776.31
442.27	1795.52
442.645	1775.63
443.019	1804.33
443.394	1841.84
443.769	1852.24
444.143	1847.95
444.518	1852.01
444.892	1811.79
445.267	1880.04
445.641	1915.06
446.016	1920.94
446.39	1918.68
446.764	1918.68
447.139	1923.65
447.513	1930.66
447.887	1959.13
448.262	1947.83
448.636	1981.5
449.01	2030.54
449.384	2007.72
449.758	2038.68
450.132	2042.06
450.506	2062.63
450.88	2056.98
451.254	2089.52
451.628	2117.77
452.002	2148.95
452.376	2162.06
452.75	2167.49
453.123	2201.83
453.497	2226.92
453.871	2234.83
454.244	2301.72
454.618	2346.92
454.992	2314.6
455.365	2362.06
455.739	2402.06
456.112	2415.16
456.486	2456.74
456.859	2456.74
457.232	2495.84
457.606	2511.88
457.979	2550.3
458.352	2599.56
458.725	2619.9
459.099	2656.06
459.472	2659.9
459.845	2726.79
460.218	2728.37
460.591	2777.19
460.964	2762.5
461.337	2780.12
461.71	2917.75
462.083	2936.05
462.456	2931.08
462.829	2923.17
463.201	3011.76
463.574	3014.02
463.947	3054.47
464.32	3127.46
464.692	3118.87
465.065	3154.8
465.438	3152.77
465.81	3222.6
466.183	3242.94
466.555	3317.29
466.928	3314.8
467.3	3400.22
467.672	3341.24
468.045	3452.42
468.417	3417.4
468.789	3507.56
469.161	3500.11
469.534	3550.95
469.906	3625.3
470.278	3665.07
470.65	3679.08
471.022	3765.41
471.394	3818.97
471.766	3863.71
472.138	3943.71
472.51	4030.71
472.882	4030.71
473.253	4070.03
473.625	4145.06
473.997	4254.66
474.369	4206.53
474.74	4295.57
475.112	4337.6
475.484	4427.54
475.855	4526.07
476.227	4542.56
476.598	4701.43
476.97	4723.58
477.341	4817.81
477.713	4883.8
478.084	4939.84
478.455	5041.76
478.827	5100.74
479.198	5265.03
479.569	5277.01
479.94	5387.74
480.311	5403.56
480.682	5553.16
481.053	5701.4
481.424	5751.57
481.795	5853.94
482.166	5951.34
482.537	6022.07
482.908	6164.89
483.279	6242.41
483.65	6401.27
484.021	6501.61
484.391	6641.49
484.762	6693.24
485.133	6734.37
485.503	6897.98
485.874	7039.67
486.244	7140.91
486.615	7309.95
486.985	7398.31
487.356	7519.21
487.726	7595.14
488.097	7804.17
488.467	7892.53
488.837	8103.83
489.207	8150.83
489.578	8341.11
489.948	8509.01
490.318	8617.71
490.688	8642.8
491.058	8829.23
491.428	8983.8
491.798	9141.09
492.168	9272.16
492.538	9415.43
492.908	9598.93
493.278	9749.88
493.648	9826.95
494.017	9974.29
494.387	10024
494.757	10214.73
495.126	10404.56
495.496	10507.83
495.866	10689.97
496.235	10818.78
496.605	10944.88
496.974	11071.21
497.344	11186.68
497.713	11355.04
498.082	11469.84
498.452	11602.49
498.821	11758.19
499.19	11788.93
499.559	11974.91
499.928	12173.1
500.298	12265.07
500.667	12470.27
501.036	12516.82
501.405	12708.9
501.774	12766.08
502.143	13013.75
502.512	13114.54
502.88	13220.08
503.249	13331.26
503.618	13472.05
503.987	13545.72
504.356	13672.72
504.724	13868.65
505.093	13918.59
505.462	14049.88
505.83	14168.98
506.199	14360.84
506.567	14513.6
506.936	14541.17
507.304	14826.81
507.672	14955.17
508.041	15099.35
508.409	15131.66
508.777	15341.15
509.145	15487.81
509.514	15541.37
509.882	15752.66
510.25	15760.35
510.618	16065.43
510.986	16012.55
511.354	16212.77
511.722	16441.69
512.09	16538.18
512.458	16648.46
512.826	16796.71
513.193	16822.24
513.561	16986.08
513.929	17174.1
514.297	17377.03
514.664	17508.32
515.032	17490.92
515.4	17751.93
515.767	17849.11
516.135	17975.21
516.502	17912.16
516.869	18319.6
517.237	18414.74
517.604	18294.07
517.972	18644.34
518.339	18744.9
518.706	18853.15
519.073	18959.13
519.44	19088.85
519.808	19299.24
520.175	19303.53
520.542	19617.2
520.909	19753.01
521.276	19778.77
521.643	20085.88
522.009	20150.52
522.376	20293.11
522.743	20337.4
523.11	20794.57
523.477	20869.82
523.843	21028.68
524.21	21328.56
524.577	21377.83
524.943	21499.18
525.31	21610.59
525.676	21884.26
526.043	22170.12
526.409	22297.58
526.776	22404.02
527.142	22517.68
527.508	22830.67
527.874	22950.89
528.241	23081.06
528.607	23157.44
528.973	23347.27
529.339	23466.36
529.705	23729.18
530.071	23872.23
530.437	24041.49
530.803	24222.5
531.169	24292.33
531.535	24387.69
531.901	24434.02
532.267	24575.94
532.632	24806.66
532.998	24818.87
533.364	25024.06
533.73	25137.28
534.095	25317.61
534.461	25403.71
534.826	25462.92
535.192	25568.68
535.557	25834.66
535.923	25853.42
536.288	25977.03
536.653	26051.83
537.019	26062.22
537.384	26199.85
537.749	26253.86
538.114	26375.21
538.479	26392.84
538.845	26555.54
539.21	26486.85
539.575	26680.97
539.94	26746.05
540.305	26967.74
540.67	26915.08
541.034	27113.27
541.399	27151.24
541.764	27212.7
542.129	27369.53
542.494	27371.57
542.858	27529.98
543.223	27457.22
543.587	27581.96
543.952	27622.86
544.316	27675.06
544.681	27629.87
545.045	27881.84
545.41	27900.37
545.774	28007.03
546.138	27996.86
546.503	28161.6
546.867	28138.33
547.231	28407.93
547.595	28396.4
547.959	28484.08
548.324	28539.9
548.688	28606.79
549.052	28824.86
549.416	28697.18
549.779	28656.73
550.143	28826.45
550.507	29029.6
550.871	29000
551.235	29022.15
551.599	29212.65
551.962	29263.27
552.326	29212.42
552.689	29268.47
553.053	29334.91
553.417	29584.62
553.78	29816.93
554.143	29716.59
554.507	29917.04
554.87	30020.76
555.234	30158.61
555.597	29929.92
555.96	30103.25
556.323	30202.23
556.686	30384.14
557.05	30533.97
557.413	30508.66
557.776	30634.53
558.139	30797.24
558.502	30776.45
558.865	30853.74
559.228	31119.27
559.59	31206.04
559.953	31220.73
560.316	31595.64
560.679	31499.14
561.041	31770.32
561.404	31831.34
561.767	32145.45
562.129	31900.04
562.492	32312.68
562.854	32273.59
563.217	32322.85
563.579	32409.85
563.941	32711.77
564.304	32717.64
564.666	33050.52
565.028	33070.4
565.39	33150.4
565.753	33463.16
566.115	33425.87
566.477	33630.16
566.839	33758.29
567.201	34142.24
567.563	34009.36
567.925	34254.1
568.287	34270.82
568.648	34422.91
569.01	34739.06
569.372	35039.39
569.734	34970.46
570.095	35239.38
570.457	35393.96
570.819	35450.23
571.18	35410
571.542	35721.18
571.903	35774.74
572.265	36059.02
572.626	36247.49
572.987	36287.27
573.349	36469.86
573.71	36753.47
574.071	36858.1
574.432	36968.83
574.794	37357.29
575.155	37212.21
575.516	37397.07
575.877	37554.8
576.238	37785.98
576.599	37951.63
576.96	37967
577.32	38192.75
577.681	38235.24
578.042	38455.12
578.403	38606.75
578.763	38835.45
579.124	38808.33
579.485	39132.62
579.845	39244.7
580.206	39283.12
580.566	39439.27
580.927	39630.68
581.287	39941.18
581.648	39958.58
582.008	40202.42
582.368	40424.33
582.728	40515.18
583.089	40631.11
583.449	40557.44
583.809	40748.39
584.169	41162.62
584.529	41276.29
584.889	41617.07
585.249	41641.48
585.609	41388.15
585.969	41944.29
586.329	41964.63
586.688	42242.59
587.048	42311.51
587.408	42580.89
587.768	42656.36
588.127	42867.43
588.487	43022
588.846	43619.73
589.206	43309.68
589.565	43450.69
589.925	43961.41
590.284	43987.63
590.643	44194.4
591.003	44333.61
591.362	44752.13
591.721	44838.68
592.08	45004.55
592.44	45321.6
592.799	45201.16
593.158	45553.92
593.517	45590.07
593.876	45884.53
594.235	46001.59
594.593	46274.8
594.952	46521.12
595.311	46557.73
595.67	46844.73
596.029	47194.78
596.387	47311.38
596.746	47511.83
597.104	47468.89
597.463	47622.56
597.822	48054.41
598.18	47955.43
598.538	48153.17
598.897	48616.43
599.255	48332.6
599.613	48982.07
599.972	48841.51
600.33	49060.94
600.688	49131
601.046	49302.52
601.404	49703.18
601.762	49612.79
602.12	50001.71
602.478	50052.55
602.836	50290.06
603.194	50225.43
603.552	50424.97
603.91	50394.92
604.268	50600.56
604.625	50679.43
604.983	50943.15
605.341	50798.52
605.698	51251.39
606.056	51493.19
606.413	51307.21
606.771	51762.57
607.128	51709.69
607.485	51716.69
607.843	51878.04
608.2	52153.97
608.557	52320.29
608.914	52259.95
609.272	52447.52
609.629	52671.69
609.986	52693.84
610.343	52805.93
610.7	53073.27
611.057	53037.79
611.414	53027.84
611.771	53289.08
612.127	53402.97
612.484	53426.93
612.841	53531.78
613.198	53513.71
613.554	53532.46
613.911	53851.32
614.267	53913.47
614.624	53960.25
614.98	53945.33
615.337	54282.05
615.693	54239.34
616.05	54306
616.406	54483.4
616.762	54366.56
617.118	54487.92
617.475	54539.89
617.831	54691.08
618.187	54761.58
618.543	54802.94
618.899	54983.95
619.255	54992.54
619.611	55000.45
619.967	55176.94
620.323	55286.31
620.678	55207.22
621.034	55178.75
621.39	55197.96
621.746	55252.42
622.101	55501.22
622.457	55318.63
622.812	55529.47
623.168	55569.92
623.523	55555.91
623.879	55722.91
624.234	55513.43
624.589	55666.64
624.945	55710.03
625.3	55759.07
625.655	55836.36
626.01	55861.89
626.365	55842.23
626.72	55816.92
627.075	55880.65
627.43	55934.43
627.785	55888.78
628.14	55900.54
628.495	55964.49
628.85	55975.11
629.205	55905.28
629.559	56003.13
629.914	55974.88
630.269	55917.71
630.623	55812.4
630.978	55837.71
631.332	55974.66
631.687	55923.13
632.041	55908.22
632.396	55924.04
632.75	55845.17
633.104	55901.67
633.459	55771.05
633.813	55825.51
634.167	55844.49
634.521	55831.84
634.875	55824.38
635.229	55762.69
635.583	55648.34
635.937	55650.6
636.291	55629.13
636.645	55667.77
636.999	55577.15
637.352	55694.67
637.706	55484.5
638.06	55623.25
638.413	55477.04
638.767	55440.21
639.121	55508.68
639.474	55331.51
639.828	55379.42
640.181	55361.34
640.534	55408.12
640.888	55382.81
641.241	55102.59
641.594	55214.23
641.947	55290.61
642.301	55189.82
642.654	55242.7
643.007	55072.53
643.36	55219.42
643.713	55069.6
644.066	55214.68
644.419	54967.68
644.771	54708.93
645.124	54458.77
645.477	54414.25
645.83	54348.03
646.182	54298.09
646.535	54247.25
646.888	54281.82
647.24	54134.71
647.593	54318.88
647.945	54161.82
648.298	54110.07
648.65	54020.13
649.002	53913.02
649.355	53949.4
649.707	53825.11
650.059	53876.63
650.411	54287.92
650.763	54314.81
651.115	54710.28
651.467	54561.81
651.819	54663.28
652.171	54465.09
652.523	54447.47
652.875	54484.3
653.227	54328.83
653.578	54518.65
653.93	54481.14
654.282	54296.28
654.633	54270.97
654.985	54372.21
655.337	54377.64
655.688	54295.38
656.039	54486.11
656.391	54112.56
656.742	54231.65
657.094	54160.24
657.445	54294.93
657.796	54242.95
658.147	54192.11
658.498	54177.42
658.849	54246.57
659.2	54108.04
659.551	54077.76
659.902	54214.48
660.253	54063.3
660.604	54226.91
660.955	54093.8
661.306	54205.89
661.656	54045.22
662.007	54128.83
662.358	53978.78
662.708	54070.08
663.059	54066.01
663.409	53901.49
663.76	54009.96
664.11	54057.65
664.461	54065.1
664.811	54037.08
665.161	53935.16
665.511	53905.56
665.862	54019.68
666.212	54030.75
666.562	54018.1
666.912	53975.61
667.262	53882.74
667.612	53905.11
667.962	54071.43
668.312	53826.92
668.662	53993.69
669.011	53932.45
669.361	53930.42
669.711	53907.59
670.06	53907.14
670.41	53835.51
670.76	53785.79
671.109	53952.56
671.459	53848.61
671.808	53795.96
672.157	53928.61
672.507	53722.06
672.856	53734.27
673.205	53788.05
673.554	53866.47
673.904	53713.7
674.253	53930.87
674.602	53708.28
674.951	53307.38
675.3	53234.84
675.649	53755.96
675.998	53675.74
676.346	53681.84
676.695	53737.65
677.044	53628.51
677.393	53693.81
677.741	53725.23
678.09	53606.36
678.438	53588.96
678.787	53570.88
679.135	53634.83
679.484	53366.14
679.832	53650.2
680.181	53374.5
680.529	53388.74
680.877	53315.29
681.225	53361.62
681.573	53579.01
681.922	53344.67
682.27	53350.55
682.618	53303.09
682.966	53118.24
683.314	53258.57
683.661	53244.33
684.009	53047.73
684.357	53050.67
684.705	53005.47
685.053	53093.6
685.4	52880.28
685.748	52849.77
686.095	52812.71
686.443	52691.35
686.79	52727.74
687.138	52811.35
687.485	52755.99
687.832	52643.22
688.18	52651.36
688.527	52513.05
688.874	52541.75
689.221	52531.13
689.568	52329.1
689.915	52242.55
690.262	52445.49
690.609	52346.73
690.956	52117.81
691.303	52060.18
691.65	52046.17
691.997	51929.57
692.344	51801.89
692.69	51788.33
693.037	51885.73
693.383	51386.98
693.73	51618.84
694.077	51444.61
694.423	51528.67
694.769	51343.82
695.116	51333.88
695.462	51192.41
695.808	51209.59
696.155	51175.91
696.501	50801.23
696.847	50927.11
697.193	50715.59
697.539	50789.71
697.885	50539.55
698.231	50434.46
698.577	50535.71
698.923	50398.99
699.269	50171.87
699.614	50068.15
699.96	50034.25
700.306	49991.31
700.651	49820.24
700.997	49770.53
701.342	49685.56
701.688	49578.44
702.033	49514.49
702.379	49534.83
702.724	49243.99
703.069	49288.73
703.415	48980.94
703.76	48901.62
704.105	48976.65
704.45	48788.41
704.795	48737.11
705.14	48566.27
705.485	48505.25
705.83	48295.76
706.175	48531.69
706.52	48326.5
706.865	48208.53
707.209	48074.53
707.554	47923.8
707.899	48029.78
708.243	47781.65
708.588	47879.28
708.932	47534.88
709.277	47687.87
709.621	47437.26
709.966	47225.74
710.31	47245.85
710.654	46991.17
710.998	47012.41
711.342	47144.38
711.687	46911.62
712.031	46811.06
712.375	46662.81
712.719	46725.18
713.063	46587.56
713.407	46634.56
713.75	46437.96
714.094	46329.49
714.438	46317.06
714.782	46297.85
715.125	46081.13
715.469	46223.73
715.812	45856.51
716.156	45921.82
716.499	45816.28
716.843	45837.75
717.186	45611.09
717.53	45873.23
717.873	45862.83
718.216	45716.4
718.559	45482.73
718.902	45182.85
719.246	45305.11
719.589	45148.95
719.932	44950.99
720.275	45083.87
720.617	44974.04
720.96	45007.04
721.303	44961.84
721.646	44990.99
721.989	44676.65
722.331	44926.81
722.674	44826.25
723.016	44774.73
723.359	44610.21
723.701	44682.07
724.044	44523.43
724.386	44273.95
724.729	44556.43
725.071	44579.25
725.413	44382.87
725.755	44346.94
726.097	44091.13
726.439	44005.48
726.782	44041.41
727.124	44273.95
727.465	43933.39
727.807	43944.01
728.149	44121.41
728.491	43754.87
728.833	43804.13
729.175	43848.65
729.516	43586.28
729.858	43571.59
730.199	43773.17
730.541	43702.89
730.882	43544.93
731.224	43676.68
731.565	43339.51
731.906	43581.76
732.248	43621.08
732.589	43330.24
732.93	43440.3
733.271	43307.65
733.612	43303.8
733.953	43397.36
734.294	43233.3
734.635	43131.38
734.976	43307.65
735.317	43084.38
735.658	43143.13
735.999	43010.03
736.339	42932.52
736.68	42976.36
737.021	43035.79
737.361	42911.27
737.702	43045.73
738.042	42931.84
738.383	42846.42
738.723	43110.59
739.063	42768.23
739.404	43204.15
739.744	42871.27
740.084	42819.07
740.424	42880.77
740.764	42609.81
741.104	42994.89
741.444	42739.3
741.784	42601.22
742.124	42864.27
742.464	42738.17
742.804	42600.32
743.143	42613.2
743.483	42814.55
743.823	42455.47
744.162	42648
744.502	42617.27
744.841	42568.01
745.181	42736.81
745.52	42464.5
745.86	42555.12
746.199	42449.36
746.538	42549.93
746.877	42479.65
747.216	42412.3
747.556	42317.39
747.895	42440.32
748.234	42495.01
748.573	42542.24
748.911	42366.88
749.25	42430.61
749.589	42114.23
749.928	42435.35
750.267	42417.95
750.605	42172.76
750.944	42259.31
751.283	42144.74
751.621	42396.71
751.96	42147
752.298	42173.44
752.636	42027.23
752.975	42155.36
753.313	41892.99
753.651	42223.61
753.989	41936.16
754.327	42081.24
