Data from 14-1119_FLMS001491_001.txt Node
Date: Thu Apr 19 16:09:38 BST 2018
User: hsy
Spectrometer: FLMS00149
Trigger mode: 0
Integration Time (sec): 1.000000E-2
Scans to average: 10
Electric dark correction enabled: true
Nonlinearity correction enabled: false
Boxcar width: 0
XAxis mode: Wavelengths
Number of Pixels in Spectrum: 2048
>>>>>Begin Spectral Data<<<<<
341.393	-8.43
341.776	-8.43
342.16	-8.43
342.543	-67.19
342.927	-80.07
343.31	-78.71
343.693	-85.49
344.077	-73.52
344.46	-54.98
344.843	-52.05
345.226	-32.61
345.61	-50.69
345.993	-33.29
346.376	9.42
346.759	-5.72
347.142	17.1
347.525	57.33
347.908	67.95
348.291	83.32
348.674	102.07
349.057	129.87
349.44	141.39
349.823	127.84
350.206	174.61
350.588	220.71
350.971	251
351.354	262.97
351.737	275.18
352.119	290.54
352.502	289.19
352.884	313.59
353.267	326.02
353.65	320.82
354.032	317.66
354.414	323.99
354.797	348.62
355.179	359.24
355.562	353.82
355.944	355.4
356.326	364.44
356.709	370.09
357.091	350.88
357.473	361.73
357.855	395.4
358.238	367.15
358.62	359.47
359.002	405.34
359.384	376.42
359.766	380.48
360.148	378.68
360.53	383.65
360.912	373.48
361.294	377.09
361.676	380.48
362.057	366.7
362.439	373.93
362.821	372.35
363.203	377.77
363.584	363.54
363.966	351.33
364.348	352.69
364.729	358.79
365.111	351.33
365.493	342.75
365.874	357.66
366.256	360.82
366.637	346.36
367.019	361.73
367.4	375.29
367.781	364.67
368.163	358.79
368.544	379.81
368.925	350.88
369.306	353.82
369.688	360.15
370.069	341.84
370.45	372.12
370.831	338.68
371.212	363.08
371.593	355.63
371.974	359.47
372.355	385.46
372.736	370.54
373.117	355.63
373.498	380.71
373.879	359.02
374.26	376.87
374.641	358.56
375.021	380.71
375.402	382.97
375.783	382.97
376.163	394.04
376.544	389.07
376.925	382.52
377.305	388.62
377.686	392.01
378.066	373.7
378.447	407.83
378.827	384.55
379.208	404.89
379.588	383.42
379.968	392.69
380.349	399.24
380.729	375.51
381.109	394.72
381.489	418.9
381.87	405.34
382.25	412.57
382.63	398.79
383.01	410.54
383.39	432.23
383.77	406.7
384.15	415.51
384.53	429.3
384.91	422.52
385.29	419.58
385.67	418.68
386.049	450.54
386.429	448.28
386.809	444.21
387.189	451.89
387.568	440.82
387.948	429.07
388.328	440.37
388.707	458.67
389.087	440.14
389.466	471.78
389.846	447.38
390.225	467.04
390.605	472.23
390.984	473.59
391.363	454.61
391.743	465
392.122	450.99
392.501	479.24
392.881	503.42
393.26	497.77
393.639	490.99
394.018	497.09
394.397	498.67
394.776	480.37
395.155	495.74
395.534	513.59
395.913	500.26
396.292	529.63
396.671	524.66
397.05	520.59
397.429	501.16
397.808	502.97
398.186	523.08
398.565	540.93
398.944	514.94
399.323	531.21
399.701	525.57
400.08	547.94
400.458	558.78
400.837	533.25
401.215	556.07
401.594	551.78
401.972	555.17
402.351	583.19
402.729	562.85
403.107	577.54
403.486	581.83
403.864	584.55
404.242	561.5
404.62	581.38
404.999	610.99
405.377	601.72
405.755	621.16
406.133	596.3
406.511	613.7
406.889	636.97
407.267	642.17
407.645	649.63
408.023	679.91
408.401	679.01
408.779	692.57
409.156	702.06
409.534	707.93
409.912	690.08
410.29	705.45
410.667	739.57
411.045	754.71
411.422	748.84
411.8	746.8
412.178	744.99
412.555	768.72
412.933	775.73
413.31	793.58
413.687	811.43
414.065	796.97
414.442	829.74
414.819	860.02
415.197	846.69
415.574	862.28
415.951	895.27
416.328	878.32
416.705	877.19
417.082	908.15
417.46	908.61
417.837	923.52
418.214	937.31
418.591	922.84
418.967	951.54
419.344	947.93
419.721	959.23
420.098	994.93
420.475	990.64
420.852	1005.78
421.228	999.45
421.605	998.32
421.982	1030.41
422.358	1052.33
422.735	1054.14
423.111	1053.46
423.488	1021.6
423.864	1075.83
424.241	1071.77
424.617	1107.92
424.994	1107.92
425.37	1123.97
425.746	1128.71
426.123	1155.15
426.499	1158.77
426.875	1179.11
427.251	1177.98
427.627	1203.97
428.003	1193.57
428.379	1220.91
428.756	1225.66
429.132	1225.43
429.507	1250.29
429.883	1276.05
430.259	1287.58
430.635	1333.45
431.011	1316.96
431.387	1333.91
431.763	1378.65
432.138	1346.11
432.514	1372.55
432.89	1407.58
433.265	1430.63
433.641	1433.56
434.016	1433.34
434.392	1512.21
434.767	1495.71
435.143	1485.54
435.518	1474.24
435.894	1538.65
436.269	1538.19
436.644	1572.54
437.02	1577.52
437.395	1575.03
437.77	1554.46
438.145	1640.11
438.52	1617.06
438.895	1648.93
439.271	1655.03
439.646	1659.55
440.021	1697.74
440.395	1719.66
440.77	1698.87
441.145	1728.92
441.52	1755.14
441.895	1739.77
442.27	1755.59
442.645	1742.71
443.019	1772.09
443.394	1803.27
443.769	1782.26
444.143	1777.74
444.518	1811.86
444.892	1850.28
445.267	1812.54
445.641	1859.77
446.016	1856.38
446.39	1884.63
446.764	1883.95
447.139	1905.19
447.513	1879.88
447.887	1930.95
448.262	1951.74
448.636	1943.16
449.01	1979.31
449.384	1985.19
449.758	1973.21
450.132	2010.27
450.506	2015.47
450.88	2050.5
451.254	2017.05
451.628	2107.9
452.002	2095.69
452.376	2125.98
452.75	2133.43
453.123	2144.51
453.497	2171.4
453.871	2184.05
454.244	2248.46
454.618	2265.63
454.992	2257.05
455.365	2266.31
455.739	2353.31
456.112	2355.35
456.486	2352.18
456.859	2411.84
457.232	2419.98
457.606	2454.78
457.979	2476.25
458.352	2549.92
458.725	2579.52
459.099	2584.04
459.472	2608.45
459.845	2617.26
460.218	2670.37
460.591	2720.08
460.964	2716.24
461.337	2761.21
461.71	2829.23
462.083	2827.2
462.456	2850.7
462.829	2880.76
463.201	2925.05
463.574	2898.38
463.947	2970.92
464.32	3000.98
464.692	3003.47
465.065	3032.62
465.438	3036.01
465.81	3123.69
466.183	3160.98
466.555	3183.12
466.928	3234.87
467.3	3224.25
467.672	3269.9
468.045	3372.04
468.417	3343.8
468.789	3381.76
469.161	3404.36
469.534	3454.98
469.906	3524.81
470.278	3523.45
470.65	3591.02
471.022	3637.57
471.394	3744.92
471.766	3755.76
472.138	3781.52
472.51	3882.54
472.882	3900.84
473.253	3937.45
473.625	3988.07
473.997	4063.33
474.369	4091.8
474.74	4140.39
475.112	4224.23
475.484	4268.52
475.855	4355.3
476.227	4410.21
476.598	4494.27
476.97	4549.41
477.341	4626.25
477.713	4716.87
478.084	4755.96
478.455	4884.32
478.827	4889.52
479.198	5039.8
479.569	5053.13
479.94	5173.58
480.311	5279.79
480.682	5354.36
481.053	5510.07
481.424	5609.95
481.795	5616.05
482.166	5712.77
482.537	5835.26
482.908	5948.47
483.279	6047.45
483.65	6135.14
484.021	6256.94
484.391	6349.59
484.762	6388.46
485.133	6504.17
485.503	6586.65
485.874	6718.4
486.244	6837.49
486.615	6993.87
486.985	7117.71
487.356	7251.94
487.726	7310.92
488.097	7487.64
488.467	7481.99
488.837	7724.47
489.207	7864.58
489.578	8010.57
489.948	8107.51
490.318	8265.93
490.688	8338.24
491.058	8576.43
491.428	8634.28
491.798	8692.58
492.168	8936.64
492.538	9037.88
492.908	9190.65
493.278	9347.25
493.648	9357.88
494.017	9576.85
494.387	9684.65
494.757	9788.37
495.126	9951.76
495.496	10072.66
495.866	10202.6
496.235	10344.06
496.605	10475.36
496.974	10574.34
497.344	10762.36
497.713	10853.88
498.082	10945.18
498.452	11138.39
498.821	11302.01
499.19	11372.74
499.559	11547.42
499.928	11648.66
500.298	11802.33
500.667	11994.42
501.036	12024.25
501.405	12119.38
501.774	12239.83
502.143	12434.86
502.512	12535.64
502.88	12724.57
503.249	12818.12
503.618	12894.05
503.987	13020.6
504.356	13240.49
504.724	13282.52
505.093	13450.88
505.462	13574.71
505.83	13708.04
506.199	13868.49
506.567	14035.04
506.936	14042.05
507.304	14245.2
507.672	14431.41
508.041	14543.05
508.409	14630.05
508.777	14877.96
509.145	15013.55
509.514	14950.5
509.882	15102.58
510.25	15283.14
510.618	15405.4
510.986	15486.98
511.354	15754.77
511.722	15890.36
512.09	16143.01
512.458	16065.04
512.826	16242.21
513.193	16261.42
513.561	16381.87
513.929	16605.59
514.297	16822.76
514.664	17010.56
515.032	17098.01
515.4	17252.36
515.767	17294.16
516.135	17393.37
516.502	17370.32
516.869	17660.26
517.237	17761.95
517.604	17767.82
517.972	18103.63
518.339	18251.65
518.706	18225.89
519.073	18375.04
519.44	18515.15
519.808	18761.24
520.175	18796.72
520.542	19032.2
520.909	19245.53
521.276	19293.21
521.643	19553.99
522.009	19575.23
522.376	19727.55
522.743	19909.24
523.11	20116.46
523.477	20426.06
523.843	20486.62
524.21	20713.06
524.577	20847.97
524.943	21009.77
525.31	21063.33
525.676	21352.59
526.043	21447.73
526.409	21513.94
526.776	21878.68
527.142	21968.62
527.508	22163.64
527.874	22302.62
528.241	22415.39
528.607	22602.95
528.973	22864.86
529.339	22765.43
529.705	23112.54
530.071	23200.22
530.437	23367.68
530.803	23477.05
531.169	23665.75
531.535	23784.61
531.901	23826.65
532.267	23916.36
532.632	24180.54
532.998	24247.88
533.364	24353.87
533.73	24383.02
534.095	24723.57
534.461	24744.82
534.826	24795.89
535.192	25046.95
535.557	25166.73
535.923	25212.6
536.288	25255.76
536.653	25405.14
537.019	25262.32
537.384	25484.01
537.749	25546.38
538.114	25630.67
538.479	25692.36
538.845	25835.63
539.21	25853.94
539.575	25921.51
539.94	26082.41
540.305	26188.62
540.67	26178.45
541.034	26357.88
541.399	26302.74
541.764	26450.99
542.129	26497.31
542.494	26670.19
542.858	26785.67
543.223	26652.34
543.587	26891.88
543.952	26885.78
544.316	26985.21
544.681	27007.13
545.045	27143.85
545.41	27298.87
545.774	27321.24
546.138	27342.26
546.503	27405.99
546.867	27323.73
547.231	27656.83
547.595	27567.79
547.959	27728.69
548.324	27704.96
548.688	27839.2
549.052	27887.11
549.416	27851.4
549.779	28096.14
550.143	28094.56
550.507	28139.08
550.871	28201.67
551.235	28317.6
551.599	28414.55
551.962	28515.79
552.326	28615.67
552.689	28633.98
553.053	28556.69
553.417	28783.13
553.78	28912.84
554.143	28899.28
554.507	28921.88
554.87	29049.56
555.234	29306.96
555.597	29301.08
555.96	29421.3
556.323	29523.22
556.686	29643.44
557.05	29866.71
557.413	29793.72
557.776	29796.21
558.139	30100.61
558.502	30110.78
558.865	30075.52
559.228	30393.71
559.59	30421.73
559.953	30530.88
560.316	30819.01
560.679	30676.18
561.041	30869.17
561.404	31024.65
561.767	31365.66
562.129	31266.68
562.492	31407.24
562.854	31468.93
563.217	31595.26
563.579	31732.2
563.941	31876.15
564.304	32015.81
564.666	32341.68
565.028	32198.4
565.39	32491.28
565.753	32732.4
566.115	32693.31
566.477	32877.26
566.839	32926.75
567.201	33354.08
567.563	33314.53
567.925	33512.72
568.287	33632.72
568.648	33630.46
569.01	33874.29
569.372	34147.05
569.734	34194.28
570.095	34309.99
570.457	34474.96
570.819	34559.47
571.18	34547.04
571.542	34996.3
571.903	34969.18
572.265	35183.64
572.626	35276.29
572.987	35391.77
573.349	35658.43
573.71	35703.4
574.071	35982.94
574.432	36073.78
574.794	36446.65
575.155	36310.16
575.516	36440.1
575.877	36644.84
576.238	36802.58
576.599	37027.43
576.96	37210.02
577.32	37197.82
577.681	37386.07
578.042	37532.73
578.403	37534.31
578.763	37615.44
579.124	37769.78
579.485	38155.31
579.845	38144.46
580.206	38353.72
580.566	38214.52
580.927	38501.29
581.287	38774.96
581.648	38728.63
582.008	39007.49
582.368	39060.37
582.728	39247.26
583.089	39380.81
583.449	39370.65
583.809	39583.97
584.169	39814.48
584.529	39817.19
584.889	40377.17
585.249	40275.93
585.609	40031.87
585.969	40483.16
586.329	40498.3
586.688	40808.8
587.048	40921.79
587.408	41045.4
587.768	41198.39
588.127	41355.45
588.487	41403.81
588.846	41902.56
589.206	41787.08
589.565	41887.64
589.925	42441.07
590.284	42539.38
590.643	42713.83
591.003	42924.68
591.362	43372.35
591.721	43333.71
592.08	43474.04
592.44	43736.41
592.799	43891.88
593.158	44090.3
593.517	44137.75
593.876	44445.77
594.235	44518.76
594.593	44787.23
594.952	44927.56
595.311	45101.57
595.67	45206.2
596.029	45587.88
596.387	45836.24
596.746	46047.31
597.104	45995.78
597.463	46177.25
597.822	46560.51
598.18	46516.22
598.538	46821.52
598.897	47139.25
599.255	47094.96
599.613	47655.63
599.972	47548.06
600.33	47699.92
600.688	47761.61
601.046	47944.43
601.404	48425.1
601.762	48415.83
602.12	48578.77
602.478	48710.29
602.836	48968.36
603.194	48884.07
603.552	49129.71
603.91	49143.72
604.268	49370.83
604.625	49558.17
604.983	49795.68
605.341	49684.95
605.698	50093.98
606.056	50316.35
606.413	50214.65
606.771	50590.69
607.128	50521.99
607.485	50492.16
607.843	50731.7
608.2	50893.51
608.557	51145.25
608.914	51145.03
609.272	51329.65
609.629	51517.22
609.986	51787.49
610.343	51661.62
610.7	52050.09
611.057	51973.25
611.414	52032.23
611.771	52187.71
612.127	52338.21
612.484	52409.17
612.841	52582.95
613.198	52547.47
613.554	52473.13
613.911	52843.51
614.267	52933.9
614.624	52937.07
614.98	53044.18
615.337	53215.03
615.693	53217.29
616.05	53318.53
616.406	53558.52
616.762	53511.29
617.118	53607.79
617.475	53587.9
617.831	53745.86
618.187	53768.01
618.543	53991.5
618.899	54104.04
619.255	54058.85
619.611	54058.17
619.967	54288.67
620.323	54341.33
620.678	54237.6
621.034	54204.38
621.39	54365.51
621.746	54310.82
622.101	54630.13
622.457	54454.54
622.812	54607.53
623.168	54634.65
623.523	54654.54
623.879	54738.6
624.234	54599.4
624.589	54678.72
624.945	54743.57
625.3	54800.97
625.655	54906.28
626.01	54902.89
626.365	55016.11
626.72	54977.47
627.075	54895.21
627.43	54953.06
627.785	54887.98
628.14	54999.84
628.495	54996.22
628.85	55015.88
629.205	54991.93
629.559	55055.43
629.914	54916.23
630.269	55111.02
630.623	54976.11
630.978	54904.47
631.332	55035.77
631.687	55012.95
632.041	55017.92
632.396	55004.13
632.75	54988.54
633.104	54946.06
633.459	54819.73
633.813	54878.94
634.167	54786.51
634.521	54860.86
634.875	54884.14
635.229	54770.01
635.583	54636.46
635.937	54650.24
636.291	54695.89
636.645	54720.52
636.999	54554.43
637.352	54673.07
637.706	54544.03
638.06	54724.37
638.413	54481.66
638.767	54407.31
639.121	54498.84
639.474	54403.92
639.828	54447.99
640.181	54390.14
640.534	54531.6
640.888	54311.04
641.241	54240.09
641.594	54217.71
641.947	54324.15
642.301	54241.44
642.654	54285.51
643.007	54198.28
643.36	54248.45
643.713	54165.28
644.066	54215.68
644.419	54060.65
644.771	53807.1
645.124	53564.62
645.477	53485.08
645.83	53323.95
646.182	53260
646.535	53189.94
646.888	53345.19
647.24	53249.38
647.593	53393.55
647.945	53247.34
648.298	53160.57
648.65	53078.53
649.002	52927.58
649.355	52917.41
649.707	52863.4
650.059	52867.47
650.411	53421.58
650.763	53411.41
651.115	53763.94
651.467	53718.06
651.819	53661.8
652.171	53574.57
652.523	53513.1
652.875	53598.97
653.227	53415.47
653.578	53619.08
653.93	53464.96
654.282	53411.63
654.633	53417.06
654.985	53391.07
655.337	53496.38
655.688	53368.02
656.039	53442.14
656.391	53188.81
656.742	53281.24
657.094	53318.08
657.445	53356.94
657.796	53271.97
658.147	53222.94
658.498	53314.69
658.849	53395.14
659.2	53158.53
659.551	53127.35
659.902	53315.36
660.253	53208.47
660.604	53255.25
660.955	53107.91
661.306	53226.1
661.656	53109.95
662.007	53129.38
662.358	53177.97
662.708	53183.62
663.059	53131.64
663.409	52944.07
663.76	53149.94
664.11	53093.67
664.461	53123.73
664.811	53074.24
665.161	53081.7
665.511	53061.59
665.862	53098.19
666.212	53125.76
666.562	53098.65
666.912	53093.67
667.262	52973
667.612	52924.19
667.962	53018.65
668.312	52919.44
668.662	53125.09
669.011	53059.1
669.361	53038.99
669.711	53041.7
670.06	52957.63
670.41	52909.05
670.76	52811.42
671.109	52989.27
671.459	52862.72
671.808	52820.01
672.157	52858.2
672.507	52756.96
672.856	52793.57
673.205	52710.86
673.554	52779.78
673.904	52707.7
674.253	52933
674.602	52714.7
674.951	52405.56
675.3	52142.06
675.649	52770.75
675.998	52742.95
676.346	52776.39
676.695	52817.98
677.044	52552.67
677.393	52625.44
677.741	52765.1
678.09	52621.82
678.438	52563.97
678.787	52660.47
679.135	52607.36
679.484	52531.66
679.832	52548.38
680.181	52439.45
680.529	52449.17
680.877	52333.24
681.225	52300.93
681.573	52550.64
681.922	52286.92
682.27	52303.86
682.618	52295.05
682.966	52157.88
683.314	52209.4
683.661	52248.5
684.009	52056.41
684.357	51987.26
684.705	51925.12
685.053	51935.06
685.4	51836.53
685.748	51759.7
686.095	51781.39
686.443	51623.88
686.79	51699.13
687.138	51763.54
687.485	51670.66
687.832	51608.97
688.18	51630.66
688.527	51559.93
688.874	51362.65
689.221	51462.08
689.568	51225.7
689.915	51228.41
690.262	51244.68
690.609	51201.29
690.956	51004.01
691.303	51074.52
691.65	50806.28
691.997	50852.83
692.344	50724.02
692.69	50601.08
693.037	50679.73
693.383	50340.07
693.73	50492.39
694.077	50401.77
694.423	50263.69
694.769	50189.8
695.116	50125.62
695.462	50047.88
695.808	49856.02
696.155	50065.28
696.501	49717.72
696.847	49781.9
697.193	49529.47
697.539	49565.86
697.885	49339.87
698.231	49240.89
698.577	49282.25
698.923	49250.61
699.269	48937.63
699.614	48836.16
699.96	48846.1
700.306	48810.62
700.651	48495.15
700.997	48336.74
701.342	48409.96
701.688	48373.12
702.033	48307.13
702.379	48212.45
702.724	47953.7
703.069	48077.31
703.415	47641.16
703.76	47663.31
704.105	47734.27
704.45	47658.56
704.795	47405.24
705.14	47241.85
705.485	47175.86
705.83	46961.41
706.175	47199.59
706.52	46945.59
706.865	46823.33
707.209	46812.94
707.554	46689.1
707.899	46676.89
708.243	46424.47
708.588	46370.01
708.932	46313.74
709.277	46332.5
709.621	46072.84
709.966	45739.07
710.31	45947.87
710.654	45649.8
710.998	45709.69
711.342	45880.3
711.687	45503.14
712.031	45464.04
712.375	45250.04
712.719	45286.87
713.063	45136.6
713.407	45403.71
713.75	45188.8
714.094	45114.22
714.438	44917.62
714.782	44870.61
715.125	44520.79
715.469	44843.27
715.812	44661.81
716.156	44476.27
716.499	44462.49
716.843	44522.15
717.186	44364.41
717.53	44498.65
717.873	44426.56
718.216	44342.49
718.559	44297.75
718.902	43934.14
719.246	44056.62
719.589	43822.51
719.932	43770.98
720.275	43662.51
720.617	43737.54
720.96	43682.62
721.303	43731.43
721.646	43714.03
721.989	43449.63
722.331	43539.35
722.674	43367.6
723.016	43302.75
723.359	43077.44
723.701	43335.29
724.044	42962.87
724.386	42978.46
724.729	43109.76
725.071	43046.71
725.413	42968.74
725.755	42854.4
726.097	42789.31
726.439	42801.52
726.782	42613.95
727.124	42858.92
727.465	42742.08
727.807	42519.72
728.149	42635.87
728.491	42484.24
728.833	42544.8
729.175	42541.86
729.516	42118.14
729.858	42246.73
730.199	42483.33
730.541	42110.69
730.882	42168.54
731.224	42300.74
731.565	42079.95
731.906	42068.65
732.248	42113.4
732.589	41897.13
732.93	41842.9
733.271	41943.01
733.612	41930.58
733.953	42041.54
734.294	41921.76
734.635	41767.19
734.976	41883.12
735.317	41728.55
735.658	41686.52
735.999	41561.77
736.339	41553.19
736.68	41610.81
737.021	41565.16
737.361	41439.74
737.702	41809.9
738.042	41576.69
738.383	41600.87
738.723	41505.96
739.063	41480.65
739.404	41456.69
739.744	41463.25
740.084	41482.68
740.424	41469.57
740.764	41390.71
741.104	41497.37
741.444	41399.97
741.784	41224.38
742.124	41452.4
742.464	41193.87
742.804	41259.41
743.143	41142.8
743.483	41266.41
743.823	41185.06
744.162	41163.59
744.502	41210.15
744.841	41048.57
745.181	41358.39
745.52	41042.47
745.86	41033.88
746.199	41090.83
746.538	40931.73
746.877	41185.51
747.216	41179.41
747.556	41088.57
747.895	41028.91
748.234	41023.03
748.573	40956.59
748.911	40919.76
749.25	40922.47
749.589	40933.09
749.928	40943.71
750.267	40899.19
750.605	41029.13
750.944	41018.96
751.283	40866.65
751.621	40977.16
751.96	40828.69
752.298	40925.63
752.636	40946.42
752.975	40792.76
753.313	40694.45
753.651	40858.74
753.989	40683.83
