Data from 14-4516_FLMS001491_005.txt Node
Date: Thu Apr 19 16:47:01 BST 2018
User: hsy
Spectrometer: FLMS00149
Trigger mode: 0
Integration Time (sec): 1.000000E-2
Scans to average: 10
Electric dark correction enabled: true
Nonlinearity correction enabled: false
Boxcar width: 0
XAxis mode: Wavelengths
Number of Pixels in Spectrum: 2048
>>>>>Begin Spectral Data<<<<<
341.393	-14.27
341.776	-14.27
342.16	-14.27
342.543	-39.8
342.927	-75.73
343.31	-72.57
343.693	-70.53
344.077	-80.25
344.46	-58.56
344.843	-39.8
345.226	-24.66
345.61	-52.91
345.993	-23.53
346.376	-5
346.759	0.88
347.142	39.29
347.525	48.56
347.908	63.02
348.291	62.57
348.674	112.29
349.057	101.21
349.44	138.95
349.823	135.79
350.206	169.91
350.588	224.82
350.971	247.2
351.354	272.05
351.737	283.35
352.119	280.42
352.502	276.35
352.884	286.29
353.267	317.48
353.65	327.87
354.032	329.91
354.414	346.4
354.797	350.7
355.179	364.03
355.562	364.48
355.944	358.83
356.326	362
356.709	362
357.091	386.18
357.473	390.92
357.855	376.23
358.238	394.31
358.62	406.06
359.002	395.22
359.384	378.72
359.766	376.69
360.148	373.3
360.53	383.69
360.912	377.81
361.294	379.62
361.676	359.06
362.057	360.41
362.439	366.06
362.821	379.85
363.203	379.62
363.584	363.35
363.966	359.51
364.348	374.88
364.729	357.93
365.111	376.01
365.493	367.42
365.874	341.43
366.256	350.7
366.637	369.45
367.019	347.99
367.4	369.45
367.781	367.42
368.163	362.67
368.544	348.44
368.925	362.67
369.306	353.86
369.688	361.32
370.069	365.61
370.45	375.1
370.831	374.88
371.212	382.56
371.593	382.79
371.974	357.7
372.355	390.7
372.736	369.23
373.117	379.4
373.498	374.2
373.879	376.01
374.26	359.28
374.641	382.56
375.021	369.68
375.402	382.33
375.783	380.53
376.163	396.8
376.544	403.12
376.925	381.43
377.305	367.87
377.686	398.61
378.066	380.98
378.447	390.92
378.827	396.12
379.208	404.25
379.588	401.77
379.968	394.76
380.349	407.42
380.729	425.5
381.109	419.62
381.489	423.24
381.87	413.97
382.25	399.28
382.63	413.97
383.01	420.75
383.39	437.25
383.77	440.41
384.15	417.59
384.53	435.44
384.91	415.55
385.29	439.51
385.67	426.4
386.049	430.92
386.429	442.67
386.809	461.2
387.189	466.85
387.568	463.69
387.948	453.52
388.328	478.38
388.707	464.37
389.087	481.77
389.466	473.41
389.846	472.95
390.225	470.02
390.605	488.32
390.984	471.37
391.363	498.26
391.743	484.25
392.122	516.57
392.501	516.34
392.881	518.6
393.26	510.01
393.639	521.99
394.018	523.12
394.397	517.7
394.776	536.23
395.155	548.88
395.534	537.81
395.913	543.69
396.292	534.87
396.671	542.78
397.05	564.48
397.429	581.2
397.808	578.26
398.186	562.44
398.565	565.15
398.944	566.51
399.323	562.67
399.701	589.79
400.08	594.08
400.458	583.69
400.837	577.81
401.215	604.02
401.594	621.42
401.972	628.66
402.351	617.13
402.729	595.44
403.107	634.53
403.486	662.78
403.864	660.75
404.242	658.94
404.62	670.91
404.999	670.01
405.377	670.91
405.755	690.12
406.133	694.19
406.511	702.33
406.889	702.33
407.267	721.99
407.645	747.07
408.023	733.51
408.401	755.43
408.779	780.97
409.156	797.24
409.534	799.72
409.912	797.24
410.29	808.99
410.667	832.27
411.045	872.72
411.422	856.22
411.8	878.37
412.178	882.21
412.555	877.46
412.933	903.22
413.31	938.7
413.687	943.22
414.065	946.39
414.442	949.1
414.819	965.37
415.197	999.95
415.574	1015.54
415.951	1025.71
416.328	1034.29
416.705	1069.1
417.082	1045.14
417.46	1081.3
417.837	1076.33
418.214	1086.27
418.591	1111.13
418.967	1107.06
419.344	1122.88
419.721	1133.5
420.098	1143.22
420.475	1177.12
420.852	1176.66
421.228	1172.6
421.605	1215.98
421.982	1227.96
422.358	1226.15
422.735	1258.47
423.111	1226.83
423.488	1269.09
423.864	1301.41
424.241	1272.71
424.617	1347.96
424.994	1301.63
425.37	1346.15
425.746	1362.87
426.123	1397.68
426.499	1404
426.875	1407.62
427.251	1428.86
427.627	1479.03
428.003	1462.08
428.379	1492.59
428.756	1526.94
429.132	1531.68
429.507	1576.2
429.883	1547.73
430.259	1602.64
430.635	1641.96
431.011	1631.34
431.387	1673.6
431.763	1705.01
432.138	1698.23
432.514	1739.14
432.89	1747.27
433.265	1821.84
433.641	1818.68
434.016	1826.14
434.392	1862.97
434.767	1918.34
435.143	1914.72
435.518	1959.92
435.894	1989.75
436.269	1987.26
436.644	2000.6
437.02	2030.88
437.395	2059.8
437.77	2114.94
438.145	2123.98
438.52	2104.1
438.895	2194.72
439.271	2198.11
439.646	2183.19
440.021	2260.25
440.395	2258.67
440.77	2274.94
441.145	2275.62
441.52	2344.77
441.895	2321.04
442.27	2352
442.645	2352.68
443.019	2413.02
443.394	2396.07
443.769	2411.21
444.143	2401.49
444.518	2479
444.892	2480.58
445.267	2487.36
445.641	2516.52
446.016	2537.98
446.39	2536.63
446.764	2581.82
447.139	2592.9
447.513	2567.36
447.887	2625.67
448.262	2594.48
448.636	2649.17
449.01	2669.96
449.384	2726.45
449.758	2738.43
450.132	2763.97
450.506	2773.91
450.88	2815.26
451.254	2828.37
451.628	2850.52
452.002	2899.33
452.376	2956.28
452.75	3007.8
453.123	2990.18
453.497	3031.08
453.871	3066.78
454.244	3112.88
454.618	3137.74
454.992	3189.94
455.365	3265.87
455.739	3291.86
456.112	3299.09
456.486	3340.45
456.859	3387.23
457.232	3452.31
457.606	3453.21
457.979	3531.63
458.352	3581.12
458.725	3632.64
459.099	3675.58
459.472	3749.03
459.845	3763.04
460.218	3829.25
460.591	3852.3
460.964	3858.18
461.337	3910.6
461.71	4008.91
462.083	4068.57
462.456	4087.55
462.829	4107.66
463.201	4168.45
463.574	4193.76
463.947	4243.25
464.32	4318.05
464.692	4370.7
465.065	4405.51
465.438	4492.28
465.81	4507.42
466.183	4570.7
466.555	4672.62
466.928	4679.4
467.3	4731.6
467.672	4778.6
468.045	4896.11
468.417	4902.67
468.789	4949.45
469.161	5034.42
469.534	5045.49
469.906	5181.76
470.278	5257.69
470.65	5283.9
471.022	5423.56
471.394	5469.43
471.766	5570.67
472.138	5624
472.51	5699.03
472.882	5804.56
473.253	5833.72
473.625	5901.74
473.997	6089.3
474.369	6087.04
474.74	6135.63
475.112	6261.95
475.484	6376.53
475.855	6481.61
476.227	6503.76
476.598	6719.34
476.97	6814.48
477.341	6894.03
477.713	6989.39
478.084	7038.66
478.455	7247.01
478.827	7353
479.198	7500.57
479.569	7558.64
479.94	7788.24
480.311	7907.11
480.682	8004.06
481.053	8229.81
481.424	8291.96
481.795	8452.18
482.166	8519.75
482.537	8710.7
482.908	8917.7
483.279	8996.12
483.65	9154.53
484.021	9361.99
484.391	9505.94
484.762	9611.47
485.133	9759.72
485.503	9911.58
485.874	10093.27
486.244	10217.33
486.615	10460.94
486.985	10505.91
487.356	10681.05
487.726	10860.25
488.097	11096.4
488.467	11203.74
488.837	11379.56
489.207	11506.34
489.578	11777.74
489.948	11968.92
490.318	12125.3
490.688	12195.81
491.058	12479.42
491.428	12675.12
491.798	12783.14
492.168	13018.61
492.538	13095.9
492.908	13357.13
493.278	13547.41
493.648	13544.93
494.017	13799.61
494.387	13990.56
494.757	14073.73
495.126	14242.54
495.496	14321.18
495.866	14543.77
496.235	14706.48
496.605	14849.3
496.974	15045.23
497.344	15156.86
497.713	15354.82
498.082	15419.91
498.452	15558.43
498.821	15671.2
499.19	15785.77
499.559	15970.63
499.928	16055.14
500.298	16204.97
500.667	16445.87
501.036	16353.67
501.405	16678.18
501.774	16796.82
502.143	16820.55
502.512	17059.41
502.88	17236.81
503.249	17258.5
503.618	17455.78
503.987	17441.1
504.356	17652.84
504.724	17840.86
505.093	17880.18
505.462	18037.92
505.83	18030.68
506.199	18301.64
506.567	18517.45
506.936	18529.43
507.304	18682.87
507.672	18880.15
508.041	18936.42
508.409	19060.26
508.777	19312.01
509.145	19408.27
509.514	19411.66
509.882	19566.46
510.25	19727.59
510.618	19864.76
510.986	19834.48
511.354	20084.19
511.722	20230.63
512.09	20469.72
512.458	20380
512.826	20604.4
513.193	20718.52
513.561	20737.28
513.929	20834
514.297	21043.49
514.664	21106.99
515.032	21180.43
515.4	21523.93
515.767	21524.83
516.135	21645.5
516.502	21596.01
516.869	21925.72
517.237	22024.93
517.604	21871.04
517.972	22196.22
518.339	22243.91
518.706	22357.35
519.073	22427.63
519.44	22466.5
519.808	22863.1
520.175	22846.38
520.542	23120.27
520.909	23173.37
521.276	23202.07
521.643	23448.39
522.009	23549.86
522.376	23670.54
522.743	23893.35
523.11	24052.22
523.477	24192.1
523.843	24242.05
524.21	24476.84
524.577	24590.06
524.943	24657.18
525.31	24852.65
525.676	25009.94
526.043	25218.74
526.409	25211.06
526.776	25460.77
527.142	25534.44
527.508	25578.06
527.874	25783.47
528.241	25843.36
528.607	25936.01
528.973	26280.41
529.339	26225.04
529.705	26409.9
530.071	26390.46
530.437	26645.6
530.803	26759.49
531.169	26865.71
531.535	26804.01
531.901	26808.31
532.267	26905.48
532.632	27208.75
532.998	27031.13
533.364	27253.49
533.73	27277.22
534.095	27409.42
534.461	27400.61
534.826	27438.35
535.192	27548.63
535.557	27701.62
535.923	27660.49
536.288	27783.65
536.653	27825.91
537.019	27702.75
537.384	27760.6
537.749	27864.1
538.114	27941.84
538.479	27780.48
538.845	27840.6
539.21	27730.32
539.575	27850.54
539.94	27858.9
540.305	27939.35
540.67	27889.41
541.034	27989.52
541.399	27819.13
541.764	27859.13
542.129	27913.14
542.494	27921.05
542.858	28099.57
543.223	27930.31
543.587	27999.46
543.952	27990.65
544.316	27856.19
544.681	27671.33
545.045	28032.68
545.41	27985.45
545.774	27835.17
546.138	27849.41
546.503	27992.23
546.867	27941.61
547.231	27992.23
547.595	27990.87
547.959	27905.68
548.324	27833.36
548.688	27887.83
549.052	27906.81
549.416	27755.85
549.779	27823.19
550.143	27759.02
550.507	27870.43
550.871	27961.95
551.235	27787.04
551.599	28002.85
551.962	27870.65
552.326	27953.81
552.689	27838.11
553.053	27568.29
553.417	27745.46
553.78	27878.56
554.143	27810.31
554.507	27851.22
554.87	27851.44
555.234	28002.63
555.597	27978.22
555.96	27857.32
556.323	27947.26
556.686	27774.83
557.05	27915.62
557.413	27953.59
557.776	27873.82
558.139	28022.51
558.502	27939.12
558.865	27988.61
559.228	28105.67
559.59	28089.85
559.953	28051.89
560.316	28293.69
560.679	28254.14
561.041	28328.49
561.404	28220.92
561.767	28394.71
562.129	28249.17
562.492	28467.25
562.854	28313.13
563.217	28355.38
563.579	28484.87
563.941	28512.44
564.304	28558.32
564.666	28845.99
565.028	28717.18
565.39	28741.14
565.753	28877.18
566.115	28869.72
566.477	29021.36
566.839	29075.14
567.201	29262.71
567.563	29123.73
567.925	29151.97
568.287	29171.86
568.648	29197.85
569.01	29316.49
569.372	29552.87
569.734	29368.01
570.095	29663.82
570.457	29659.08
570.819	29624.05
571.18	29715.57
571.542	29850.71
571.903	29899.98
572.265	29913.99
572.626	30177.03
572.987	29984.95
573.349	30184.94
573.71	30155.79
574.071	30240.98
574.432	30284.15
574.794	30585.16
575.155	30444.82
575.516	30462
575.877	30480.75
576.238	30642.1
576.599	30737.02
576.96	30710.8
577.32	30693.63
577.681	30727.3
578.042	30906.73
578.403	30792.16
578.763	30826.73
579.124	30980.4
579.485	31052.49
579.845	31031.92
580.206	30964.81
580.566	30979.27
580.927	31006.39
581.287	31160.28
581.648	31032.15
582.008	31171.58
582.368	31183.78
582.728	31263.56
583.089	31211.13
583.449	31109.21
583.809	31303.33
584.169	31310.79
584.529	31239.83
584.889	31492.25
585.249	31261.75
585.609	31142.66
585.969	31244.35
586.329	31216.55
586.688	31360.28
587.048	31209.77
587.408	31215.2
587.768	31365.7
588.127	31264.69
588.487	31298.36
588.846	31483.44
589.206	31151.7
589.565	31223.78
589.925	31455.42
590.284	31354.4
590.643	31257.23
591.003	31445.47
591.362	31558.69
591.721	31467.39
592.08	31410.67
592.44	31506.26
592.799	31431.69
593.158	31465.81
593.517	31453.38
593.876	31461.74
594.235	31320.05
594.593	31406.6
594.952	31517.79
595.311	31331.35
595.67	31455.19
596.029	31577.45
596.387	31720.04
596.746	31814.73
597.104	31553.27
597.463	31718.23
597.822	31671.23
598.18	31625.81
598.538	31655.86
598.897	31821.28
599.255	31525.24
599.613	31956.42
599.972	31808.17
600.33	31797.78
600.688	31766.59
601.046	31797.33
601.404	32090.2
601.762	31914.61
602.12	32093.14
602.478	32186.7
602.836	32144.89
603.194	32011.11
603.552	32073.25
603.91	32021.5
604.268	32073.93
604.625	31984.67
604.983	32207.49
605.341	31969.53
605.698	32285.68
606.056	32353.47
606.413	32195.06
606.771	32438.67
607.128	32381.95
607.485	32404.77
607.843	32403.87
608.2	32457.2
608.557	32562.05
608.914	32507.37
609.272	32704.42
609.629	32833.91
609.986	32764.76
610.343	32710.07
610.7	33071.64
611.057	32981.7
611.414	32916.39
611.771	33023.51
612.127	33133.34
612.484	33225.54
612.841	33176.5
613.198	33139.67
613.554	33087.69
613.911	33334.01
614.267	33446.1
614.624	33408.36
614.98	33425.31
615.337	33672.98
615.693	33704.17
616.05	33698.97
616.406	33817.61
616.762	33707.79
617.118	33688.35
617.475	33740.55
617.831	33941.23
618.187	33929.02
618.543	33923.83
618.899	34088.34
619.255	33968.34
619.611	34086.31
619.967	34174.44
620.323	34227.55
620.678	34093.99
621.034	34070.71
621.39	34128.11
621.746	34109.81
622.101	34526.75
622.457	34244.95
622.812	34412.85
623.168	34370.37
623.523	34375.57
623.879	34541.89
624.234	34375.79
624.589	34364.49
624.945	34416.69
625.3	34332.63
625.655	34564.94
626.01	34553.64
626.365	34519.74
626.72	34432.96
627.075	34381.67
627.43	34374.21
627.785	34484.04
628.14	34360.65
628.495	34469.8
628.85	34451.5
629.205	34378.5
629.559	34419.63
629.914	34394.32
630.269	34415.79
630.623	34257.6
630.978	34243.37
631.332	34408.33
631.687	34486.3
632.041	34297.15
632.396	34310.48
632.75	34308.9
633.104	34245.4
633.459	34059.64
633.813	34162.92
634.167	34058.51
634.521	34310.71
634.875	34198.39
635.229	34043.14
635.583	33929.25
635.937	33939.87
636.291	33929.93
636.645	33819.87
636.999	33759.99
637.352	33725.86
637.706	33681.8
638.06	33717.05
638.413	33630.73
638.767	33495.36
639.121	33708.01
639.474	33551.86
639.828	33557.73
640.181	33559.32
640.534	33538.98
640.888	33427.79
641.241	33258.98
641.594	33485.42
641.947	33475.25
642.301	33340.56
642.654	33324.29
643.007	33357.51
643.36	33348.93
643.713	33272.09
644.066	33576.04
644.419	33289.72
644.771	32900.12
645.124	32655.84
645.477	32633.69
645.83	32547.14
646.182	32492.68
646.535	32496.29
646.888	32587.36
647.24	32411.77
647.593	32682.28
647.945	32542.62
648.298	32494.48
648.65	32429.85
649.002	32259.91
649.355	32230.54
649.707	32113.7
650.059	32196.64
650.411	32715.5
650.763	32757.98
651.115	33229.83
651.467	33155.71
651.819	33149.38
652.171	33110.29
652.523	32906
652.875	33159.1
653.227	32952.78
653.578	33313.67
653.93	33126.11
654.282	32985.09
654.633	32888.82
654.985	33117.97
655.337	33124.07
655.688	33009.05
656.039	33183.51
656.391	33037.75
656.742	33103.28
657.094	33148.25
657.445	33089.27
657.796	33172.21
658.147	33057.41
658.498	33191.42
658.849	33259.44
659.2	33177.63
659.551	33169.5
659.902	33353.67
660.253	33168.37
660.604	33317.06
660.955	33153.9
661.306	33362.03
661.656	33381.47
662.007	33367.68
662.358	33395.48
662.708	33369.26
663.059	33302.6
663.409	33152.77
663.76	33498.98
664.11	33384.63
664.461	33515.02
664.811	33529.71
665.161	33499.43
665.511	33368.13
665.862	33440.22
666.212	33502.59
666.562	33686.09
666.912	33615.59
667.262	33447.23
667.612	33444.97
667.962	33416.95
668.312	33256.5
668.662	33668.47
669.011	33629.37
669.361	33501.92
669.711	33542.82
670.06	33333.11
670.41	33345.31
670.76	33266.22
671.109	33589.37
671.459	33516.6
671.808	33392.99
672.157	33456.27
672.507	33304.63
672.856	33411.75
673.205	33408.58
673.554	33442.03
673.904	33350.73
674.253	33633.89
674.602	33453.78
674.951	32899.9
675.3	32740.35
675.649	33265.99
675.998	33399.09
676.346	33370.85
676.695	33278.42
677.044	33143.73
677.393	33093.56
677.741	33210.4
678.09	33255.59
678.438	32955.26
678.787	33052.44
679.135	32966.11
679.484	32762.05
679.832	33059.89
680.181	32735.16
680.529	32844.31
680.877	32680.24
681.225	32617.65
681.573	32895.6
681.922	32660.81
682.27	32489.74
682.618	32565.9
682.966	32404.32
683.314	32483.64
683.661	32358.44
684.009	32104.66
684.357	32114.38
684.705	32120.03
685.053	32130.2
685.4	31987.83
685.748	31857.21
686.095	31804.11
686.443	31590.55
686.79	31520.05
687.138	31605.92
687.485	31500.61
687.832	31353.5
688.18	31423.1
688.527	31148.31
688.874	31220.17
689.221	31152.15
689.568	30922.77
689.915	30806.17
690.262	30764.81
690.609	30796.45
690.956	30682.55
691.303	30617.7
691.65	30375.44
691.997	30450.92
692.344	30247.31
692.69	30118.05
693.037	30077.15
693.383	29983.36
693.73	29996.02
694.077	29755.8
694.423	29719.64
694.769	29503.38
695.116	29590.83
695.462	29386.32
695.808	29153.1
696.155	29181.13
696.501	28988.36
696.847	28952.88
697.193	28819.78
697.539	28806.67
697.885	28509.73
698.231	28486.45
698.577	28509.96
698.923	28367.14
699.269	28006.47
699.614	28052.57
699.96	27962.63
700.306	27977.54
700.651	27820.94
700.997	27695.29
701.342	27541.17
701.688	27507.72
702.033	27465.46
702.379	27360.83
702.724	27117.22
703.069	27263.44
703.415	26887.63
703.76	26901.86
704.105	26841.75
704.45	26738.93
704.795	26510.46
705.14	26488.09
705.485	26584.13
705.83	26301.2
706.175	26348.21
706.52	26249.23
706.865	26109.34
707.209	26033.41
707.554	26060.08
707.899	25971.04
708.243	25796.81
708.588	25777.83
708.932	25642.69
709.277	25621.22
709.621	25528.34
709.966	25411.06
710.31	25400.21
710.654	25240.66
710.998	25336.03
711.342	25146.43
711.687	25090.61
712.031	25119.99
712.375	25015.59
712.719	24963.84
713.063	24858.08
713.407	24969.48
713.75	24873.44
714.094	24859.66
714.438	24686.78
714.782	24810.17
715.125	24592.32
715.469	24741.24
715.812	24548.03
716.156	24543.96
716.499	24529.95
716.843	24600
717.186	24465.09
717.53	24650.17
717.873	24553.68
718.216	24457.63
718.559	24489.95
718.902	24237.07
719.246	24314.59
719.589	24362.95
719.932	24222.16
720.275	24227.58
720.617	24193.69
720.96	24149.62
721.303	24315.49
721.646	24311.2
721.989	24243.4
722.331	24296.96
722.674	24169.73
723.016	24209.5
723.359	24102.61
723.701	24209.28
724.044	24150.75
724.386	24024.88
724.729	24140.81
725.071	24260.8
725.413	24165.21
725.755	24178.32
726.097	24046.8
726.439	24114.14
726.782	24102.84
727.124	24131.99
727.465	24236.4
727.807	24115.95
728.149	24172.44
728.491	24215.38
728.833	24293.57
729.175	24244.98
729.516	24277.75
729.858	24098.1
730.199	24281.14
730.541	24295.15
730.882	24249.5
731.224	24290.41
731.565	24216.96
731.906	24169.96
732.248	24435.49
732.589	24188.71
732.93	24243.4
733.271	24305.55
733.612	24430.06
733.953	24382.38
734.294	24294.7
734.635	24475.71
734.976	24493.34
735.317	24367.92
735.658	24456.28
735.999	24552.55
736.339	24433.91
736.68	24618.53
737.021	24652.2
737.361	24605.88
737.702	24818.98
738.042	24901.46
738.383	24880.9
738.723	25006.77
739.063	24915.7
739.404	25165.64
739.744	25070.72
740.084	25089.48
740.424	25247.22
740.764	25216.03
741.104	25623.48
741.444	25296.48
741.784	25302.13
742.124	25518.17
742.464	25671.61
742.804	25672.74
743.143	25796.58
743.483	25907.77
743.823	25826.41
744.162	25935.79
744.502	26198.6
744.841	26206.74
745.181	26594.53
745.52	26431.82
745.86	26622.55
746.199	26578.26
746.538	26952.94
746.877	27116.32
747.216	27078.58
747.556	27259.37
747.895	27408.97
748.234	27567.16
748.573	27771.44
748.911	27785.23
749.25	27889.86
749.589	27926.24
749.928	28280.58
750.267	28410.3
750.605	28659.33
750.944	28783.85
751.283	28964.41
751.621	29160.11
751.96	29085.76
752.298	29383.15
752.636	29531.85
752.975	29751.28
753.313	29815.91
753.651	30158.95
753.989	30241.21
