Data from 14-4516_FLMS001491_008.txt Node
Date: Thu Apr 19 16:47:11 BST 2018
User: hsy
Spectrometer: FLMS00149
Trigger mode: 0
Integration Time (sec): 1.000000E-2
Scans to average: 10
Electric dark correction enabled: true
Nonlinearity correction enabled: false
Boxcar width: 0
XAxis mode: Wavelengths
Number of Pixels in Spectrum: 2048
>>>>>Begin Spectral Data<<<<<
341.393	7.05
341.776	7.05
342.16	7.05
342.543	-61.42
342.927	-53.29
343.31	-56.91
343.693	-78.15
344.077	-58.49
344.46	-58.26
344.843	-60.97
345.226	-49
345.61	-27.08
345.993	-25.72
346.376	-3.57
346.759	5.47
347.142	26.93
347.525	58.8
347.908	40.27
348.291	80.49
348.674	96.99
349.057	109.19
349.44	130.21
349.823	152.81
350.206	174.5
350.588	232.35
350.971	247.72
351.354	242.97
351.737	260.37
352.119	273.71
352.502	310.54
352.884	289.53
353.267	303.09
353.65	333.82
354.032	317.55
354.414	333.82
354.797	342.63
355.179	376.76
355.562	371.11
355.944	351.45
356.326	355.06
356.709	374.72
357.091	353.48
357.473	386.92
357.855	400.71
358.238	384.67
358.62	372.01
359.002	370.88
359.384	379.92
359.766	378.79
360.148	381.28
360.53	360.26
360.912	361.16
361.294	386.47
361.676	370.88
362.057	371.56
362.439	358.68
362.821	380.82
363.203	380.6
363.584	365.91
363.966	361.16
364.348	373.37
364.729	369.07
365.111	368.17
365.493	363.42
365.874	350.32
366.256	354.84
366.637	358.68
367.019	360.94
367.4	378.56
367.781	358.45
368.163	359.58
368.544	365
368.925	375.63
369.306	365.46
369.688	352.58
370.069	372.46
370.45	360.03
370.831	372.46
371.212	353.25
371.593	360.94
371.974	373.59
372.355	369.3
372.736	377.21
373.117	356.87
373.498	378.34
373.879	363.65
374.26	364.78
374.641	363.42
375.021	370.65
375.402	375.17
375.783	385.12
376.163	377.43
376.544	382.63
376.925	393.48
377.305	386.7
377.686	389.86
378.066	385.12
378.447	383.08
378.827	397.55
379.208	388.05
379.588	405
379.968	388.05
380.349	406.81
380.729	433.03
381.109	408.39
381.489	420.6
381.87	417.43
382.25	414.72
382.63	398.68
383.01	420.6
383.39	416.3
383.77	448.62
384.15	431.44
384.53	422.86
384.91	433.48
385.29	447.04
385.67	438
386.049	453.14
386.429	439.8
386.809	435.06
387.189	456.3
387.568	448.84
387.948	445.23
388.328	468.96
388.707	469.18
389.087	467.15
389.466	477.54
389.846	457.43
390.225	498.11
390.605	477.54
390.984	478.22
391.363	487.94
391.743	509.41
392.122	492.68
392.501	502.85
392.881	502.18
393.26	495.4
393.639	524.77
394.018	514.38
394.397	527.03
394.776	538.11
395.155	525.68
395.534	539.92
395.913	523.64
396.292	524.32
396.671	545.34
397.05	561.16
397.429	559.58
397.808	560.25
398.186	569.29
398.565	561.84
398.944	569.74
399.323	576.07
399.701	570.87
400.08	597.99
400.458	566.58
400.837	619.01
401.215	620.82
401.594	602.29
401.972	602.51
402.351	614.49
402.729	637.99
403.107	616.52
403.486	658.33
403.864	639.12
404.242	639.8
404.62	657.88
404.999	655.17
405.377	685
405.755	673.7
406.133	671.89
406.511	699.91
406.889	722.06
407.267	721.15
407.645	744.66
408.023	746.92
408.401	767.03
408.779	770.87
409.156	785.11
409.534	783.75
409.912	824.65
410.29	830.3
410.667	841.83
411.045	869.4
411.422	875.73
411.8	861.71
412.178	908.04
412.555	894.93
412.933	908.72
413.31	950.53
413.687	917.76
414.065	951.2
414.442	950.3
414.819	986.46
415.197	1018.55
415.574	995.95
415.951	1039.34
416.328	1034.37
416.705	1047.25
417.082	1044.76
417.46	1074.36
417.837	1114.82
418.214	1113.01
418.591	1109.84
418.967	1129.5
419.344	1122.05
419.721	1131.31
420.098	1158.66
420.475	1196.4
420.852	1180.12
421.228	1200.69
421.605	1203.85
421.982	1241.14
422.358	1247.24
422.735	1241.59
423.111	1272.1
423.488	1305.09
423.864	1314.13
424.241	1320.46
424.617	1322.72
424.994	1341.48
425.37	1352.1
425.746	1369.05
426.123	1378.99
426.499	1416.73
426.875	1429.16
427.251	1449.5
427.627	1488.59
428.003	1525.88
428.379	1534.92
428.756	1493.79
429.132	1541.02
429.507	1577.18
429.883	1578.31
430.259	1615.14
430.635	1611.53
431.011	1648.36
431.387	1683.16
431.763	1727.23
432.138	1717.51
432.514	1756.61
432.89	1768.36
433.265	1801.12
433.641	1824.4
434.016	1854
434.392	1886.32
434.767	1906.66
435.143	1902.14
435.518	1966.77
435.894	1960.89
436.269	1971.29
436.644	2042.7
437.02	2027.11
437.395	2041.57
437.77	2092.19
438.145	2144.84
438.52	2156.6
438.895	2185.07
439.271	2152.98
439.646	2246.31
440.021	2240.21
440.395	2250.6
440.77	2203.83
441.145	2292.64
441.52	2344.16
441.895	2310.26
442.27	2334.44
442.645	2355.23
443.019	2408.79
443.394	2413.99
443.769	2452.18
444.143	2424.16
444.518	2452.63
444.892	2466.64
445.267	2474.1
445.641	2500.32
446.016	2538.28
446.39	2531.5
446.764	2567.21
447.139	2539.64
447.513	2584.61
447.887	2620.99
448.262	2637.49
448.636	2653.76
449.01	2699.41
449.384	2715.68
449.758	2716.13
450.132	2752.96
450.506	2785.05
450.88	2804.49
451.254	2823.7
451.628	2848.1
452.002	2857.82
452.376	2917.25
452.75	2936.91
453.123	2989.12
453.497	3002.9
453.871	3034.09
454.244	3115.44
454.618	3149.56
454.992	3205.61
455.365	3196.57
455.739	3275.44
456.112	3296.45
456.486	3344.14
456.859	3366.51
457.232	3452.61
457.606	3417.13
457.979	3528.31
458.352	3570.57
458.725	3607.63
459.099	3638.82
459.472	3712.04
459.845	3765.82
460.218	3783.22
460.591	3888.98
460.964	3907.28
461.337	3989.99
461.71	4029.77
462.083	4081.52
462.456	4084.45
462.829	4088.97
463.201	4202.42
463.574	4207.84
463.947	4275.18
464.32	4331
464.692	4356.54
465.065	4438.34
465.438	4452.35
465.81	4560.83
466.183	4595.4
466.555	4695.29
466.928	4726.7
467.3	4666.13
467.672	4786.58
468.045	4898.67
468.417	4865.9
468.789	4919.24
469.161	4989.52
469.534	5103.64
469.906	5128.95
470.278	5215.72
470.65	5312.67
471.022	5353.8
471.394	5474.25
471.766	5446.9
472.138	5562.16
472.51	5717.41
472.882	5803.96
473.253	5815.26
473.625	5906.33
473.997	6033.1
474.369	6047.34
474.74	6116.94
475.112	6258.18
475.484	6298.18
475.855	6454.34
476.227	6539.98
476.598	6692.52
476.97	6748.34
477.341	6907.66
477.713	6997.15
478.084	7100.19
478.455	7301.55
478.827	7249.57
479.198	7479.17
479.569	7575.66
479.94	7764.58
480.311	7847.75
480.682	7977.91
481.053	8169.09
481.424	8341.74
481.795	8422.65
482.166	8542.42
482.537	8684.56
482.908	8885.46
483.279	8932.46
483.65	9163.42
484.021	9346.69
484.391	9452.9
484.762	9545.55
485.133	9755.27
485.503	9868.26
485.874	10062.83
486.244	10127.69
486.615	10387.11
486.985	10559.76
487.356	10709.82
487.726	10830.94
488.097	11082.24
488.467	11179.86
488.837	11412.4
489.207	11504.15
489.578	11676.8
489.948	11875.21
490.318	12124.24
490.688	12111.36
491.058	12388.19
491.428	12625.02
491.798	12651.46
492.168	13004.9
492.538	13113.37
492.908	13228.17
493.278	13485.56
493.648	13518.11
494.017	13733.92
494.387	13939.34
494.757	14067.24
495.126	14235.15
495.496	14406.67
495.866	14615.48
496.235	14681.46
496.605	14809.37
496.974	14912.64
497.344	15177.5
497.713	15283.26
498.082	15271.73
498.452	15573.19
498.821	15668.78
499.19	15814.54
499.559	16035.1
499.928	16083.91
500.298	16266.28
500.667	16449.78
501.036	16499.27
501.405	16573.62
501.774	16634.63
502.143	16958.01
502.512	16993.72
502.88	17160.04
503.249	17262.64
503.618	17405.46
503.987	17535.17
504.356	17704.89
504.724	17778.33
505.093	17964.77
505.462	18014.03
505.83	18106.68
506.199	18355.72
506.567	18498.54
506.936	18490.63
507.304	18840.9
507.672	18830.51
508.041	18974.01
508.409	19153.44
508.777	19289.93
509.145	19498.51
509.514	19386.88
509.882	19663.48
510.25	19715
510.618	19913.19
510.986	19880.2
511.354	20119.06
511.722	20274.09
512.09	20554.76
512.458	20402.22
512.826	20630.23
513.193	20650.8
513.561	20868.42
513.929	21010.11
514.297	21172.59
514.664	21238.58
515.032	21271.8
515.4	21603.09
515.767	21660.49
516.135	21753.59
516.502	21535.75
516.869	21868.85
517.237	22078.11
517.604	22008.05
517.972	22366.46
518.339	22527.13
518.706	22588.83
519.073	22558.55
519.44	22654.14
519.808	22954.47
520.175	22972.55
520.542	23254.57
520.909	23348.36
521.276	23499.09
521.643	23685.75
522.009	23661.34
522.376	23910.37
522.743	23933.2
523.11	24291.61
523.477	24421.1
523.843	24451.38
524.21	24711.48
524.577	24863.34
524.943	24970.01
525.31	24888.2
525.676	25258.81
526.043	25408.87
526.409	25533.38
526.776	25759.59
527.142	25715.75
527.508	25921.85
527.874	26049.3
528.241	26151.9
528.607	26199.58
528.973	26416.52
529.339	26417.2
529.705	26818.09
530.071	26830.98
530.437	26948.26
530.803	27043.4
531.169	27103.96
531.535	27136.73
531.901	27236.39
532.267	27321.58
532.632	27561.35
532.998	27528.81
533.364	27600.9
533.73	27640.67
534.095	27813.77
534.461	27785.53
534.826	27909.14
535.192	27809.71
535.557	28023.26
535.923	27982.81
536.288	27991.85
536.653	28112.75
537.019	27989.81
537.384	28118.4
537.749	28281.33
538.114	28230.94
538.479	28198.4
538.845	28275.91
539.21	28118.85
539.575	28240.43
539.94	28265.29
540.305	28449.92
540.67	28361.33
541.034	28300.99
541.399	28334.44
541.764	28246.53
542.129	28270.03
542.494	28446.75
542.858	28503.93
543.223	28311.39
543.587	28360.2
543.952	28338.96
544.316	28366.08
544.681	28309.58
545.045	28395.23
545.41	28413.98
545.774	28385.06
546.138	28461.67
546.503	28498.5
546.867	28397.71
547.231	28427.54
547.595	28521.55
547.959	28491.04
548.324	28378.05
548.688	28199.53
549.052	28369.24
549.416	28348.22
549.779	28195.69
550.143	28291.73
550.507	28369.92
550.871	28477.49
551.235	28243.82
551.599	28584.15
551.962	28399.97
552.326	28432.97
552.689	28460.54
553.053	28075.69
553.417	28214.67
553.78	28548.67
554.143	28507.54
554.507	28346.64
554.87	28529.69
555.234	28656.92
555.597	28316.81
555.96	28463.93
556.323	28458.05
556.686	28397.49
557.05	28594.09
557.413	28517.94
557.776	28472.97
558.139	28671.38
558.502	28722.23
558.865	28572.4
559.228	28756.57
559.59	28737.59
559.953	28678.61
560.316	28937.13
560.679	28783.01
561.041	28958.83
561.404	28983.46
561.767	29198.6
562.129	28956.57
562.492	29145.26
562.854	29191.37
563.217	29124.7
563.579	29113.63
563.941	29386.84
564.304	29414.18
564.666	29517.46
565.028	29397.46
565.39	29485.82
565.753	29561.07
566.115	29524.46
566.477	29757.68
566.839	29794.74
567.201	29924.68
567.563	30020.72
567.925	29921.74
568.287	29982.08
568.648	30035.86
569.01	30190.66
569.372	30299.36
569.734	30232.92
570.095	30435.17
570.457	30553.14
570.819	30539.58
571.18	30512.01
571.542	30733.92
571.903	30827.25
572.265	30773.02
572.626	30931.21
572.987	30871.1
573.349	31051.43
573.71	31072.67
574.071	31160.13
574.432	31276.06
574.794	31400.57
575.155	31353.79
575.516	31364.87
575.877	31445.32
576.238	31537.97
576.599	31535.94
576.96	31662.71
577.32	31645.99
577.681	31688.93
578.042	31910.84
578.403	31784.07
578.763	31767.79
579.124	31690.28
579.485	31912.2
579.845	31961.24
580.206	31948.58
580.566	31953.55
580.927	32026.54
581.287	32115.13
581.648	31996.72
582.008	32214.34
582.368	32157.16
582.728	32163.26
583.089	32049.82
583.449	32131.17
583.809	32121.46
584.169	32311.96
584.529	32164.17
584.889	32347.89
585.249	32230.38
585.609	32133.43
585.969	32355.12
586.329	32307.89
586.688	32333.66
587.048	32295.92
587.408	32372.98
587.768	32293.2
588.127	32443.48
588.487	32299.31
588.846	32509.92
589.206	32204.85
589.565	32188.12
589.925	32431.73
590.284	32341.11
590.643	32334.11
591.003	32372.3
591.362	32534.33
591.721	32448
592.08	32406.2
592.44	32590.15
592.799	32471.73
593.158	32445.74
593.517	32482.13
593.876	32615.46
594.235	32642.8
594.593	32569.81
594.952	32601.9
595.311	32593.76
595.67	32620.65
596.029	32818.16
596.387	32785.4
596.746	32951.49
597.104	32660.65
597.463	32638.96
597.822	32726.19
598.18	32769.8
598.538	32710.82
598.897	32944.26
599.255	32692.97
599.613	33083.69
599.972	32894.77
600.33	32946.97
600.688	32905.84
601.046	32923.47
601.404	33286.62
601.762	33094.09
602.12	33189.45
602.478	33250.02
602.836	33235.1
603.194	33010.25
603.552	33175.22
603.91	33022.45
604.268	33169.11
604.625	33184.48
604.983	33376.34
605.341	33088.21
605.698	33326.62
606.056	33483.46
606.413	33385.61
606.771	33622.66
607.128	33422.67
607.485	33347.19
607.843	33525.94
608.2	33689.33
608.557	33763.67
608.914	33663.79
609.272	33859.94
609.629	33900.17
609.986	33920.96
610.343	33921.18
610.7	34217.67
611.057	34004.57
611.414	34018.58
611.771	34129.31
612.127	34228.75
612.484	34175.87
612.841	34367.27
613.198	34266.03
613.554	34317.33
613.911	34584.22
614.267	34466.71
614.624	34543.99
614.98	34651.79
615.337	34722.97
615.693	34729.3
616.05	34825.57
616.406	34897.2
616.762	34736.53
617.118	34843.87
617.475	34844.1
617.831	35038.9
618.187	35041.83
618.543	35145.33
618.899	35372.45
619.255	35136.75
619.611	35167.03
619.967	35287.93
620.323	35316.4
620.678	35345.1
621.034	35215.39
621.39	35339
621.746	35258.55
622.101	35707.35
622.457	35303.97
622.812	35565.66
623.168	35453.35
623.523	35599.78
623.879	35706.22
624.234	35481.14
624.589	35593.91
624.945	35736.5
625.3	35612.67
625.655	35696.5
626.01	35756.16
626.365	35674.13
626.72	35692.89
627.075	35600.69
627.43	35661.25
627.785	35663.96
628.14	35606.34
628.495	35617.86
628.85	35760.91
629.205	35602.04
629.559	35789.84
629.914	35595.94
630.269	35619.9
630.623	35521.37
630.978	35539.22
631.332	35680.91
631.687	35636.39
632.041	35341.49
632.396	35486.79
632.75	35443.86
633.104	35411.77
633.459	35197.53
633.813	35393.01
634.167	35224.2
634.521	35299.68
634.875	35244.09
635.229	35168.38
635.583	35044.77
635.937	35092.45
636.291	34945.79
636.645	34968.61
636.999	34871.44
637.352	34972.23
637.706	34849.07
638.06	34983.53
638.413	34816.53
638.767	34728.62
639.121	34772.69
639.474	34584.9
639.828	34707.38
640.181	34639.13
640.534	34685.46
640.888	34643.2
641.241	34406.14
641.594	34527.5
641.947	34733.37
642.301	34499.25
642.654	34636.87
643.007	34466.03
643.36	34508.29
643.713	34360.27
644.066	34563.2
644.419	34317.33
644.771	34118.69
645.124	33591.93
645.477	33761.41
645.83	33578.59
646.182	33485.72
646.535	33454.98
646.888	33505.6
647.24	33517.35
647.593	33557.8
647.945	33556.22
648.298	33362.78
648.65	33273.07
649.002	33133.18
649.355	33078.95
649.707	33084.82
650.059	33014.99
650.411	33467.86
650.763	33647.07
651.115	34194.17
651.467	33928.87
651.819	34236.66
652.171	33976.55
652.523	33941.75
652.875	34129.99
653.227	33879.6
653.578	34110.56
653.93	34079.37
654.282	34007.96
654.633	34033.05
654.985	34021.52
655.337	34004.12
655.688	34048.64
656.039	34089.32
656.391	33821.3
656.742	34037.79
657.094	33916.21
657.445	34137
657.796	34133.38
658.147	34112.59
658.498	34058.58
658.849	34302.19
659.2	34249.31
659.551	34062.88
659.902	34378.8
660.253	34127.51
660.604	34225.81
660.955	34279.37
661.306	34391.45
661.656	34170.22
662.007	34210.44
662.358	34402.75
662.708	34375.41
663.059	34301.06
663.409	34162.76
663.76	34337.44
664.11	34475.52
664.461	34481.17
664.811	34526.37
665.161	34522.52
665.511	34486.82
665.862	34573.14
666.212	34690.66
666.562	34723.65
666.912	34486.82
667.262	34504.45
667.612	34503.99
667.962	34518
668.312	34487.27
668.662	34651.11
669.011	34405.24
669.361	34517.78
669.711	34515.74
670.06	34404.34
670.41	34261.51
670.76	34448.85
671.109	34506.48
671.459	34508.29
671.808	34385.8
672.157	34507.61
672.507	34288.63
672.856	34318.01
673.205	34366.14
673.554	34442.07
673.904	34338.8
674.253	34449.08
674.602	34293.15
674.951	33830.34
675.3	33707.4
675.649	34236.2
675.998	34201.85
676.346	34178.58
676.695	34290.67
677.044	33949.43
677.393	34050.67
677.741	34252.93
678.09	34119.15
678.438	33837.57
678.787	34043.22
679.135	33995.76
679.484	33772.71
679.832	33897.46
680.181	33732.71
680.529	33691.59
680.877	33651.36
681.225	33721.64
681.573	33838.93
681.922	33762.32
682.27	33588.76
682.618	33543.79
682.966	33405.49
683.314	33400.07
683.661	33354.42
684.009	33227.19
684.357	33129.57
684.705	33122.79
685.053	33009.12
685.4	32845.73
685.748	32803.25
686.095	32825.39
686.443	32654.78
686.79	32574.78
687.138	32668.11
687.485	32502.24
687.832	32397.61
688.18	32438.51
688.527	32172.76
688.874	32179.08
689.221	32109.71
689.568	31978.41
689.915	31912.2
690.262	32001.23
690.609	31736.16
690.956	31623.62
691.303	31510.4
691.65	31508.37
691.997	31288.26
692.344	31185.66
692.69	31157.64
693.037	31047.14
693.383	30833.81
693.73	30811.89
694.077	30716.07
694.423	30535.28
694.769	30564.89
695.116	30441.73
695.462	30244.9
695.808	30190.21
696.155	30155.41
696.501	29837
696.847	30044.9
697.193	29705.7
697.539	29712.26
697.885	29450.34
698.231	29250.12
698.577	29299.61
698.923	29282.66
699.269	29027.3
699.614	28978.94
699.96	28688.55
700.306	28694.66
700.651	28655.11
700.997	28392.06
701.342	28479.07
701.688	28379.41
702.033	28167.89
702.379	28127.21
702.724	28061.45
703.069	28096.03
703.415	27669.15
703.76	27729.93
704.105	27580.79
704.45	27475.48
704.795	27477.51
705.14	27276.39
705.485	27299.21
705.83	27030.52
706.175	27108.71
706.52	27075.26
706.865	26933.8
707.209	26740.13
707.554	26760.92
707.899	26669.85
708.243	26496.52
708.588	26531.1
708.932	26337.65
709.277	26438.44
709.621	26314.6
709.966	26087.04
710.31	26141.28
710.654	25964.33
710.998	26012.92
711.342	26057.21
711.687	25909.64
712.031	25873.26
712.375	25655.86
712.719	25682.98
713.063	25649.76
713.407	25626.26
713.75	25549.88
714.094	25548.75
714.438	25497.9
714.782	25492.71
715.125	25325.48
715.469	25568.86
715.812	25285.03
716.156	25154.64
716.499	25202.77
716.843	25320.05
717.186	25189.66
717.53	25192.6
717.873	25319.6
718.216	25216.78
718.559	25150.79
718.902	24988.54
719.246	25049.55
719.589	25061.3
719.932	24965.04
720.275	25080.06
720.617	25083.68
720.96	24913.74
721.303	24928.65
721.646	24911.03
721.989	24868.32
722.331	24919.16
722.674	24934.75
723.016	24924.81
723.359	24823.8
723.701	24915.77
724.044	24781.99
724.386	24703.57
724.729	24850.01
725.071	24884.36
725.413	24882.78
725.755	24754.87
726.097	24765.94
726.439	24648.43
726.782	24743.12
727.124	24825.83
727.465	24765.72
727.807	24718.49
728.149	24867.19
728.491	24702.67
728.833	24850.24
729.175	24818.15
729.516	24792.16
729.858	24734.99
730.199	24859.95
730.541	24783.35
730.882	24753.06
731.224	24844.81
731.565	24873.74
731.906	24968.65
732.248	25004.13
732.589	24887.52
732.93	24871.25
733.271	24920.07
733.612	24937.01
733.953	25129.33
734.294	25044.58
734.635	25146.95
734.976	25165.03
735.317	25182.66
735.658	25231.47
735.999	25120.74
736.339	25128.42
736.68	25311.02
737.021	25416.1
737.361	25257.91
737.702	25480.5
738.042	25400.5
738.383	25492.03
738.723	25598.92
739.063	25506.49
739.404	25696.32
739.744	25701.51
740.084	25805.92
740.424	25901.73
740.764	25802.53
741.104	25953.26
741.444	26011.79
741.784	26012.01
742.124	26094.72
742.464	26278.45
742.804	26336.53
743.143	26291.1
743.483	26493.13
743.823	26506.24
744.162	26610.19
744.502	26735.16
744.841	26841.82
745.181	26966.79
745.52	26967.92
745.86	27134.92
746.199	27233
746.538	27268.03
746.877	27533.56
747.216	27623.04
747.556	27716.38
747.895	27875.47
748.234	28026.42
748.573	28164.95
748.911	28203.14
749.25	28464.83
749.589	28484.49
749.928	28873.18
750.267	28952.73
750.605	29044.25
750.944	29244.7
751.283	29293.74
751.621	29594.97
751.96	29686.95
752.298	30008.29
752.636	29995.86
752.975	30153.6
753.313	30265.01
753.651	30673.81
753.989	30602.4
754.327	30801.27
