Data from 14-4516_FLMS001491_007.txt Node
Date: Thu Apr 19 16:47:08 BST 2018
User: hsy
Spectrometer: FLMS00149
Trigger mode: 0
Integration Time (sec): 1.000000E-2
Scans to average: 10
Electric dark correction enabled: true
Nonlinearity correction enabled: false
Boxcar width: 0
XAxis mode: Wavelengths
Number of Pixels in Spectrum: 2048
>>>>>Begin Spectral Data<<<<<
341.393	5.79
341.776	5.79
342.16	5.79
342.543	-61.78
342.927	-55.68
343.31	-67.65
343.693	-85.51
344.077	-66.07
344.46	-50.7
344.843	-50.7
345.226	-45.96
345.61	-25.39
345.993	-22.46
346.376	0.37
346.759	10.76
347.142	28.84
347.525	35.85
347.908	51.67
348.291	73.59
348.674	99.12
349.057	114.26
349.44	102.51
349.823	134.83
350.206	166.92
350.588	220.93
350.971	254.82
351.354	262.96
351.737	262.51
352.119	292.34
352.502	274.94
352.884	302.73
353.267	309.29
353.65	322.17
354.032	344.54
354.414	347.93
354.797	329.4
355.179	349.06
355.562	356.06
355.944	354.26
356.326	357.42
356.709	372.56
357.091	376.18
357.473	386.8
357.855	360.81
358.238	392
358.62	376.4
359.002	387.93
359.384	370.98
359.766	370.98
360.148	364.88
360.53	402.84
360.912	370.98
361.294	369.85
361.676	370.53
362.057	389.96
362.439	358.78
362.821	381.37
363.203	354.93
363.584	347.7
363.966	370.3
364.348	368.49
364.729	370.53
365.111	347.02
365.493	364.65
365.874	355.84
366.256	342.28
366.637	375.72
367.019	366.23
367.4	375.72
367.781	370.53
368.163	354.93
368.544	356.74
368.925	360.58
369.306	356.74
369.688	366.23
370.069	356.97
370.45	363.07
370.831	356.06
371.212	338.21
371.593	373.24
371.974	356.52
372.355	348.83
372.736	347.7
373.117	367.82
373.498	366.01
373.879	381.83
374.26	371.88
374.641	352.9
375.021	379.11
375.402	372.56
375.783	396.97
376.163	372.33
376.544	384.31
376.925	393.8
377.305	369.4
377.686	381.15
378.066	388.38
378.447	386.12
378.827	382.5
379.208	395.39
379.588	385.44
379.968	394.93
380.349	401.49
380.729	408.49
381.109	390.41
381.489	395.61
381.87	422.28
382.25	418.44
382.63	402.84
383.01	461.15
383.39	418.21
383.77	422.95
384.15	421.6
384.53	415.05
384.91	415.5
385.29	419.11
385.67	427.47
386.049	432.67
386.429	416.4
386.809	443.07
387.189	432.22
387.568	475.38
387.948	459.11
388.328	447.81
388.707	474.03
389.087	446.23
389.466	464.31
389.846	472.45
390.225	489.85
390.605	454.82
390.984	473.35
391.363	477.87
391.743	478.55
392.122	491.65
392.501	483.07
392.881	507.7
393.26	492.11
393.639	521.48
394.018	513.35
394.397	497.76
394.776	505.44
395.155	514.7
395.534	509.05
395.913	535.04
396.292	523.29
396.671	544.08
397.05	550.64
397.429	561.26
397.808	540.92
398.186	556.74
398.565	548.6
398.944	581.82
399.323	551.54
399.701	568.94
400.08	577.98
400.458	570.3
400.837	582.5
401.215	587.02
401.594	610.75
401.972	618.88
402.351	597.41
402.729	613.68
403.107	630.86
403.486	612.55
403.864	655.94
404.242	643.51
404.62	667.69
404.999	660.24
405.377	660.24
405.755	651.42
406.133	686.22
406.511	694.13
406.889	672.21
407.267	713.12
407.645	728.48
408.023	743.17
408.401	758.31
408.779	775.94
409.156	761.7
409.534	780.23
409.912	811.19
410.29	834.7
410.667	834.02
411.045	844.64
411.422	857.75
411.8	868.59
412.178	888.48
412.555	899.1
412.933	909.04
413.31	924.64
413.687	952.88
414.065	931.19
414.442	935.48
414.819	992.66
415.197	1018.42
415.574	1009.61
415.951	1008.48
416.328	1015.26
416.705	1036.5
417.082	1046.44
417.46	1069.04
417.837	1066.55
418.214	1107.91
418.591	1120.34
418.967	1111.07
419.344	1137.29
419.721	1154.46
420.098	1133.44
420.475	1148.59
420.852	1146.1
421.228	1185.87
421.605	1208.25
421.982	1224.97
422.358	1271.97
422.735	1254.8
423.111	1258.41
423.488	1285.98
423.864	1291.41
424.241	1290.95
424.617	1328.02
424.994	1321.46
425.37	1362.82
425.746	1380.44
426.123	1382.48
426.499	1374.12
426.875	1418.64
427.251	1441.69
427.627	1450.5
428.003	1479.2
428.379	1480.55
428.756	1538.18
429.132	1544.73
429.507	1557.61
429.883	1570.72
430.259	1613.88
430.635	1618.86
431.011	1646.65
431.387	1681
431.763	1670.61
432.138	1702.24
432.514	1718.51
432.89	1773.65
433.265	1778.4
433.641	1805.29
434.016	1808.91
434.392	1873.09
434.767	1903.37
435.143	1908.57
435.518	1937.27
435.894	1972.07
436.269	1965.74
436.644	2035.34
437.02	2005.96
437.395	2107.2
437.77	2060.43
438.145	2144.72
438.52	2156.02
438.895	2173.42
439.271	2200.31
439.646	2197.37
440.021	2271.49
440.395	2268.56
440.77	2261.78
441.145	2259.97
441.52	2310.36
441.895	2322.34
442.27	2350.36
442.645	2332.51
443.019	2363.02
443.394	2381.77
443.769	2422.22
444.143	2418.61
444.518	2431.49
444.892	2440.3
445.267	2481.88
445.641	2499.06
446.016	2511.94
446.39	2517.14
446.764	2563.24
447.139	2523.46
447.513	2554.65
447.887	2623.58
448.262	2604.37
448.636	2681.65
449.01	2671.48
449.384	2718.49
449.758	2717.58
450.132	2732.72
450.506	2768.88
450.88	2780.63
451.254	2783.34
451.628	2866.28
452.002	2911.48
452.376	2904.47
452.75	2890.46
453.123	2969.55
453.497	3045.94
453.871	3029.44
454.244	3077.8
454.618	3083.9
454.992	3197.8
455.365	3199.83
455.739	3243.45
456.112	3276.21
456.486	3327.51
456.859	3361.86
457.232	3426.94
457.606	3464.23
457.979	3497.68
458.352	3525.7
458.725	3616.54
459.099	3648.18
459.472	3695.86
459.845	3797.78
460.218	3772.92
460.591	3842.75
460.964	3842.53
461.337	3895.86
461.71	3929.98
462.083	4060.83
462.456	4085.23
462.829	4085.01
463.201	4205.91
463.574	4156.87
463.947	4283.42
464.32	4329.29
464.692	4367.26
465.065	4391.89
465.438	4455.84
465.81	4569.74
466.183	4553.47
466.555	4613.13
466.928	4694.71
467.3	4682.5
467.672	4758.66
468.045	4845.66
468.417	4889.5
468.789	4894.93
469.161	4984.87
469.534	5049.05
469.906	5091.53
470.278	5202.26
470.65	5286.33
471.022	5414.69
471.394	5435.03
471.766	5428.02
472.138	5587.34
472.51	5621.69
472.882	5800.89
473.253	5846.77
473.625	5856.26
473.997	6035.24
474.369	6023.71
474.74	6111.62
475.112	6234.33
475.484	6276.81
475.855	6401.33
476.227	6523.36
476.598	6693.3
476.97	6709.34
477.341	6868.66
477.713	6979.84
478.084	7028.21
478.455	7251.02
478.827	7250.57
479.198	7488.76
479.569	7524.46
479.94	7741.18
480.311	7821.4
480.682	8027.95
481.053	8192.47
481.424	8289.19
481.795	8441.5
482.166	8523.98
482.537	8629.29
482.908	8844.65
483.279	8975.5
483.65	9130.3
484.021	9310.63
484.391	9418.88
484.762	9505.2
485.133	9628.14
485.503	9755.82
485.874	10015.7
486.244	10081.46
486.615	10342.92
486.985	10492.52
487.356	10586.53
487.726	10729.35
488.097	10976.8
488.467	11162.79
488.837	11359.84
489.207	11463.12
489.578	11742.21
489.948	11847.06
490.318	12024.91
490.688	12078.69
491.058	12342.87
491.428	12482.98
491.798	12593.48
492.168	12982.85
492.538	13054.71
492.908	13158.89
493.278	13430.52
493.648	13496.06
494.017	13717.97
494.387	13923.84
494.757	13971.3
495.126	14167.45
495.496	14310.5
495.866	14448.12
496.235	14574.9
496.605	14852.18
496.974	14794.33
497.344	15024.38
497.713	15252.62
498.082	15350.25
498.452	15512.05
498.821	15701.2
499.19	15803.12
499.559	15975.99
499.928	15981.64
500.298	16164.24
500.667	16327.4
501.036	16378.02
501.405	16588.86
501.774	16765.12
502.143	16888.74
502.512	17081.05
502.88	17228.39
503.249	17200.37
503.618	17469.74
503.987	17547.25
504.356	17721.48
504.724	17827.7
505.093	17907.92
505.462	18022.94
505.83	18084.64
506.199	18363.05
506.567	18585.87
506.936	18544.51
507.304	18790.16
507.672	18957.16
508.041	18887.55
508.409	19154.44
508.777	19241.9
509.145	19436.01
509.514	19446.64
509.882	19602.11
510.25	19681.88
510.618	19817.93
510.986	19969.33
511.354	20128.2
511.722	20287.97
512.09	20486.61
512.458	20372.94
512.826	20649.54
513.193	20729.09
513.561	20869.2
513.929	20971.57
514.297	21172.47
514.664	21243.65
515.032	21342.18
515.4	21492.91
515.767	21679.35
516.135	21693.58
516.502	21505.11
516.869	22023.06
517.237	21992.11
517.604	21975.38
517.972	22385.09
518.339	22360.68
518.706	22449.95
519.073	22542.6
519.44	22628.92
519.808	22858.75
520.175	22938.52
520.542	23187.55
520.909	23279.08
521.276	23221.9
521.643	23611.72
522.009	23640.42
522.376	23775.79
522.743	23823.92
523.11	24055.1
523.477	24267.07
523.843	24387.75
524.21	24651.92
524.577	24740.73
524.943	24756.78
525.31	24944.8
525.676	25180.27
526.043	25269.08
526.409	25425.24
526.776	25516.76
527.142	25613.25
527.508	25751.1
527.874	25856.86
528.241	26126.91
528.607	26113.35
528.973	26425.21
529.339	26254.37
529.705	26526.68
530.071	26780.23
530.437	26730.06
530.803	26948.81
531.169	26998.53
531.535	27016.38
531.901	27153.55
532.267	27117.85
532.632	27462.47
532.998	27382.7
533.364	27416.37
533.73	27544.05
534.095	27568.46
534.461	27615.69
534.826	27720.77
535.192	27749.24
535.557	27918.05
535.923	27849.13
536.288	27979.29
536.653	28012.74
537.019	27911.95
537.384	28052.28
537.749	27945.4
538.114	27990.59
538.479	27897.49
538.845	27987.65
539.21	28035.11
539.575	28076.01
539.94	28052.74
540.305	28243.01
540.67	28084.37
541.034	28025.17
541.399	28207.08
541.764	28088.67
542.129	28159.4
542.494	28146.75
542.858	28170.25
543.223	28157.59
543.587	28139.51
543.952	28111.04
544.316	28157.14
544.681	28109.01
545.045	28217.25
545.41	28189.46
545.774	28085.28
546.138	28050.48
546.503	28079.18
546.867	28120.31
547.231	28222
547.595	28202.79
547.959	28158.95
548.324	27989.01
548.688	28201.21
549.052	28056.8
549.416	28036.24
549.779	27972.51
550.143	28165.73
550.507	28149.68
550.871	28056.58
551.235	28076.69
551.599	28147.65
551.962	28139.51
552.326	28117.82
552.689	28188.1
553.053	28014.77
553.417	28048.9
553.78	28199.4
554.143	28064.04
554.507	28178.84
554.87	28099.06
555.234	28370.24
555.597	28029.91
555.96	28121.66
556.323	28148.78
556.686	28185.39
557.05	28161.66
557.413	28257.7
557.776	28265.16
558.139	28284.6
558.502	28293.63
558.865	28318.04
559.228	28379.06
559.59	28503.12
559.953	28289.79
560.316	28664.7
560.679	28453.4
561.041	28623.12
561.404	28671.7
561.767	28813.85
562.129	28792.6
562.492	28853.85
562.854	28762.32
563.217	28795.99
563.579	28890
563.941	28942.66
564.304	29156.44
564.666	29160.05
565.028	28989.44
565.39	29097.23
565.753	29253.38
566.115	29225.59
566.477	29334.29
566.839	29362.08
567.201	29632.36
567.563	29606.82
567.925	29567.05
568.287	29580.38
568.648	29631
569.01	29751
569.372	29985.12
569.734	29937.66
570.095	30025.11
570.457	30044.1
570.819	30231.21
571.18	30101.72
571.542	30211.32
571.903	30186.47
572.265	30378.78
572.626	30581.71
572.987	30461.04
573.349	30583.29
573.71	30616.51
574.071	30653.57
574.432	30876.39
574.794	30999.33
575.155	30881.59
575.516	30820.57
575.877	31048.59
576.238	31004.52
576.599	31079.32
576.96	31094.92
577.32	31263.73
577.681	31092.43
578.042	31253.78
578.403	31286.32
578.763	31277.74
579.124	31297.62
579.485	31469.14
579.845	31540.55
580.206	31451.97
580.566	31500.1
580.927	31343.72
581.287	31731.51
581.648	31499.43
582.008	31713.66
582.368	31629.37
582.728	31585.3
583.089	31557.96
583.449	31626.2
583.809	31742.13
584.169	31652.64
584.529	31615.36
584.889	31918.62
585.249	31701.68
585.609	31362.03
585.969	31749.14
586.329	31619.65
586.688	31699.19
587.048	31740.78
587.408	31725.18
587.768	31651.06
588.127	31740.55
588.487	31646.99
588.846	31791.17
589.206	31554.34
589.565	31680.44
589.925	31878.4
590.284	31874.11
590.643	31715.47
591.003	31784.39
591.362	31936.93
591.721	31829.36
592.08	31872.52
592.44	31988
592.799	31937.15
593.158	31849.47
593.517	31774
593.876	31939.19
594.235	31863.03
594.593	31983.93
594.952	31958.85
595.311	31840.43
595.67	31867.55
596.029	32144.61
596.387	32040.43
596.746	32208.56
597.104	32002.46
597.463	31938.28
597.822	32260.54
598.18	32014.44
598.538	32015.8
598.897	32364.94
599.255	32156.58
599.613	32442.68
599.972	32288.56
600.33	32315.22
600.688	32405.84
601.046	32413.3
601.404	32422.11
601.762	32493.98
602.12	32533.07
602.478	32658.04
602.836	32581.21
603.194	32304.83
603.552	32484.48
603.91	32382.57
604.268	32523.35
604.625	32611.04
604.983	32737.59
605.341	32395.22
605.698	32719.73
606.056	32898.03
606.413	32698.26
606.771	32918.15
607.128	32847.41
607.485	32698.72
607.843	32713.41
608.2	32873.4
608.557	33131.25
608.914	33030.23
609.272	33042.66
609.629	33314.52
609.986	33268.87
610.343	33209.66
610.7	33555.42
611.057	33446.49
611.414	33425.25
611.771	33541.63
612.127	33525.36
612.484	33833.83
612.841	33717.45
613.198	33724.68
613.554	33685.36
613.911	33833.83
614.267	33853.04
614.624	33808.97
614.98	34067.04
615.337	34168.28
615.693	34016.42
616.05	34057.32
616.406	34295.28
616.762	34238.79
617.118	34156.76
617.475	34200.6
617.831	34331.44
618.187	34303.19
618.543	34427.71
618.899	34624.32
619.255	34632.45
619.611	34560.81
619.967	34586.58
620.323	34750.41
620.678	34504.54
621.034	34544.77
621.39	34615.05
621.746	34676.52
622.101	35077.19
622.457	34654.37
622.812	34977.75
623.168	34775.5
623.523	34769.4
623.879	34995.15
624.234	34755.84
624.589	34866.12
624.945	34943.4
625.3	34903.86
625.655	34909.05
626.01	35022.05
626.365	35071.08
626.72	34941.6
627.075	34860.02
627.43	34986.57
627.785	34855.95
628.14	34871.54
628.495	35104.53
628.85	35025.43
629.205	34935.95
629.559	35056.17
629.914	35022.05
630.269	34830.41
630.623	34715.39
630.978	34729.4
631.332	34830.64
631.687	34892.56
632.041	34685.56
632.396	34822.28
632.75	34751.54
633.104	34792.22
633.459	34644.2
633.813	34639.68
634.167	34598.1
634.521	34521.27
634.875	34576.63
635.229	34524.43
635.583	34381.38
635.937	34502.51
636.291	34399.24
636.645	34359.46
636.999	34209.64
637.352	34427.71
637.706	34021.62
638.06	34265.23
638.413	34252.8
638.767	33987.27
639.121	34205.57
639.474	33986.14
639.828	33933.26
640.181	33973.71
640.534	33974.39
640.888	33756.99
641.241	33739.82
641.594	33868.4
641.947	33886.03
642.301	33767.84
642.654	33845.35
643.007	33697.79
643.36	33886.48
643.713	33733.04
644.066	33874.96
644.419	33628.41
644.771	33314.97
645.124	33148.65
645.477	33111.36
645.83	32815.55
646.182	32880.63
646.535	32764.93
646.888	32862.55
647.24	32721.99
647.593	33058.93
647.945	32815.55
648.298	32746.85
648.65	32636.12
649.002	32450.59
649.355	32526.07
649.707	32440.19
650.059	32420.98
650.411	32856.23
650.763	33086.95
651.115	33606.26
651.467	33463.44
651.819	33461.41
652.171	33255.76
652.523	33318.59
652.875	33347.51
653.227	33169.44
653.578	33476.78
653.93	33382.77
654.282	33297.12
654.633	33215.09
654.985	33438.81
655.337	33410.56
655.688	33253.5
656.039	33399.04
656.391	33248.31
656.742	33274.07
657.094	33340.51
657.445	33359.49
657.796	33433.61
658.147	33458.02
658.498	33420.73
658.849	33544.34
659.2	33436.78
659.551	33384.8
659.902	33526.72
660.253	33554.74
660.604	33588.41
660.955	33369.21
661.306	33630.9
661.656	33563.55
662.007	33469.32
662.358	33612.82
662.708	33573.95
663.059	33587.51
663.409	33355.65
663.76	33763.32
664.11	33745.24
664.461	33846.71
664.811	33737.33
665.161	33841.96
665.511	33729.88
665.862	33652.14
666.212	33868.4
666.562	33742.08
666.912	33894.39
667.262	33709.31
667.612	33637.22
667.962	33829.31
668.312	33829.08
668.662	33901.85
669.011	33916.31
669.361	33839.7
669.711	33795.64
670.06	33739.82
670.41	33715.41
670.76	33632.93
671.109	33866.82
671.459	33738.01
671.808	33710.44
672.157	33691.23
672.507	33627.96
672.856	33652.59
673.205	33613.04
673.554	33720.16
673.904	33502.76
674.253	33842.87
674.602	33640.39
674.951	33134.19
675.3	32861.65
675.649	33528.75
675.998	33542.76
676.346	33563.33
676.695	33565.59
677.044	33382.54
677.393	33467.74
677.741	33555.19
678.09	33336.67
678.438	33301.41
678.787	33314.07
679.135	33382.31
679.484	33091.93
679.832	33264.13
680.181	33223
680.529	33229.55
680.877	32930.8
681.225	32980.97
681.573	33047.18
681.922	32799.05
682.27	32794.99
682.618	32820.3
682.966	32751.37
683.314	32729.68
683.661	32637.93
684.009	32451.94
684.357	32497.14
684.705	32384.6
685.053	32474.99
685.4	32276.35
685.748	32156.36
686.095	32106.42
686.443	31985.97
686.79	31948.23
687.138	32042.01
687.485	31970.6
687.832	31731.96
688.18	31734.22
688.527	31582.81
688.874	31580.1
689.221	31435.92
689.568	31408.81
689.915	31295.82
690.262	31183.05
690.609	31149.83
690.956	30901.25
691.303	30999.78
691.65	30768.37
691.997	30804.08
692.344	30533.8
692.69	30550.3
693.037	30494.93
693.383	30188.73
693.73	30247.26
694.077	30011.33
694.423	29976.53
694.769	29955.29
695.116	29868.73
695.462	29679.59
695.808	29620.15
696.155	29656.76
696.501	29259.48
696.847	29279.82
697.193	29149.21
697.539	29142.88
697.885	28837.58
698.231	28737.92
698.577	28806.62
698.923	28675.77
699.269	28370.47
699.614	28354.2
699.96	28194.65
700.306	28142.9
700.651	28033.75
700.997	27848.67
701.342	27850.93
701.688	27615.69
702.033	27668.34
702.379	27432.64
702.724	27421.57
703.069	27527.55
703.415	27154.91
703.76	27043.05
704.105	27107
704.45	27014.12
704.795	26775.93
705.14	26717.63
705.485	26686.67
705.83	26481.25
706.175	26560.35
706.52	26466.34
706.865	26357.41
707.209	26197.87
707.554	26173.69
707.899	26093.24
708.243	26027.93
708.588	25885.34
708.932	25705.23
709.277	25672.23
709.621	25726.02
709.966	25433.37
710.31	25540.49
710.654	25393.15
710.998	25374.16
711.342	25379.59
711.687	25362.41
712.031	25233.6
712.375	25086.04
712.719	25100.27
713.063	24993.16
713.407	25143.43
713.75	25022.76
714.094	25022.08
714.438	24851.92
714.782	24840.62
715.125	24671.81
715.469	24986.38
715.812	24688.31
716.156	24689.21
716.499	24729.21
716.843	24613.28
717.186	24503.23
717.53	24693.05
717.873	24681.3
718.216	24531.7
718.559	24626.84
718.902	24383.68
719.246	24428.88
719.589	24359.73
719.932	24465.71
720.275	24457.8
720.617	24413.06
720.96	24359.27
721.303	24327.86
721.646	24420.74
721.989	24281.54
722.331	24322.67
722.674	24245.38
723.016	24359.5
723.359	24102.11
723.701	24402.89
724.044	24234.08
724.386	24089
724.729	24229.33
725.071	24283.8
725.413	24196.79
725.755	24234.53
726.097	24226.62
726.439	24102.33
726.782	24161.99
727.124	24324.47
727.465	24280.41
727.807	24205.15
728.149	24252.61
728.491	24119.51
728.833	24329.22
729.175	24357.92
729.516	24141.88
729.858	24214.87
730.199	24440.63
730.541	24300.29
730.882	24179.84
731.224	24451.25
731.565	24286.28
731.906	24311.37
732.248	24451.93
732.589	24324.02
732.93	24321.08
733.271	24402.89
733.612	24365.38
733.953	24459.61
734.294	24465.71
734.635	24531.7
734.976	24667.06
735.317	24658.25
735.658	24652.6
735.999	24556.33
736.339	24606.27
736.68	24694.18
737.021	24660.96
737.361	24784.57
737.702	25046.26
738.042	24828.64
738.383	25062.31
738.723	24950.67
739.063	24940.05
739.404	25118.58
739.744	25131.91
740.084	25216.88
740.424	25320.38
740.764	25343.88
741.104	25529.64
741.444	25447.83
741.784	25474.73
742.124	25691.67
742.464	25598.11
742.804	25750.42
743.143	25732.12
743.483	25978.67
743.823	25902.74
744.162	26132.79
744.502	26206.68
744.841	26202.62
745.181	26397.19
745.52	26444.19
745.86	26523.51
746.199	26648.71
746.538	26878.76
746.877	27097.51
747.216	27235.13
747.556	27191.06
747.895	27381.79
748.234	27549.7
748.573	27637.38
748.911	27791.5
749.25	27872.63
749.589	27963.93
749.928	28182.23
750.267	28360.98
750.605	28534.76
750.944	28683.68
751.283	28712.61
751.621	29116.44
751.96	29214.97
752.298	29342.42
752.636	29708.74
752.975	29727.95
753.313	29725.91
753.651	30268.05
753.989	30281.6
