Data from 14-4516_FLMS001491_004.txt Node
Date: Thu Apr 19 16:46:59 BST 2018
User: hsy
Spectrometer: FLMS00149
Trigger mode: 0
Integration Time (sec): 1.000000E-2
Scans to average: 10
Electric dark correction enabled: true
Nonlinearity correction enabled: false
Boxcar width: 0
XAxis mode: Wavelengths
Number of Pixels in Spectrum: 2048
>>>>>Begin Spectral Data<<<<<
341.393	-40.51
341.776	-40.51
342.16	-40.51
342.543	-64.24
342.927	-74.86
343.31	-73.95
343.693	-64.24
344.077	-68.3
344.46	-51.35
344.843	-50.45
345.226	-68.98
345.61	-35.99
345.993	-18.14
346.376	2.43
346.759	8.3
347.142	29.32
347.525	42.2
347.908	71.81
348.291	71.81
348.674	104.35
349.057	101.18
349.44	110
349.823	156.1
350.206	167.4
350.588	226.15
350.971	253.72
351.354	242.87
351.737	277.68
352.119	258.92
352.502	279.94
352.884	327.62
353.267	319.26
353.65	327.84
354.032	340.27
354.414	354.51
354.797	347.05
355.179	355.64
355.562	358.35
355.944	346.15
356.326	365.36
356.709	371.01
357.091	382.08
357.473	387.73
357.855	368.97
358.238	363.55
358.62	357.67
359.002	394.51
359.384	369.65
359.766	389.54
360.148	381.85
360.53	368.97
360.912	370.1
361.294	378.92
361.676	372.59
362.057	383.66
362.439	349.76
362.821	346.15
363.203	369.43
363.584	365.58
363.966	332.36
364.348	370.56
364.729	374.85
365.111	342.08
365.493	390.22
365.874	371.23
366.256	375.3
366.637	332.14
367.019	360.84
367.4	359.03
367.781	339.6
368.163	354.96
368.544	344.79
368.925	350.89
369.306	359.71
369.688	371.69
370.069	371.46
370.45	357.9
370.831	371.69
371.212	349.99
371.593	361.29
371.974	361.97
372.355	378.46
372.736	370.78
373.117	381.63
373.498	382.08
373.879	361.74
374.26	367.84
374.641	358.58
375.021	366.71
375.402	392.7
375.783	394.51
376.163	377.11
376.544	397.22
376.925	366.71
377.305	393.61
377.686	386.15
378.066	396.09
378.447	406.03
378.827	422.08
379.208	386.83
379.588	399.71
379.968	399.26
380.349	427.28
380.729	410.78
381.109	420.27
381.489	415.07
381.87	408.07
382.25	425.7
382.63	423.66
383.01	410.33
383.39	437.9
383.77	431.12
384.15	426.82
384.53	427.5
384.91	425.7
385.29	447.62
385.67	433.15
386.049	442.64
386.429	438.8
386.809	462.98
387.189	457.56
387.568	482.42
387.948	442.87
388.328	462.98
388.707	455.3
389.087	473.83
389.466	485.13
389.846	472.7
390.225	487.61
390.605	466.37
390.984	487.16
391.363	509.76
391.743	479.03
392.122	485.13
392.501	511.34
392.881	495.75
393.26	535.97
393.639	535.07
394.018	516.77
394.397	528.52
394.776	532.58
395.155	540.49
395.534	517.9
395.913	526.71
396.292	570.1
396.671	571.23
397.05	568.06
397.429	554.28
397.808	564
398.186	599.93
398.565	579.59
398.944	607.16
399.323	602.41
399.701	587.5
400.08	596.09
400.458	612.13
400.837	600.38
401.215	628.63
401.594	606.71
401.972	608.97
402.351	636.99
402.729	614.39
403.107	644.22
403.486	657.78
403.864	643.32
404.242	658.91
404.62	673.6
404.999	694.16
405.377	685.8
405.755	692.81
406.133	720.38
406.511	724.67
406.889	708.63
407.267	756.76
407.645	749.98
408.023	778
408.401	765.35
408.779	781.62
409.156	775.74
409.534	818
409.912	823.42
410.29	843.76
410.667	840.83
411.045	872.24
411.422	876.3
411.8	902.52
412.178	903.87
412.555	930.77
412.933	934.16
413.31	969.64
413.687	947.49
414.065	964.21
414.442	992.91
414.819	983.87
415.197	1018.22
415.574	1040.59
415.951	1049.41
416.328	1062.74
416.705	1079.24
417.082	1085.11
417.46	1110.87
417.837	1112
418.214	1125.56
418.591	1144.09
418.967	1135.05
419.344	1159.24
419.721	1166.47
420.098	1166.24
420.475	1180.93
420.852	1199.69
421.228	1230.65
421.605	1234.94
421.982	1240.59
422.358	1287.37
422.735	1288.27
423.111	1288.72
423.488	1310.42
423.864	1314.49
424.241	1340.93
424.617	1334.37
424.994	1370.53
425.37	1394.26
425.746	1379.57
426.123	1408.95
426.499	1438.78
426.875	1454.14
427.251	1492.33
427.627	1520.13
428.003	1534.59
428.379	1550.19
428.756	1563.29
429.132	1609.62
429.507	1591.99
429.883	1600.13
430.259	1630.41
430.635	1669.73
431.011	1662.72
431.387	1729.39
431.763	1744.98
432.138	1764.87
432.514	1796.28
432.89	1748.6
433.265	1847.13
433.641	1867.01
434.016	1855.26
434.392	1971.42
434.767	1950.4
435.143	1991.3
435.518	1986.56
435.894	2039.21
436.269	2065.88
436.644	2106.1
437.02	2087.8
437.395	2141.81
437.77	2149.27
438.145	2218.42
438.52	2187
438.895	2264.29
439.271	2245.08
439.646	2275.14
440.021	2302.03
440.395	2318.07
440.77	2326.66
441.145	2317.17
441.52	2366.43
441.895	2368.47
442.27	2459.99
442.645	2384.06
443.019	2441.69
443.394	2504.28
443.769	2495.47
444.143	2483.72
444.518	2535.47
444.892	2537.5
445.267	2538.86
445.641	2604.62
446.016	2605.75
446.39	2597.84
446.764	2646.65
447.139	2645.98
447.513	2673.32
447.887	2741.11
448.262	2733.2
448.636	2749.02
449.01	2759.64
449.384	2763.03
449.758	2850.04
450.132	2869.7
450.506	2887.55
450.88	2877.16
451.254	2917.38
451.628	2939.08
452.002	2998.96
452.376	3008.68
452.75	3039.41
453.123	3037.15
453.497	3111.73
453.871	3162.35
454.244	3274.43
454.618	3257.48
454.992	3309.24
455.365	3294.32
455.739	3367.54
456.112	3400.53
456.486	3414.99
456.859	3491.6
457.232	3571.38
457.606	3590.81
457.979	3640.3
458.352	3697.7
458.725	3744.25
459.099	3807.75
459.472	3855.44
459.845	3920.29
460.218	3948.99
460.591	3995.77
460.964	3976.79
461.337	4079.16
461.71	4128.2
462.083	4201.87
462.456	4257.01
462.829	4215.65
463.201	4328.87
463.574	4357.8
463.947	4390.56
464.32	4449.54
464.692	4506.94
465.065	4569.54
465.438	4666.04
465.81	4696.32
466.183	4717.56
466.555	4819.03
466.928	4846.14
467.3	4841.62
467.672	4928.63
468.045	5125.91
468.417	5081.62
468.789	5149.41
469.161	5150.54
469.534	5310.09
469.906	5355.28
470.278	5448.84
470.65	5492
471.022	5556.18
471.394	5680.25
471.766	5660.36
472.138	5813.58
472.51	5882.73
472.882	5986.68
473.253	6034.59
473.625	6110.07
473.997	6225.32
474.369	6256.73
474.74	6307.35
475.112	6506.67
475.484	6550.51
475.855	6679.32
476.227	6743.72
476.598	6919.99
476.97	6989.36
477.341	7123.6
477.713	7244.72
478.084	7308.45
478.455	7528.33
478.827	7510.03
479.198	7810.59
479.569	7838.83
479.94	7998.15
480.311	8182.55
480.682	8364.92
481.053	8454.41
481.424	8603.56
481.795	8729.66
482.166	8896.88
482.537	9053.49
482.908	9187.72
483.279	9298.91
483.65	9494.84
484.021	9668.39
484.391	9758.56
484.762	9932.11
485.133	10030.87
485.503	10155.83
485.874	10394.02
486.244	10549.27
486.615	10762.82
486.985	10881.47
487.356	11139.54
487.726	11258.4
488.097	11556.25
488.467	11564.39
488.837	11857.71
489.207	11970.02
489.578	12245.72
489.948	12328.21
490.318	12588.09
490.688	12590.12
491.058	12907.4
491.428	13049.32
491.798	13139.26
492.168	13438.46
492.538	13628.96
492.908	13713.26
493.278	14049.29
493.648	14035.73
494.017	14286.12
494.387	14390.98
494.757	14540.13
495.126	14740.12
495.496	14861.02
495.866	15037.06
496.235	15272.76
496.605	15450.84
496.974	15413.78
497.344	15679.31
497.713	15833.88
498.082	15945.74
498.452	16151.16
498.821	16359.29
499.19	16325.62
499.559	16540.75
499.928	16734.87
500.298	16753.85
500.667	16967.86
501.036	17052.6
501.405	17265.7
501.774	17352.71
502.143	17513.83
502.512	17570.55
502.88	17759.93
503.249	17926.03
503.618	18033.37
503.987	18061.62
504.356	18119.47
504.724	18385
505.093	18554.26
505.462	18565.56
505.83	18745.44
506.199	18949.05
506.567	19143.85
506.936	19057.75
507.304	19361.02
507.672	19492.76
508.041	19593.1
508.409	19775.02
508.777	19945.18
509.145	20130.94
509.514	20104.95
509.882	20358.5
510.25	20376.58
510.618	20562.34
510.986	20658.38
511.354	20757.82
511.722	20985.61
512.09	21127.3
512.458	21076.9
512.826	21261.31
513.193	21407.74
513.561	21518.93
513.929	21725.25
514.297	21846.83
514.664	21947.16
515.032	22073.94
515.4	22203.88
515.767	22339.24
516.135	22433.93
516.502	22316.64
516.869	22812.45
517.237	22724.77
517.604	22603.19
517.972	23058.09
518.339	23195.94
518.706	23213.8
519.073	23261.93
519.44	23460.8
519.808	23607.68
520.175	23534.47
520.542	23857.4
520.909	23981.69
521.276	24053.32
521.643	24323.82
522.009	24399.08
522.376	24513.88
522.743	24620.09
523.11	24812.62
523.477	25094.42
523.843	25120.41
524.21	25426.39
524.577	25533.06
524.943	25608.31
525.31	25704.8
525.676	25883.56
526.043	26172.59
526.409	26182.98
526.776	26382.98
527.142	26556.53
527.508	26539.36
527.874	26786.81
528.241	26824.1
528.607	26838.33
528.973	27218.89
529.339	27089.4
529.705	27417.53
530.071	27532.55
530.437	27570.74
530.803	27694.36
531.169	27759.67
531.535	27694.81
531.901	27848.7
532.267	27920.57
532.632	28134.57
532.998	28232.2
533.364	28294.34
533.73	28305.87
534.095	28544.05
534.461	28357.16
534.826	28558.29
535.192	28576.59
535.557	28749.7
535.923	28540.89
536.288	28757.61
536.653	28676.48
537.019	28764.38
537.384	28749.02
537.749	28830.15
538.114	28975.45
538.479	28807.32
538.845	29021.33
539.21	28812.97
539.575	28944.04
539.94	28815.68
540.305	29012.97
540.67	28810.03
541.034	28994.66
541.399	28940.2
541.764	28987.2
542.129	29049.12
542.494	29028.78
542.858	29050.25
543.223	29010.25
543.587	28980.65
543.952	28952.63
544.316	28895.23
544.681	28882.8
545.045	28948.11
545.41	29088.44
545.774	29020.65
546.138	28847.55
546.503	28941.56
546.867	29004.83
547.231	29035.34
547.595	29112.62
547.959	29060.87
548.324	28901.56
548.688	29033.08
549.052	28815.01
549.416	28984.49
549.779	28875.57
550.143	28785.85
550.507	28936.13
550.871	28980.2
551.235	28946.53
551.599	29117.14
551.962	29041.44
552.326	28880.31
552.689	29020.88
553.053	28773.42
553.417	28955.79
553.78	29083.47
554.143	29018.16
554.507	28948.79
554.87	29042.34
555.234	29130.25
555.597	28927.77
555.96	29051.38
556.323	29078.05
556.686	29097.03
557.05	29221.32
557.413	29134.32
557.776	29104.94
558.139	29285.73
558.502	29274.65
558.865	29099.07
559.228	29243.69
559.59	29384.26
559.953	29374.31
560.316	29585.83
560.679	29504.7
561.041	29473.07
561.404	29688.65
561.767	29648.2
562.129	29598.04
562.492	29792.38
562.854	29819.72
563.217	29690.91
563.579	29742.66
563.941	29925.03
564.304	29872.38
564.666	30190.56
565.028	29988.76
565.39	30097.46
565.753	30144.91
566.115	30177.91
566.477	30379.03
566.839	30326.83
567.201	30607.5
567.563	30474.85
567.925	30627.84
568.287	30534.28
568.648	30599.14
569.01	30796.65
569.372	31011.33
569.734	30765.01
570.095	31012.24
570.457	31202.51
570.819	31073.7
571.18	31103.53
571.542	31240.7
571.903	31386.24
572.265	31388.72
572.626	31473.92
572.987	31376.75
573.349	31734.25
573.71	31593.24
574.071	31772.44
574.432	31855.38
574.794	31915.26
575.155	31913
575.516	31783.97
575.877	31869.84
576.238	31892.89
576.599	32090.85
576.96	32066.67
577.32	32121.36
577.681	32076.84
578.042	32315.93
578.403	32305.53
578.763	32332.65
579.124	32310.51
579.485	32601.35
579.845	32529.03
580.206	32478.19
580.566	32453.78
580.927	32451.97
581.287	32620.78
581.648	32414.01
582.008	32724.28
582.368	32625.98
582.728	32698.07
583.089	32564.06
583.449	32643.6
583.809	32759.53
584.169	32638.86
584.529	32624.62
584.889	32936.7
585.249	32640.22
585.609	32499.43
585.969	32731.96
586.329	32632.98
586.688	32783.26
587.048	32757.05
587.408	32614
587.768	32609.48
588.127	32804.96
588.487	32533.55
588.846	32939.42
589.206	32664.17
589.565	32658.07
589.925	32943.94
590.284	32741.91
590.643	32705.3
591.003	32852.19
591.362	32951.39
591.721	32815.8
592.08	32863.49
592.44	33011.96
592.799	32973.54
593.158	33000.66
593.517	32832.98
593.876	32953.65
594.235	32865.52
594.593	32981.68
594.952	33056.02
595.311	32864.16
595.67	33064.61
596.029	33134.89
596.387	33096.02
596.746	33105.06
597.104	33012.63
597.463	33005.4
597.822	33098.73
598.18	33083.37
598.538	33105.29
598.897	33319.29
599.255	33137.83
599.613	33427.99
599.972	33162.46
600.33	33252.85
600.688	33187.77
601.046	33439.29
601.404	33569.68
601.762	33385.28
602.12	33413.3
602.478	33594.99
602.836	33538.72
603.194	33362.68
603.552	33443.81
603.91	33300.54
604.268	33492.4
604.625	33418.5
604.983	33762.45
605.341	33395.45
605.698	33733.75
606.056	33837.47
606.413	33749.11
606.771	34054.19
607.128	33886.74
607.485	33730.13
607.843	33745.04
608.2	33896.68
608.557	34048.99
608.914	33917.02
609.272	34115.66
609.629	34283.79
609.986	34281.75
610.343	34173.06
610.7	34447.17
611.057	34345.71
611.414	34401.52
611.771	34400.85
612.127	34681.52
612.484	34626.83
612.841	34650.33
613.198	34561.07
613.554	34645.59
613.911	34752.02
614.267	34843.1
614.624	34836.54
614.98	34924.22
615.337	35179.58
615.693	35051.23
616.05	35065.69
616.406	35120.6
616.762	35122.86
617.118	35320.82
617.475	35098.46
617.831	35237.44
618.187	35397.88
618.543	35275.17
618.899	35571.66
619.255	35481.72
619.611	35517.88
619.967	35681.72
620.323	35835.61
620.678	35388.84
621.034	35479.01
621.39	35622.74
621.746	35613.02
622.101	36147.69
622.457	35672.9
622.812	36000.35
623.168	35885.33
623.523	35815.95
623.879	36022.95
624.234	35902.05
624.589	36011.43
624.945	35810.75
625.3	36061.37
625.655	35980.69
626.01	35947.25
626.365	36060.46
626.72	35956.74
627.075	35938.66
627.43	35961.94
627.785	35947.25
628.14	36029.28
628.495	35980.69
628.85	35907.93
629.205	35917.64
629.559	36105.66
629.914	35948.6
630.269	35865.67
630.623	35759.91
630.978	35649.4
631.332	35927.81
631.687	35890.98
632.041	35840.81
632.396	35804.43
632.75	35637.2
633.104	35770.08
633.459	35597.2
633.813	35557.43
634.167	35470.2
634.521	35595.84
634.875	35607.59
635.229	35578.67
635.583	35279.47
635.937	35394.04
636.291	35454.15
636.645	35509.97
636.999	35187.27
637.352	35370.54
637.706	35089.19
638.06	35367.15
638.413	35155.63
638.767	35066.14
639.121	35074.95
639.474	34968.52
639.828	34991.79
640.181	34994.28
640.534	35131.45
640.888	35048.29
641.241	34697.56
641.594	34937.56
641.947	35055.97
642.301	34809.88
642.654	34811.23
643.007	34841.97
643.36	34848.74
643.713	34701.63
644.066	35003.54
644.419	34652.14
644.771	34323.79
645.124	34231.36
645.477	34200.17
645.83	34002.21
646.182	33869.11
646.535	33887.41
646.888	33973.06
647.24	33896
647.593	34069.33
647.945	33947.75
648.298	33856.45
648.65	33744.59
649.002	33640.87
649.355	33600.87
649.707	33603.58
650.059	33636.8
650.411	34129.89
650.763	34194.07
651.115	34462.77
651.467	34607.17
651.819	34557.9
652.171	34427.51
652.523	34421.64
652.875	34594.51
653.227	34343.9
653.578	34672.7
653.93	34444.91
654.282	34400.85
654.633	34341.41
654.985	34553.39
655.337	34582.76
655.688	34533.27
656.039	34580.96
656.391	34231.59
656.742	34376.44
657.094	34384.8
657.445	34589.77
657.796	34401.3
658.147	34469.32
658.498	34586.38
658.849	34576.44
659.2	34545.93
659.551	34499.38
659.902	34751.12
660.253	34571.92
660.604	34657.56
660.955	34599.26
661.306	34815.07
661.656	34610.11
662.007	34691.46
662.358	34813.49
662.708	34814.4
663.059	34794.28
663.409	34580.5
663.76	34739.82
664.11	34775.07
664.461	34868.63
664.811	34835.19
665.161	34882.87
665.511	34671.12
665.862	34771.01
666.212	34816.88
666.562	34924.45
666.912	34837.67
667.262	34831.8
667.612	34796.09
667.962	34879.7
668.312	34810.33
668.662	35093.71
669.011	34931.91
669.361	34937.33
669.711	34846.48
670.06	34696.66
670.41	34571.24
670.76	34716.09
671.109	34784.34
671.459	34795.86
671.808	34636.09
672.157	34751.35
672.507	34535.53
672.856	34565.59
673.205	34769.2
673.554	34714.06
673.904	34606.49
674.253	34807.39
674.602	34572.82
674.951	34191.13
675.3	34046.96
675.649	34517
675.998	34507.28
676.346	34586.83
676.695	34474.29
677.044	34264.35
677.393	34318.59
677.741	34520.84
678.09	34354.75
678.438	34263.22
678.787	34391.81
679.135	34316.78
679.484	33940.75
679.832	34158.59
680.181	34093.51
680.529	34183
680.877	33914.76
681.225	33814.2
681.573	34141.64
681.922	33855.1
682.27	33920.63
682.618	33696.68
682.966	33680.19
683.314	33787.76
683.661	33634.99
684.009	33514.77
684.357	33354.77
684.705	33276.13
685.053	33302.34
685.4	33062.13
685.748	33125.4
686.095	33146.42
686.443	32827.33
686.79	32805.41
687.138	32965.18
687.485	32833.43
687.832	32695.13
688.18	32520.22
688.527	32510.05
688.874	32490.84
689.221	32499.65
689.568	32367
689.915	32124.52
690.262	32186.89
690.609	32087.69
690.956	31827.36
691.303	31810.41
691.65	31653.35
691.997	31625.78
692.344	31375.84
692.69	31373.13
693.037	31391.43
693.383	31094.95
693.73	31172.01
694.077	30845.46
694.423	30755.74
694.769	30777.89
695.116	30654.73
695.462	30539.25
695.808	30399.37
696.155	30388.97
696.501	30057.91
696.847	30149.43
697.193	29873.28
697.539	29948.76
697.885	29640.75
698.231	29613.63
698.577	29598.04
698.923	29542.67
699.269	29318.95
699.614	29130.93
699.96	28993.31
700.306	29030.59
700.651	28757.83
700.997	28655.69
701.342	28632.41
701.688	28562.81
702.033	28453.66
702.379	28306.09
702.724	28264.96
703.069	28300.67
703.415	27871.98
703.76	27903.84
704.105	27829.27
704.45	27658.43
704.795	27684.19
705.14	27556.51
705.485	27671.76
705.83	27416.85
706.175	27440.13
706.52	27271.99
706.865	27178.89
707.209	27081.04
707.554	27069.74
707.899	27016.18
708.243	26907.94
708.588	26771.67
708.932	26602.63
709.277	26687.38
709.621	26500.04
709.966	26421.85
710.31	26448.97
710.654	26300.95
710.998	26281.96
711.342	26309.76
711.687	26210.33
712.031	26088.98
712.375	26096.43
712.719	25960.16
713.063	26004.01
713.407	26090.33
713.75	25979.6
714.094	25980.5
714.438	25810.56
714.782	25717.91
715.125	25615.77
715.469	25743.9
715.812	25561.76
716.156	25515.43
716.499	25691.47
716.843	25576.22
717.186	25391.37
717.53	25618.7
717.873	25507.3
718.216	25574.64
718.559	25386.17
718.902	25288.32
719.246	25395.66
719.589	25388.65
719.932	25293.74
720.275	25219.85
720.617	25315.44
720.96	25256
721.303	25337.13
721.646	25227.75
721.989	25176.68
722.331	25285.15
722.674	25062.79
723.016	25261.88
723.359	25066.63
723.701	25204.25
724.044	25121.09
724.386	25001.32
724.729	25102.79
725.071	25152.73
725.413	25052.62
725.755	25141.2
726.097	25110.02
726.439	25035.44
726.782	25015.78
727.124	25195.89
727.465	25110.7
727.807	25028.89
728.149	25108.44
728.491	24997.93
728.833	25110.92
729.175	25091.26
729.516	25024.14
729.858	25058.27
730.199	25235.89
730.541	25133.07
730.882	25095.1
731.224	25141.88
731.565	25124.93
731.906	25281.76
732.248	25218.94
732.589	25197.47
732.93	25154.31
733.271	25204.25
733.612	25225.72
733.953	25335.77
734.294	25328.77
734.635	25334.87
734.976	25335.1
735.317	25412.16
735.658	25374.87
735.999	25468.43
736.339	25579.16
736.68	25625.03
737.021	25626.39
737.361	25517.24
737.702	25764.24
738.042	25719.49
738.383	25742.77
738.723	25883.56
739.063	25903.44
739.404	26088.75
739.744	26010.33
740.084	26059.6
740.424	26062.08
740.764	26168.97
741.104	26371.91
741.444	26276.99
741.784	26258.91
742.124	26397.22
742.464	26483.54
742.804	26522.41
743.143	26475.41
743.483	26679.92
743.823	26794.04
744.162	26825.68
744.502	26958.56
744.841	27039.68
745.181	27345.67
745.52	27283.75
745.86	27446
746.199	27551.76
746.538	27627.69
746.877	27873.33
747.216	27960.56
747.556	28046.89
747.895	28272.65
748.234	28352.19
748.573	28448.46
748.911	28538.63
749.25	28796.02
749.589	28704.73
749.928	29019.75
750.267	29276.91
750.605	29260.64
750.944	29558.71
751.283	29613.18
751.621	29894.3
751.96	29923.45
752.298	30181.97
752.636	30337.45
752.975	30425.58
753.313	30451.12
753.651	30949.64
753.989	30874.16
