Data from 14-4516_FLMS001491_003.txt Node
Date: Thu Apr 19 16:46:57 BST 2018
User: hsy
Spectrometer: FLMS00149
Trigger mode: 0
Integration Time (sec): 1.000000E-2
Scans to average: 10
Electric dark correction enabled: true
Nonlinearity correction enabled: false
Boxcar width: 0
XAxis mode: Wavelengths
Number of Pixels in Spectrum: 2048
>>>>>Begin Spectral Data<<<<<
341.393	-23.98
341.776	-23.98
342.16	-23.98
342.543	-68.05
342.927	-75.96
343.31	-75.05
343.693	-81.16
344.077	-69.18
344.46	-53.59
344.843	-38.67
345.226	-43.87
345.61	-43.87
345.993	-27.37
346.376	-2.29
346.759	14.66
347.142	35.45
347.525	26.86
347.908	67.99
348.291	69.8
348.674	87.88
349.057	132.4
349.44	135.11
349.823	145.05
350.206	156.8
350.588	238.84
350.971	253.75
351.354	244.49
351.737	256.24
352.119	277.03
352.502	283.35
352.884	323.35
353.267	300.08
353.65	354.76
354.032	328.78
354.414	347.08
354.797	368.32
355.179	342.79
355.562	355.22
355.944	348.21
356.326	376.91
356.709	386.4
357.091	386.85
357.473	369.45
357.855	386.18
358.238	383.92
358.62	399.51
359.002	384.37
359.384	386.18
359.766	369.23
360.148	390.7
360.53	367.19
360.912	387.76
361.294	362.67
361.676	364.71
362.057	360.64
362.439	362
362.821	357.48
363.203	361.09
363.584	358.83
363.966	367.42
364.348	375.78
364.729	352.73
365.111	351.6
365.493	343.24
365.874	351.37
366.256	378.04
366.637	359.51
367.019	332.84
367.4	354.76
367.781	342.56
368.163	341.66
368.544	372.39
368.925	352.05
369.306	363.8
369.688	366.06
370.069	373.07
370.45	355.67
370.831	378.04
371.212	374.2
371.593	364.71
371.974	363.8
372.355	350.7
372.736	378.94
373.117	364.03
373.498	362.9
373.879	386.4
374.26	353.41
374.641	364.48
375.021	370.13
375.402	381.88
375.783	376.23
376.163	392.05
376.544	370.36
376.925	394.99
377.305	388.66
377.686	386.85
378.066	385.5
378.447	394.76
378.827	380.07
379.208	401.54
379.588	397.48
379.968	400.41
380.349	399.28
380.729	382.79
381.109	397.48
381.489	407.42
381.87	409.45
382.25	410.13
382.63	407.87
383.01	412.84
383.39	402.67
383.77	424.82
384.15	421.2
384.53	423.24
384.91	414.2
385.29	432.28
385.67	435.44
386.049	440.86
386.429	433.86
386.809	428.21
387.189	446.97
387.568	451.71
387.948	459.62
388.328	448.32
388.707	463.69
389.087	437.7
389.466	461.65
389.846	483.57
390.225	473.63
390.605	466.4
390.984	468.66
391.363	476.57
391.743	498.72
392.122	486.96
392.501	507.76
392.881	478.83
393.26	482.44
393.639	522.22
394.018	489.45
394.397	498.49
394.776	533.97
395.155	512.95
395.534	505.04
395.913	508.21
396.292	524.93
396.671	523.8
397.05	523.57
397.429	558.83
397.808	558.83
398.186	550.92
398.565	522.22
398.944	547.53
399.323	566.74
399.701	571.48
400.08	577.81
400.458	578.71
400.837	562.67
401.215	590.24
401.594	590.24
401.972	618.71
402.351	613.51
402.729	601.76
403.107	644.02
403.486	636.34
403.864	636.11
404.242	638.15
404.62	661.42
404.999	660.52
405.377	669.78
405.755	657.13
406.133	687.64
406.511	694.87
406.889	710.01
407.267	710.01
407.645	708.65
408.023	735.32
408.401	737.13
408.779	721.99
409.156	757.24
409.534	754.08
409.912	783.91
410.29	790.46
410.667	789.78
411.045	837.69
411.422	815.32
411.8	846.28
412.178	867.29
412.555	866.84
412.933	887.41
413.31	927.4
413.687	929.66
414.065	935.77
414.442	927.4
414.819	974.18
415.197	984.8
415.574	983.22
415.951	999.49
416.328	990.68
416.705	1006.05
417.082	1001.3
417.46	1011.24
417.837	1023.9
418.214	1068.42
418.591	1067.29
418.967	1065.25
419.344	1091.47
419.721	1082.88
420.098	1079.72
420.475	1112.94
420.852	1129.89
421.228	1129.43
421.605	1147.51
421.982	1180.05
422.358	1182.31
422.735	1210.79
423.111	1218.24
423.488	1228.64
423.864	1211.92
424.241	1282.65
424.617	1281.75
424.994	1312.71
425.37	1285.36
425.746	1309.09
426.123	1337.11
426.499	1352.03
426.875	1378.47
427.251	1386.83
427.627	1414.62
428.003	1435.19
428.379	1429.09
428.756	1442.42
429.132	1499.59
429.507	1497.79
429.883	1498.46
430.259	1550.67
430.635	1545.69
431.011	1567.39
431.387	1596.09
431.763	1587.05
432.138	1623.21
432.514	1663.43
432.89	1669.76
433.265	1741.39
433.641	1736.88
434.016	1748.4
434.392	1782.52
434.767	1816.65
435.143	1822.97
435.518	1831.34
435.894	1858.68
436.269	1933.25
436.644	1930.54
437.02	1943.2
437.395	1962.18
437.77	1991.33
438.145	2034.27
438.52	2039.24
438.895	2060.03
439.271	2056.19
439.646	2127.6
440.021	2136.19
440.395	2182.29
440.77	2174.83
441.145	2175.73
441.52	2203.53
441.895	2225.22
442.27	2275.62
442.645	2260.25
443.019	2270.42
443.394	2309.06
443.769	2338.44
444.143	2314.94
444.518	2314.94
444.892	2324.66
445.267	2362.85
445.641	2420.25
446.016	2425.44
446.39	2437.2
446.764	2448.49
447.139	2421.15
447.513	2476.06
447.887	2471.09
448.262	2508.15
448.636	2490.3
449.01	2569.17
449.384	2545.67
449.758	2629.06
450.132	2623.86
450.506	2664.76
450.88	2672.67
451.254	2679.68
451.628	2732.56
452.002	2777.75
452.376	2785.66
452.75	2813.91
453.123	2830.86
453.497	2908.37
453.871	2875.83
454.244	2927.35
454.618	2956.96
454.992	3024.3
455.365	3083.05
455.739	3146.1
456.112	3124.86
456.486	3192.43
456.859	3196.95
457.232	3333.67
457.606	3309.26
457.979	3362.14
458.352	3399.2
458.725	3443.72
459.099	3492.54
459.472	3525.98
459.845	3581.8
460.218	3632.64
460.591	3655.69
460.964	3663.6
461.337	3734.79
461.71	3838.29
462.083	3854.33
462.456	3911.06
462.829	3930.49
463.201	3989.7
463.574	4005.06
463.947	4050.26
464.32	4107.21
464.692	4180.2
465.065	4222.01
465.438	4282.8
465.81	4347.65
466.183	4355.79
466.555	4428.33
466.928	4507.65
467.3	4469.23
467.672	4532.51
468.045	4655.89
468.417	4690.47
468.789	4715.78
469.161	4745.16
469.534	4806.63
469.906	4942.67
470.278	5008.2
470.65	5002.33
471.022	5100.85
471.394	5162.55
471.766	5273.51
472.138	5260.85
472.51	5383.33
472.882	5503.78
473.253	5498.58
473.625	5613.16
473.997	5748.75
474.369	5769.31
474.74	5869.2
475.112	5945.58
475.484	6041.39
475.855	6142.86
476.227	6260.6
476.598	6395.06
476.97	6383.76
477.341	6560.93
477.713	6681.38
478.084	6699.91
478.455	6952.11
478.827	6932.67
479.198	7171.76
479.569	7155.72
479.94	7384.64
480.311	7501.7
480.682	7594.57
481.053	7767.23
481.424	7917.96
481.795	8006.77
482.166	8114.56
482.537	8233.88
482.908	8416.7
483.279	8548.22
483.65	8710.7
484.021	8855.56
484.391	8952.5
484.762	9055.78
485.133	9222.78
485.503	9376.67
485.874	9596.78
486.244	9637.91
486.615	9909.09
486.985	9987.05
487.356	10203.55
487.726	10304.11
488.097	10546.59
488.467	10604.89
488.837	10884.66
489.207	11024.09
489.578	11215.04
489.948	11347.47
490.318	11514.02
490.688	11638.54
491.058	11815.25
491.428	12094.79
491.798	12172.31
492.168	12429.02
492.538	12479.87
492.908	12722.12
493.278	12976.13
493.648	13019.06
494.017	13176.12
494.387	13260.41
494.757	13483.91
495.126	13677.13
495.496	13723.23
495.866	13869.44
496.235	14118.02
496.605	14230.56
496.974	14324.34
497.344	14556.65
497.713	14715.52
498.082	14775.18
498.452	14931.1
498.821	15106.02
499.19	15161.16
499.559	15337.87
499.928	15449.06
500.298	15609.96
500.667	15795.71
501.036	15879.55
501.405	16073.9
501.774	16069.61
502.143	16256.49
502.512	16377.85
502.88	16634.79
503.249	16611.74
503.618	16757.5
503.987	16829.36
504.356	17071.39
504.724	17222.8
505.093	17253.08
505.462	17357.03
505.83	17527.65
506.199	17684.7
506.567	17919.27
506.936	17963.34
507.304	18176.67
507.672	18238.14
508.041	18278.36
508.409	18505.7
508.777	18677.9
509.145	18734.62
509.514	18709.31
509.882	19028.62
510.25	19035.4
510.618	19234.95
510.986	19226.81
511.354	19454.38
511.722	19627.48
512.09	19756.97
512.458	19736.85
512.826	19994.7
513.193	20057.07
513.561	20180.23
513.929	20261.81
514.297	20443.28
514.664	20505.65
515.032	20608.24
515.4	20878.29
515.767	20780.22
516.135	21045.75
516.502	20919.2
516.869	21255.91
517.237	21377.71
517.604	21233.99
517.972	21659.97
518.339	21659.29
518.706	21707.88
519.073	21956.23
519.44	21932.95
519.808	22216.11
520.175	22134.98
520.542	22432.38
520.909	22528.87
521.276	22556.21
521.643	22819.71
522.009	22864.91
522.376	23035.52
522.743	23077.78
523.11	23314.39
523.477	23493.82
523.843	23626.24
524.21	23803.19
524.577	23991.43
524.943	24089.51
525.31	24129.28
525.676	24287.47
526.043	24624.41
526.409	24639.78
526.776	24796.83
527.142	24876.83
527.508	24929.26
527.874	25036.83
528.241	25282.7
528.607	25247.67
528.973	25527.89
529.339	25476.82
529.705	25722.23
530.071	25804.72
530.437	25975.11
530.803	25823.47
531.169	26067.76
531.535	26006.07
531.901	26140.53
532.267	26142.34
532.632	26387.07
532.998	26373.06
533.364	26580.74
533.73	26526.28
534.095	26824.8
534.461	26764.69
534.826	26754.52
535.192	26875.42
535.557	26996.55
535.923	26904.58
536.288	26956.1
536.653	26909.77
537.019	26966.72
537.384	27007.85
537.749	27030.22
538.114	26977.57
538.479	27103.21
538.845	27033.84
539.21	26957.91
539.575	27020.05
539.94	27096.43
540.305	27229.09
540.67	27112.93
541.034	27187.73
541.399	27098.47
541.764	27165.36
542.129	27170.1
542.494	27207.39
542.858	27267.96
543.223	27000.39
543.587	27262.08
543.952	27077.68
544.316	27179.6
544.681	27005.82
545.045	27135.3
545.41	27261.4
545.774	26986.15
546.138	27045.59
546.503	27087.62
546.867	27022.54
547.231	27117.68
547.595	27079.03
547.959	27221.18
548.324	27077.68
548.688	27069.77
549.052	27060.5
549.416	27107.51
549.779	27049.66
550.143	27025.7
550.507	27064.57
550.871	27039.26
551.235	27064.34
551.599	27152.25
551.962	27155.87
552.326	26947.74
552.689	27186.15
553.053	26883.11
553.417	26990
553.78	27196.77
554.143	27148.86
554.507	27081.97
554.87	27124.91
555.234	27282.64
555.597	26924.01
555.96	27069.32
556.323	27108.19
556.686	27082.42
557.05	27161.07
557.413	27060.05
557.776	27059.83
558.139	27215.98
558.502	27076.77
558.865	27160.39
559.228	27293.94
559.59	27272.02
559.953	27266.15
560.316	27389.53
560.679	27232.25
561.041	27401.06
561.404	27491.45
561.767	27629.75
562.129	27564.44
562.492	27619.36
562.854	27634.5
563.217	27645.8
563.579	27755.85
563.941	27756.08
564.304	27859.58
564.666	27930.76
565.028	27870.43
565.39	28007.14
565.753	28223.86
566.115	28022.06
566.477	28182.73
566.839	28244.88
567.201	28305.44
567.563	28298.89
567.925	28421.37
568.287	28364.65
568.648	28484.65
569.01	28522.39
569.372	28707.24
569.734	28688.26
570.095	28659.78
570.457	28943.39
570.819	28860
571.18	28891.42
571.542	29051.41
571.903	29014.35
572.265	29180.22
572.626	29280.56
572.987	29034.69
573.349	29317.84
573.71	29316.04
574.071	29405.07
574.432	29401.91
574.794	29634.22
575.155	29461.34
575.516	29433.32
575.877	29633.77
576.238	29560.78
576.599	29690.94
576.96	29635.58
577.32	29719.87
577.681	29869.69
578.042	29844.16
578.403	29739.53
578.763	29785.4
579.124	29856.14
579.485	30043.48
579.845	30119.18
580.206	30049.8
580.566	30089.58
580.927	29972.97
581.287	30080.31
581.648	29987.66
582.008	30169.35
582.368	30134.77
582.728	30260.42
583.089	30159.4
583.449	30138.61
583.809	30217.93
584.169	30231.95
584.529	30190.82
584.889	30456.12
585.249	30259.52
585.609	30096.13
585.969	30296.35
586.329	30217.26
586.688	30280.08
587.048	30280.98
587.408	30201.44
587.768	30305.39
588.127	30223.13
588.487	30184.04
588.846	30554.87
589.206	30186.07
589.565	30204.6
589.925	30400.75
590.284	30283.7
590.643	30412.96
591.003	30328.67
591.362	30455.44
591.721	30434.88
592.08	30385.84
592.44	30571.15
592.799	30420.87
593.158	30526.17
593.517	30453.18
593.876	30523.24
594.235	30492.96
594.593	30321.43
594.952	30618.83
595.311	30442.56
595.67	30502.67
596.029	30747.64
596.387	30619.05
596.746	30753.51
597.104	30527.53
597.463	30438.27
597.822	30830.8
598.18	30631.03
598.538	30574.99
598.897	30788.54
599.255	30591.26
599.613	31010
599.972	30661.54
600.33	30734.53
600.688	30697.47
601.046	30831.03
601.404	30965.49
601.762	30976.56
602.12	31071.92
602.478	31145.14
602.836	31043
603.194	30838.26
603.552	31080.28
603.91	30942.89
604.268	31120.28
604.625	31010.23
604.983	31084.8
605.341	30928.42
605.698	31181.98
606.056	31276.44
606.413	31121.64
606.771	31269.43
607.128	31303.56
607.485	31170.9
607.843	31255.65
608.2	31371.8
608.557	31401.41
608.914	31223.56
609.272	31522.76
609.629	31660.83
609.986	31766.37
610.343	31619.25
610.7	31840.04
611.057	31773.15
611.414	31763.88
611.771	31880.94
612.127	32013.14
612.484	31981.96
612.841	32064.67
613.198	31970.88
613.554	31933.6
613.911	32265.34
614.267	32211.33
614.624	32195.06
614.98	32301.5
615.337	32488.16
615.693	32418.78
616.05	32458.33
616.406	32677.08
616.762	32477.31
617.118	32554.14
617.475	32507.59
617.831	32780.13
618.187	32797.53
618.543	32816.96
618.899	32887.24
619.255	32762.5
619.611	32826
619.967	33077.97
620.323	33056.96
620.678	32974.7
621.034	32959.78
621.39	32969.95
621.746	32917.07
622.101	33361.81
622.457	32990.97
622.812	33216.73
623.168	33301.92
623.523	33314.8
623.879	33380.34
624.234	33133.56
624.589	33282.49
624.945	33278.64
625.3	33505.08
625.655	33282.26
626.01	33410.84
626.365	33487.68
626.72	33404.74
627.075	33356.16
627.43	33481.58
627.785	33323.84
628.14	33449.26
628.495	33432.31
628.85	33262.15
629.205	33144.19
629.559	33467.79
629.914	33229.15
630.269	33294.69
630.623	33136.28
630.978	33036.17
631.332	33285.65
631.687	33200
632.041	33128.37
632.396	33131.53
632.75	33045.43
633.104	33081.14
633.459	32910.97
633.813	33026.22
634.167	32881.59
634.521	32964.98
634.875	32931.08
635.229	32882.5
635.583	32823.52
635.937	32715.95
636.291	32861.48
636.645	32764.99
636.999	32524.31
637.352	32761.37
637.706	32614.26
638.06	32643.63
638.413	32674.59
638.767	32452
639.121	32634.14
639.474	32366.58
639.828	32521.15
640.181	32335.39
640.534	32416.29
640.888	32293.13
641.241	32166.81
641.594	32273.25
641.947	32358.67
642.301	32142.18
642.654	32163.87
643.007	32165.91
643.36	32235.06
643.713	32172.23
644.066	32245.23
644.419	32105.12
644.771	31809.3
645.124	31498.13
645.477	31535.19
645.83	31380.84
646.182	31312.14
646.535	31374.06
646.888	31435.53
647.24	31326.83
647.593	31524.11
647.945	31402.99
648.298	31238.02
648.65	31226.04
649.002	31028.76
649.355	31241.86
649.707	30898.14
650.059	31005.94
650.411	31424.68
650.763	31580.38
651.115	32119.13
651.467	32063.08
651.819	31954.61
652.171	31912.58
652.523	31861.28
652.875	31859.47
653.227	31830.55
653.578	32111.22
653.93	32038.68
654.282	31985.35
654.633	31809.3
654.985	32097.43
655.337	32099.47
655.688	32128.84
656.039	32156.19
656.391	31778.8
656.742	31991.45
657.094	32011.56
657.445	32005.23
657.796	32206.81
658.147	31996.19
658.498	32068.51
658.849	32132.91
659.2	31941.05
659.551	31901.96
659.902	32146.92
660.253	32120.03
660.604	32096.53
660.955	32099.69
661.306	32320.03
661.656	32186.02
662.007	32131.33
662.358	32316.86
662.708	32383.75
663.059	32191.44
663.409	32091.33
663.76	32352.57
664.11	32303.08
664.461	32402.74
664.811	32536.52
665.161	32412.23
665.511	32437.31
665.862	32452.45
666.212	32517.99
666.562	32490.19
666.912	32438.89
667.262	32359.12
667.612	32441.6
667.962	32481.83
668.312	32398.89
668.662	32478.44
669.011	32490.64
669.361	32391.89
669.711	32301.04
670.06	32451.1
670.41	32311.21
670.76	32224.66
671.109	32412.23
671.459	32346.24
671.808	32340.82
672.157	32424.43
672.507	32248.16
672.856	32299.46
673.205	32397.09
673.554	32266.24
673.904	32192.12
674.253	32496.29
674.602	32283.87
674.951	31874.16
675.3	31762.98
675.649	32310.08
675.998	32104.44
676.346	32199.58
676.695	32266.02
677.044	32034.16
677.393	32066.7
677.741	32123.19
678.09	31987.15
678.438	31888.85
678.787	32003.2
679.135	31940.15
679.484	31855.86
679.832	31906.93
680.181	31785.8
680.529	31850.66
680.877	31640.95
681.225	31628.52
681.573	31841.17
681.922	31577.67
682.27	31522.31
682.618	31493.15
682.966	31385.14
683.314	31307.62
683.661	31270.34
684.009	31223.56
684.357	31180.85
684.705	31072.38
685.053	31034.64
685.4	30852.49
685.748	30909.89
686.095	30807.52
686.443	30644.36
686.79	30586.29
687.138	30644.59
687.485	30532.5
687.832	30290.93
688.18	30429.23
688.527	30280.53
688.874	30146.07
689.221	30189.46
689.568	29947.66
689.915	29901.56
690.262	29918.28
690.609	29820.2
690.956	29615.01
691.303	29532.3
691.65	29486.43
691.997	29345.87
692.344	29196.04
692.69	29080.79
693.037	29155.14
693.383	28854.58
693.73	28990.17
694.077	28848.25
694.423	28803.73
694.769	28570.29
695.116	28523.74
695.462	28441.03
695.808	28293.24
696.155	28330.75
696.501	28020.7
696.847	28108.84
697.193	27893.7
697.539	27756.08
697.885	27662.52
698.231	27539.13
698.577	27391.34
698.923	27533.71
699.269	27225.24
699.614	27154.74
699.96	27009.88
700.306	26919.72
700.651	26872.03
700.997	26564.02
701.342	26650.8
701.688	26549.78
702.033	26421.2
702.379	26357.24
702.724	26204.48
703.069	26213.29
703.415	25950.93
703.76	25946.41
704.105	25849.24
704.45	25855.56
704.795	25699.18
705.14	25603.14
705.485	25514.1
705.83	25342.81
706.175	25536.02
706.52	25231.4
706.865	25209.48
707.209	25147.56
707.554	25075.92
707.899	24934.01
708.243	24864.18
708.588	24888.58
708.932	24626.22
709.277	24759.09
709.621	24583.73
709.966	24424.41
710.31	24384.87
710.654	24328.37
710.998	24238.43
711.342	24374.92
711.687	24189.39
712.031	24132.67
712.375	23988.49
712.719	24095.84
713.063	23887.93
713.407	24080.92
713.75	23931.77
714.094	23831.89
714.438	23866.46
714.782	23888.38
715.125	23736.75
715.469	23837.31
715.812	23706.02
716.156	23638.9
716.499	23617.43
716.843	23667.37
717.186	23540.37
717.53	23566.58
717.873	23587.15
718.216	23544.66
718.559	23450.88
718.902	23467.38
719.246	23564.32
719.589	23429.86
719.932	23365.69
720.275	23481.39
720.617	23452.24
720.96	23351
721.303	23385.12
721.646	23406.81
721.989	23238.46
722.331	23420.37
722.674	23292.24
723.016	23397.1
723.359	23247.04
723.701	23393.03
724.044	23209.98
724.386	23204.56
724.729	23339.02
725.071	23373.59
725.413	23386.25
725.755	23289.08
726.097	23294.27
726.439	23193.94
726.782	23243.43
727.124	23371.79
727.465	23296.08
727.807	23211.34
728.149	23336.99
728.491	23353.71
728.833	23309.19
729.175	23331.56
729.516	23358
729.858	23306.48
730.199	23460.82
730.541	23420.82
730.882	23363.2
731.224	23563.19
731.565	23405.91
731.906	23429.86
732.248	23569.3
732.589	23478.22
732.93	23480.94
733.271	23571.56
733.612	23617.2
733.953	23715.73
734.294	23640.48
734.635	23536.3
734.976	23751.21
735.317	23706.92
735.658	23619.24
735.999	23730.2
736.339	23722.06
736.68	23856.97
737.021	23853.58
737.361	23773.81
737.702	24057.19
738.042	23867.37
738.383	23928.16
738.723	24159.56
739.063	24101.94
739.404	24334.47
739.744	24324.53
740.084	24353.68
740.424	24434.58
740.764	24333.34
741.104	24644.07
741.444	24486.79
741.784	24507.12
742.124	24787.12
742.464	24788.25
742.804	24971.52
743.143	24945.98
743.483	25091.97
743.823	25136.71
744.162	25206.09
744.502	25330.38
744.841	25359.53
745.181	25637.26
745.52	25626.19
745.86	25743.7
746.199	25830.48
746.538	26007.88
746.877	26305.27
747.216	26365.38
747.556	26439.95
747.895	26608.76
748.234	26736.22
748.573	26793.17
748.911	26875.42
749.25	27061.18
749.589	27143.89
749.928	27506.59
750.267	27609.87
750.605	27667.72
750.944	27991.55
751.283	28022.51
751.621	28296.85
751.96	28323.07
752.298	28592.67
752.636	28715.6
752.975	28863.17
753.313	29034.24
753.651	29475.58
753.989	29446.2
