Data from 14-4516_FLMS001491_006.txt Node
Date: Thu Apr 19 16:47:05 BST 2018
User: hsy
Spectrometer: FLMS00149
Trigger mode: 0
Integration Time (sec): 1.000000E-2
Scans to average: 10
Electric dark correction enabled: true
Nonlinearity correction enabled: false
Boxcar width: 0
XAxis mode: Wavelengths
Number of Pixels in Spectrum: 2048
>>>>>Begin Spectral Data<<<<<
341.393	-14.59
341.776	-14.59
342.16	-14.59
342.543	-64.08
342.927	-47.13
343.31	-69.96
343.693	-78.32
344.077	-61.37
344.46	-74.48
344.843	-70.41
345.226	-46.23
345.61	-32.22
345.993	-20.01
346.376	1.91
346.759	20.66
347.142	26.09
347.525	55.24
347.908	61.57
348.291	78.51
348.674	94.33
349.057	114.67
349.44	126.2
349.823	144.05
350.206	172.52
350.588	214.33
350.971	236.48
351.354	263.82
351.737	282.35
352.119	296.14
352.502	294.78
352.884	324.38
353.267	330.94
353.65	316.93
354.032	327.77
354.414	359.41
354.797	350.82
355.179	351.05
355.562	359.64
355.944	347.43
356.326	370.26
356.709	384.5
357.091	390.15
357.473	371.16
357.855	388.34
358.238	375
358.62	375
359.002	390.37
359.384	386.53
359.766	365.96
360.148	384.72
360.53	379.07
360.912	372.97
361.294	385.4
361.676	368.22
362.057	380.43
362.439	373.87
362.821	356.02
363.203	382.69
363.584	370.71
363.966	390.15
364.348	374.33
364.729	367.55
365.111	371.84
365.493	341.78
365.874	364.16
366.256	355.8
366.637	360.77
367.019	355.34
367.4	357.6
367.781	374.33
368.163	357.38
368.544	361.22
368.925	367.55
369.306	361.22
369.688	353.08
370.069	361.45
370.45	374.33
370.831	349.02
371.212	369.13
371.593	347.43
371.974	378.17
372.355	374.33
372.736	368.9
373.117	393.08
373.498	373.87
373.879	370.94
374.26	365.74
374.641	373.42
375.021	370.03
375.402	377.49
375.783	370.48
376.163	411.16
376.544	399.64
376.925	386.3
377.305	392.18
377.686	388.34
378.066	398.51
378.447	379.3
378.827	394.89
379.208	414.33
379.588	398.96
379.968	398.73
380.349	412.29
380.729	405.06
381.109	414.55
381.489	431.05
381.87	395.34
382.25	410.03
382.63	418.62
383.01	429.24
383.39	439.18
383.77	427.88
384.15	440.31
384.53	427.43
384.91	427.88
385.29	446.87
385.67	443.7
386.049	449.13
386.429	463.14
386.809	455.23
387.189	467.88
387.568	441.9
387.948	477.37
388.328	463.82
388.707	453.42
389.087	501.33
389.466	484.38
389.846	488.22
390.225	482.8
390.605	485.74
390.984	496.81
391.363	470.82
391.743	495.91
392.122	511.72
392.501	511.72
392.881	521.89
393.26	509.69
393.639	518.96
394.018	537.71
394.397	544.49
394.776	515.11
395.155	546.53
395.534	531.61
395.913	540.88
396.292	554.89
396.671	552.17
397.05	581.78
397.429	551.27
397.808	548.33
398.186	575.68
398.565	549.46
398.944	586.52
399.323	559.86
399.701	593.98
400.08	608.9
400.458	615.45
400.837	618.39
401.215	612.96
401.594	636.01
401.972	625.85
402.351	611.83
402.729	625.85
403.107	646.86
403.486	640.08
403.864	656.35
404.242	670.59
404.62	685.28
404.999	673.08
405.377	695.22
405.755	704.04
406.133	687.99
406.511	696.58
406.889	723.47
407.267	745.84
407.645	751.49
408.023	764.37
408.401	805.95
408.779	781.77
409.156	806.63
409.534	798.04
409.912	810.47
410.29	835.33
410.667	848.44
411.045	873.3
411.422	871.04
411.8	894.09
412.178	894.09
412.555	961.43
412.933	935.89
413.31	940.41
413.687	962.33
414.065	992.62
414.442	1001.43
414.819	1023.12
415.197	1013.63
415.574	1057.02
415.951	1035.1
416.328	1083.01
416.705	1066.51
417.082	1082.78
417.46	1121.43
417.837	1110.58
418.214	1111.03
418.591	1132.72
418.967	1125.49
419.344	1153.74
419.721	1173.63
420.098	1168.2
420.475	1214.76
420.852	1225.6
421.228	1220.41
421.605	1225.38
421.982	1242.78
422.358	1271.93
422.735	1285.71
423.111	1305.83
423.488	1344.7
423.864	1348.54
424.241	1347.41
424.617	1393.06
424.994	1375.66
425.37	1388.99
425.746	1399.61
426.123	1397.12
426.499	1412.04
426.875	1455.65
427.251	1489.55
427.627	1500.62
428.003	1533.17
428.379	1547.18
428.756	1528.87
429.132	1565.93
429.507	1651.13
429.883	1605.03
430.259	1653.16
430.635	1665.82
431.011	1672.82
431.387	1699.49
431.763	1774.74
432.138	1735.87
432.514	1778.81
432.89	1797.34
433.265	1861.07
433.641	1863.33
434.016	1876.21
434.392	1918.69
434.767	1974.96
435.143	1962.76
435.518	1992.36
435.894	1994.4
436.269	2011.35
436.644	2078.24
437.02	2121.17
437.395	2106.71
437.77	2157.56
438.145	2181.74
438.52	2197.33
438.895	2224.67
439.271	2220.38
439.646	2292.47
440.021	2318.91
440.395	2353.03
440.77	2323.65
441.145	2369.98
441.52	2388.51
441.895	2385.8
442.27	2473.71
442.645	2424.89
443.019	2414.27
443.394	2474.16
443.769	2506.02
444.143	2510.99
444.518	2551.9
444.892	2569.3
445.267	2542.4
445.641	2577.88
446.016	2590.77
446.39	2631.67
446.764	2600.26
447.139	2642.29
447.513	2658.56
447.887	2682.97
448.262	2687.94
448.636	2707.37
449.01	2765.9
449.384	2745.11
449.758	2804.09
450.132	2839.35
450.506	2836.63
450.88	2871.89
451.254	2878.44
451.628	2938.55
452.002	2957.31
452.376	2989.17
452.75	3001.83
453.123	2976.97
453.497	3106.91
453.871	3134.03
454.244	3197.75
454.618	3185.55
454.992	3331.54
455.365	3311.88
455.739	3362.72
456.112	3407.24
456.486	3414.02
456.859	3441.14
457.232	3533.11
457.606	3567.91
457.979	3591.19
458.352	3652.43
458.725	3719.78
459.099	3774.69
459.472	3808.36
459.845	3854.46
460.218	3877.74
460.591	3921.58
460.964	3969.03
461.337	4026.21
461.71	4102.14
462.083	4195.69
462.456	4188.01
462.829	4188.69
463.201	4335.58
463.574	4310.49
463.947	4375.8
464.32	4460.55
464.692	4519.98
465.065	4558.17
465.438	4665.29
465.81	4643.59
466.183	4696.7
466.555	4786.19
466.928	4821.89
467.3	4835.9
467.672	4934.88
468.045	5034.32
468.417	5009.91
468.789	5119.06
469.161	5156.57
469.534	5227.98
469.906	5313.86
470.278	5353.18
470.65	5474.08
471.022	5523.57
471.394	5569.67
471.766	5670.23
472.138	5685.15
472.51	5826.84
472.882	5909.55
473.253	6024.8
473.625	6064.35
473.997	6185.25
474.369	6231.35
474.74	6309.99
475.112	6432.92
475.484	6524
475.855	6643.31
476.227	6697.1
476.598	6865.23
476.97	6935.96
477.341	7119.46
477.713	7216.18
478.084	7246.69
478.455	7393.12
478.827	7484.65
479.198	7798.99
479.569	7799.89
479.94	7975.26
480.311	8087.12
480.682	8291.18
481.053	8412.08
481.424	8552.64
481.795	8642.58
482.166	8843.93
482.537	8919.41
482.908	9104.49
483.279	9286.86
483.65	9443.01
484.021	9642.78
484.391	9716.91
484.762	9873.51
485.133	9961.42
485.503	10094.75
485.874	10405.7
486.244	10518.24
486.615	10695.86
486.985	10816.76
487.356	10990.32
487.726	11138.11
488.097	11406.8
488.467	11470.08
488.837	11674.14
489.207	11764.31
489.578	12101.7
489.948	12286.78
490.318	12454.01
490.688	12522.26
491.058	12766.54
491.428	13000.21
491.798	13087.66
492.168	13359.52
492.538	13464.6
492.908	13691.04
493.278	13909.11
493.648	14014.87
494.017	14152.04
494.387	14354.3
494.757	14451.02
495.126	14630.67
495.496	14736.43
495.866	14991.8
496.235	15029.76
496.605	15179.36
496.974	15371.67
497.344	15629.74
497.713	15767.82
498.082	15881.72
498.452	16028.83
498.821	16169.17
499.19	16280.8
499.559	16409.16
499.928	16600.11
500.298	16738.87
500.667	16916.72
501.036	16896.15
501.405	17142.47
501.774	17241.23
502.143	17374.78
502.512	17490.03
502.88	17723.25
503.249	17767.54
503.618	17941.32
503.987	18000.53
504.356	18199.62
504.724	18328.43
505.093	18466.05
505.462	18523.91
505.83	18694.52
506.199	18909.43
506.567	19087.73
506.936	19155.98
507.304	19322.3
507.672	19399.81
508.041	19469.87
508.409	19636.19
508.777	19861.5
509.145	19946.02
509.514	20010.19
509.882	20228.04
510.25	20278.21
510.618	20424.19
510.986	20501.25
511.354	20668.71
511.722	20846.56
512.09	21049.04
512.458	21049.71
512.826	21282.25
513.193	21390.04
513.561	21414.23
513.929	21583.49
514.297	21733.99
514.664	21925.85
515.032	22033.19
515.4	22206.52
515.767	22120.2
516.135	22327.65
516.502	22266.18
516.869	22621.42
517.237	22779.16
517.604	22576.68
517.972	23007.63
518.339	23103.45
518.706	23181.18
519.073	23167.85
519.44	23306.38
519.808	23672.24
520.175	23586.6
520.542	23892.13
520.909	23947.72
521.276	24001.73
521.643	24287.37
522.009	24404.88
522.376	24486.91
522.743	24608.49
523.11	24814.59
523.477	25118.99
523.843	25135.48
524.21	25426.32
524.577	25535.02
524.943	25546.77
525.31	25623.15
525.676	25993.31
526.043	26070.83
526.409	26182.46
526.776	26461.78
527.142	26521.89
527.508	26591.26
527.874	26751.94
528.241	26817.02
528.607	26930.24
528.973	27185.82
529.339	27073.74
529.705	27336.78
530.071	27523.89
530.437	27646.38
530.803	27628.3
531.169	27899.48
531.535	27788.29
531.901	27826.49
532.267	27971.34
532.632	28042.3
532.998	28056.99
533.364	28294.5
533.73	28226.93
534.095	28351.9
534.461	28458.11
534.826	28456.3
535.192	28475.06
535.557	28720.25
535.923	28641.83
536.288	28798.66
536.653	28728.16
537.019	28647.26
537.384	28842.5
537.749	28825.1
538.114	28809.51
538.479	28816.74
538.845	28902.62
539.21	28826.23
539.575	28956.4
539.94	28804.77
540.305	29102.38
540.67	28894.48
541.034	28961.37
541.399	28927.47
541.764	28965.66
542.129	29024.87
542.494	29025.55
542.858	29084.98
543.223	28850.87
543.587	29050.86
543.952	28940.81
544.316	28966.34
544.681	28871.66
545.045	28964.08
545.41	29088.37
545.774	28906.46
546.138	28842.5
546.503	28874.59
546.867	28894.71
547.231	29052.67
547.595	28895.84
547.959	28884.31
548.324	28896.74
548.688	28891.77
549.052	28917.76
549.416	28869.17
549.779	28882.5
550.143	28734.26
550.507	28959.11
550.871	28930.19
551.235	28827.14
551.599	29083.4
551.962	29114.14
552.326	28943.52
552.689	28974.25
553.053	28904.2
553.417	28918.89
553.78	29146.68
554.143	28990.3
554.507	29049.05
554.87	29016.06
555.234	29171.54
555.597	28910.75
555.96	29073.46
556.323	29018.77
556.686	28968.15
557.05	29120.01
557.413	29097.41
557.776	29053.8
558.139	29122.72
558.502	29210.4
558.865	29141.03
559.228	29229.61
559.59	29274.58
559.953	29211.31
560.316	29560
560.679	29409.5
561.041	29507.12
561.404	29585.76
561.767	29703.72
562.129	29458.31
562.492	29604.07
562.854	29597.29
563.217	29646.55
563.579	29746.89
563.941	29811.97
564.304	29841.35
564.666	30022.13
565.028	29962.02
565.39	30004.51
565.753	30138.06
566.115	30112.08
566.477	30264.39
566.839	30226.42
567.201	30417.83
567.563	30302.35
567.925	30472.52
568.287	30510.71
568.648	30395.23
569.01	30732.4
569.372	30782.34
569.734	30668.9
570.095	30819.85
570.457	30888.78
570.819	30891.49
571.18	30907.31
571.542	31123.12
571.903	31014.65
572.265	31197.7
572.626	31241.99
572.987	31210.8
573.349	31351.36
573.71	31414.87
574.071	31535.31
574.432	31518.14
574.794	31901.63
575.155	31704.12
575.516	31642.88
575.877	31872.71
576.238	31820.28
576.599	31912.93
576.96	31986.83
577.32	31979.6
577.681	31921.97
578.042	32170.1
578.403	32055.3
578.763	32188.18
579.124	32158.35
579.485	32208.97
579.845	32310.21
580.206	32260.04
580.566	32387.72
580.927	32282.41
581.287	32452.35
581.648	32247.84
582.008	32483.09
582.368	32414.39
582.728	32490.77
583.089	32383.43
583.449	32462.3
583.809	32429.3
584.169	32581.16
584.529	32301.62
584.889	32616.19
585.249	32457.55
585.609	32330.77
585.969	32561.05
586.329	32511.79
586.688	32571.22
587.048	32552.24
587.408	32514.27
587.768	32493.93
588.127	32440.6
588.487	32400.6
588.846	32661.84
589.206	32423.2
589.565	32527.61
589.925	32625
590.284	32621.39
590.643	32536.19
591.003	32610.77
591.362	32700.03
591.721	32662.52
592.08	32523.09
592.44	32735.51
592.799	32627.94
593.158	32662.74
593.517	32528.96
593.876	32706.81
594.235	32652.12
594.593	32633.14
594.952	32697.54
595.311	32628.39
595.67	32803.53
596.029	32926.92
596.387	32843.08
596.746	32908.16
597.104	32740.93
597.463	32798.11
597.822	32886.92
598.18	32781.16
598.538	32859.12
598.897	32912.68
599.255	32677.88
599.613	33199.68
599.972	33043.52
600.33	33005.78
600.688	32961.49
601.046	33100.92
601.404	33233.35
601.762	33091.21
602.12	33223.18
602.478	33268.38
602.836	33242.16
603.194	33036.97
603.552	33115.39
603.91	33253.01
604.268	33344.08
604.625	33196.51
604.983	33320.8
605.341	33155.84
605.698	33427.69
606.056	33567.8
606.413	33384.76
606.771	33537.97
607.128	33539.56
607.485	33422.5
607.843	33441.48
608.2	33667.91
608.557	33825.88
608.914	33761.25
609.272	33919.66
609.629	34078.98
609.986	34071.07
610.343	33914.69
610.7	34218.18
611.057	34028.36
611.414	34137.96
611.771	34182.02
612.127	34278.52
612.484	34302.02
612.841	34325.75
613.198	34248.69
613.554	34179.09
613.911	34520.77
614.267	34641
614.624	34644.84
614.98	34604.39
615.337	34847.54
615.693	34688.9
616.05	34829.24
616.406	34836.7
616.762	34791.5
617.118	34863.59
617.475	34892.06
617.831	35047.31
618.187	35022.23
618.543	35120.76
618.899	35301.32
619.255	35144.26
619.611	35190.36
619.967	35349.23
620.323	35446.17
620.678	35290.24
621.034	35236.46
621.39	35201.21
621.746	35311.26
622.101	35784.69
622.457	35492.95
622.812	35601.65
623.168	35667.18
623.523	35601.42
623.879	35841.42
624.234	35517.58
624.589	35748.99
624.945	35629.67
625.3	35756.9
625.655	35835.77
626.01	35806.84
626.365	35718.26
626.72	35660.86
627.075	35595.77
627.43	35627.86
627.785	35635.55
628.14	35603.91
628.495	35707.86
628.85	35616.79
629.205	35593.97
629.559	35765.94
629.914	35640.97
630.269	35797.12
630.623	35506.51
630.978	35388.77
631.332	35665.38
631.687	35653.85
632.041	35570.46
632.396	35608.65
632.75	35447.75
633.104	35544.93
633.459	35269
633.813	35234.65
634.167	35219.51
634.521	35332.73
634.875	35267.65
635.229	35200.76
635.583	35048.89
635.937	35017.71
636.291	35123.47
636.645	35104.71
636.999	34927.32
637.352	35048.22
637.706	34837.15
638.06	35009.8
638.413	34967.99
638.767	34907.43
639.121	34906.3
639.474	34638.06
639.828	34713.54
640.181	34832.63
640.534	34745.17
640.888	34619.3
641.241	34495.92
641.594	34602.13
641.947	34629.92
642.301	34397.61
642.654	34571.17
643.007	34538.85
643.36	34589.25
643.713	34521.9
644.066	34513.77
644.419	34245.53
644.771	34064.06
645.124	33808.48
645.477	33739.1
645.83	33633.11
646.182	33615.03
646.535	33385.44
646.888	33713.34
647.24	33552.44
647.593	33823.62
647.945	33565.54
648.298	33517.64
648.65	33389.96
649.002	33162.84
649.355	33257.53
649.707	33249.39
650.059	33342.05
650.411	33714.01
650.763	33821.13
651.115	34310.38
651.467	34117.85
651.819	34215.7
652.171	34185.87
652.523	34069.94
652.875	34144.74
653.227	34045.76
653.578	34301.57
653.93	34224.51
654.282	34115.36
654.633	34096.83
654.985	34122.59
655.337	34132.53
655.688	34128.24
656.039	34322.59
656.391	33946.78
656.742	34083.95
657.094	34159.2
657.445	34266.54
657.796	34155.58
658.147	34059.54
658.498	34234
658.849	34307.45
659.2	34248.69
659.551	34126.43
659.902	34437.16
660.253	34192.42
660.604	34345.64
660.955	34204.62
661.306	34436.71
661.656	34315.58
662.007	34434.67
662.358	34456.37
662.708	34534.78
663.059	34461.79
663.409	34271.29
663.76	34364.39
664.11	34551.73
664.461	34501.56
664.811	34581.79
665.161	34529.81
665.511	34500.89
665.862	34446.65
666.212	34608.23
666.562	34771.39
666.912	34570.04
667.262	34513.77
667.612	34478.97
667.962	34569.59
668.312	34391.28
668.662	34657.27
669.011	34579.08
669.361	34579.98
669.711	34570.26
670.06	34500.89
670.41	34525.97
670.76	34439.65
671.109	34602.58
671.459	34565.29
671.808	34538.17
672.157	34487.33
672.507	34463.15
672.856	34378.86
673.205	34476.03
673.554	34478.06
673.904	34429.93
674.253	34556.93
674.602	34416.6
674.951	33937.96
675.3	33753.56
675.649	34430.15
675.998	34420.66
676.346	34306.54
676.695	34378.18
677.044	34260.89
677.393	34172.76
677.741	34271.97
678.09	34199.43
678.438	34078.98
678.787	34223.15
679.135	34191.06
679.484	33911.75
679.832	34122.82
680.181	33888.25
680.529	33907.46
680.877	33769.38
681.225	33702.94
681.573	33958.3
681.922	33673.56
682.27	33627.92
682.618	33589.27
682.966	33490.74
683.314	33568.26
683.661	33425.43
684.009	33273.35
684.357	33320.58
684.705	33130.98
685.053	33090.08
685.4	33008.72
685.748	32846.47
686.095	32837.65
686.443	32731.22
686.79	32700.26
687.138	32868.16
687.485	32643.99
687.832	32542.75
688.18	32514.95
688.527	32391.34
688.874	32280.61
689.221	32274.05
689.568	31940.28
689.915	31855.31
690.262	31939.6
690.609	31911.12
690.956	31623
691.303	31677.91
691.65	31388.88
691.997	31456.22
692.344	31342.55
692.69	31175.78
693.037	31229.33
693.383	30996.35
693.73	30993.63
694.077	30827.54
694.423	30678.16
694.769	30505.51
695.116	30538.28
695.462	30435.46
695.808	30259.64
696.155	30205.18
696.501	30057.39
696.847	30035.69
697.193	29798.86
697.539	29824.63
697.885	29445.43
698.231	29344.86
698.577	29433.68
698.923	29266.9
699.269	29046.11
699.614	28891.77
699.96	28837.53
700.306	28892.45
700.651	28648.16
700.997	28488.16
701.342	28477.77
701.688	28286.59
702.033	28302.41
702.379	28105.35
702.724	27992.81
703.069	28012.24
703.415	27669.65
703.76	27722.53
704.105	27784.23
704.45	27461.52
704.795	27441.41
705.14	27448.64
705.485	27269.66
705.83	27107.18
706.175	27144.02
706.52	26999.84
706.865	26951.93
707.209	26791.48
707.554	26743.12
707.899	26683.92
708.243	26622
708.588	26539.74
708.932	26384.49
709.277	26441.21
709.621	26282.12
709.966	26070.15
710.31	26203.03
710.654	25986.08
710.998	26007.78
711.342	25900.66
711.687	25807.33
712.031	25877.84
712.375	25737.05
712.719	25698.86
713.063	25585.87
713.407	25786.09
713.75	25608.69
714.094	25572.08
714.438	25510.84
714.782	25481.24
715.125	25374.12
715.469	25561.69
715.812	25384.52
716.156	25306.78
716.499	25274.91
716.843	25287.8
717.186	25214.58
717.53	25356.72
717.873	25325.76
718.216	25204.18
718.559	25117.86
718.902	25010.29
719.246	25014.13
719.589	25031.76
719.932	24924.87
720.275	25045.54
720.617	24987.24
720.96	25086.44
721.303	25068.37
721.646	25044.86
721.989	24938.88
722.331	25008.93
722.674	24910.4
723.016	24942.72
723.359	24890.07
723.701	24869.28
724.044	24732.1
724.386	24742.27
724.729	24915.38
725.071	24838.99
725.413	24948.37
725.755	24894.13
726.097	24794.02
726.439	24843.51
726.782	24775.94
727.124	24911.08
727.465	24840.8
727.807	24773.68
728.149	24841.48
728.491	24875.83
728.833	24936.84
729.175	24814.81
729.516	24834.7
729.858	24888.03
730.199	25033.11
730.541	24907.47
730.882	24800.12
731.224	25031.98
731.565	24978.2
731.906	25087.12
732.248	25007.12
732.589	24873.57
732.93	25008.93
733.271	25016.62
733.612	25062.49
733.953	25301.81
734.294	25100.91
734.635	25041.02
734.976	25323.5
735.317	25185.2
735.658	25353.78
735.999	25224.29
736.339	25418.87
736.68	25468.58
737.021	25365.53
737.361	25397.62
737.702	25616.83
738.042	25507.45
738.383	25565.08
738.723	25695.69
739.063	25584.96
739.404	25883.03
739.744	25786.31
740.084	25897.72
740.424	25932.75
740.764	25939.08
741.104	26174.1
741.444	26129.36
741.784	26099.75
742.124	26409.35
742.464	26422.68
742.804	26341.55
743.143	26425.84
743.483	26613.18
743.823	26578.61
744.162	26720.07
744.502	26874.87
744.841	27006.17
745.181	27155.77
745.52	27199.16
745.86	27392.37
746.199	27422.65
746.538	27523.44
746.877	27771.57
747.216	27814.51
747.556	28018.57
747.895	28000.04
748.234	28284.78
748.573	28315.29
748.911	28426.7
749.25	28572.45
749.589	28729.74
749.928	28964.99
750.267	29140.8
750.605	29326.79
750.944	29454.69
751.283	29657.62
751.621	30000.89
751.96	29856.71
752.298	30125.63
752.636	30438.39
752.975	30462.12
753.313	30551.16
753.651	30872.06
