Data from 14-4516_FLMS001491_002.txt Node
Date: Thu Apr 19 16:46:54 BST 2018
User: hsy
Spectrometer: FLMS00149
Trigger mode: 0
Integration Time (sec): 1.000000E-2
Scans to average: 10
Electric dark correction enabled: true
Nonlinearity correction enabled: false
Boxcar width: 0
XAxis mode: Wavelengths
Number of Pixels in Spectrum: 2048
>>>>>Begin Spectral Data<<<<<
341.393	-14.17
341.776	-14.17
342.16	-14.17
342.543	-71.57
342.927	-51
343.31	-50.78
343.693	-77.44
344.077	-54.84
344.46	-65.92
344.843	-46.03
345.226	-62.53
345.61	-43.77
345.993	-19.59
346.376	9.56
346.759	20.41
347.142	31.48
347.525	14.53
347.908	80.75
348.291	69.9
348.674	80.75
349.057	113.51
349.44	134.3
349.823	128.43
350.206	180.4
350.588	219.05
350.971	245.49
351.354	284.13
351.737	299.72
352.119	281.65
352.502	309.44
352.884	313.06
353.267	297.69
353.65	310.57
354.032	342.66
354.414	337.91
354.797	360.51
355.179	364.81
355.562	345.37
355.944	364.35
356.326	365.94
356.709	358.93
357.091	343.34
357.473	379.95
357.855	411.59
358.238	376.78
358.62	391.02
359.002	397.12
359.384	375.65
359.766	373.62
360.148	389.89
360.53	396.9
360.912	395.54
361.294	397.12
361.676	389.89
362.057	374.52
362.439	379.04
362.821	371.13
363.203	380.85
363.584	377.46
363.966	372.26
364.348	392.15
364.729	358.25
365.111	360.74
365.493	360.06
365.874	369.78
366.256	370.91
366.637	360.74
367.019	376.78
367.4	372.49
367.781	337.91
368.163	362.77
368.544	375.65
368.925	355.77
369.306	346.5
369.688	363.45
370.069	368.65
370.45	356.9
370.831	378.82
371.212	375.88
371.593	361.19
371.974	368.2
372.355	375.43
372.736	380.17
373.117	392.15
373.498	366.84
373.879	391.47
374.26	370.46
374.641	366.84
375.021	381.3
375.402	406.61
375.783	382.66
376.163	397.12
376.544	400.06
376.925	386.5
377.305	389.44
377.686	399.61
378.066	404.58
378.447	404.81
378.827	396.44
379.208	411.36
379.588	406.84
379.968	407.07
380.349	403.45
380.729	412.26
381.109	398.7
381.489	428.08
381.87	431.25
382.25	425.37
382.63	437.57
383.01	434.86
383.39	417.46
383.77	424.01
384.15	431.7
384.53	441.19
384.91	432.83
385.29	431.47
385.67	444.8
386.049	445.71
386.429	457.01
386.809	459.72
387.189	436.67
387.568	462.43
387.948	455.88
388.328	463.11
388.707	478.48
389.087	471.92
389.466	490.23
389.846	487.52
390.225	502.2
390.605	471.92
390.984	500.4
391.363	501.75
391.743	515.99
392.122	512.6
392.501	504.92
392.881	515.09
393.26	512.83
393.639	540.85
394.018	504.92
394.397	522.77
394.776	555.76
395.155	535.65
395.534	545.59
395.913	557.8
396.292	544.92
396.671	572.03
397.05	576.55
397.429	577
397.808	576.78
398.186	597.57
398.565	580.39
398.944	581.98
399.323	604.12
399.701	604.35
400.08	619.04
400.458	604.35
400.837	625.59
401.215	619.72
401.594	626.72
401.972	634.86
402.351	648.87
402.729	661.3
403.107	639.6
403.486	651.8
403.864	662.88
404.242	657
404.62	661.52
404.999	718.92
405.377	714.85
405.755	711.01
406.133	731.12
406.511	737.9
406.889	707.62
407.267	752.37
407.645	767.28
408.023	781.07
408.401	777.45
408.779	792.59
409.156	826.72
409.534	796.66
409.912	836.43
410.29	842.31
410.667	859.03
411.045	878.47
411.422	880.27
411.8	868.07
412.178	930.44
412.555	921.85
412.933	942.19
413.31	974.51
413.687	985.81
414.065	991.01
414.442	990.78
414.819	1012.93
415.197	1040.72
415.574	1043.66
415.951	1075.75
416.328	1089.99
416.705	1076.88
417.082	1076.65
417.46	1134.05
417.837	1123.88
418.214	1144.9
418.591	1143.77
418.967	1125.01
419.344	1181.06
419.721	1178.8
420.098	1187.84
420.475	1192.81
420.852	1203.65
421.228	1224.9
421.605	1207.95
421.982	1238.68
422.358	1252.47
422.735	1280.49
423.111	1266.93
423.488	1336.98
423.864	1323.43
424.241	1348.74
424.617	1385.8
424.994	1373.37
425.37	1379.02
425.746	1405.91
426.123	1442.29
426.499	1448.17
426.875	1494.95
427.251	1497.21
427.627	1527.71
428.003	1533.36
428.379	1575.17
428.756	1572.01
429.132	1576.98
429.507	1605.45
429.883	1635.96
430.259	1665.34
430.635	1685
431.011	1661.27
431.387	1718.22
431.763	1730.19
432.138	1764.09
432.514	1771.78
432.89	1779.91
433.265	1865.56
433.641	1854.49
434.016	1896.29
434.392	1914.82
434.767	1960.7
435.143	1968.38
435.518	1985.33
435.894	2034.82
436.269	2063.75
436.644	2087.02
437.02	2093.57
437.395	2150.75
437.77	2123.4
438.145	2182.84
438.52	2248.37
438.895	2213.35
439.271	2229.16
439.646	2294.7
440.021	2336.28
440.395	2348.26
440.77	2315.72
441.145	2329.95
441.52	2378.09
441.895	2404.98
442.27	2442.72
442.645	2447.01
443.019	2470.06
443.394	2458.99
443.769	2503.96
444.143	2481.36
444.518	2559.1
444.892	2529.72
445.267	2565.43
445.641	2584.64
446.016	2614.47
446.39	2651.07
446.764	2652.66
447.139	2658.98
447.513	2674.12
447.887	2685.88
448.262	2674.8
448.636	2752.31
449.01	2794.35
449.384	2772.43
449.758	2830.28
450.132	2841.35
450.506	2885.64
450.88	2867.11
451.254	2890.84
451.628	2953.21
452.002	2981.24
452.376	3013.32
452.75	3074.11
453.123	3079.31
453.497	3143.04
453.871	3155.47
454.244	3212.42
454.618	3264.39
454.992	3281.11
455.365	3291.06
455.739	3385.74
456.112	3416.25
456.486	3421.45
456.859	3455.8
457.232	3561.56
457.606	3616.25
457.979	3643.59
458.352	3733.31
458.725	3708.67
459.099	3770.14
459.472	3831.61
459.845	3883.58
460.218	3922.45
460.591	3960.19
460.964	3950.02
461.337	4017.59
461.71	4174.42
462.083	4142.33
462.456	4235.21
462.829	4267.76
463.201	4329.45
463.574	4343.01
463.947	4348.2
464.32	4481.76
464.692	4500.97
465.065	4543.68
465.438	4613.51
465.81	4654.86
466.183	4728.76
466.555	4838.81
466.928	4828.19
467.3	4851.92
467.672	4922.65
468.045	5062.08
468.417	5049.43
468.789	5101.63
469.161	5171.91
469.534	5239.03
469.906	5351.79
470.278	5396.31
470.65	5474.5
471.022	5557.66
471.394	5584.56
471.766	5722.18
472.138	5754.95
472.51	5910.88
472.882	5930.54
473.253	5979.35
473.625	6150.64
473.997	6205.78
474.369	6280.81
474.74	6346.34
475.112	6448.94
475.484	6601.7
475.855	6679.44
476.227	6753.11
476.598	6944.07
476.97	7043.95
477.341	7159.66
477.713	7254.8
478.084	7295.02
478.455	7552.64
478.827	7573.2
479.198	7788.57
479.569	7880.32
479.94	8016.58
480.311	8093.19
480.682	8349.68
481.053	8488.89
481.424	8574.99
481.795	8720.07
482.166	8862.21
482.537	8979.72
482.908	9162.77
483.279	9305.59
483.65	9487.28
484.021	9649.08
484.391	9806.37
484.762	9921.39
485.133	10030.32
485.503	10219.24
485.874	10420.81
486.244	10546.46
486.615	10837.53
486.985	10958.65
487.356	11163.17
487.726	11280.68
488.097	11547.34
488.467	11685.19
488.837	11889.7
489.207	11995.69
489.578	12175.12
489.948	12411.27
490.318	12592.73
490.688	12692.39
491.058	12907.08
491.428	13090.8
491.798	13164.02
492.168	13508.42
492.538	13648.53
492.908	13825.47
493.278	14046.03
493.648	14075.86
494.017	14270.88
494.387	14535.73
494.757	14648.27
495.126	14749.51
495.496	14938.21
495.866	15126.68
496.235	15330.97
496.605	15451.87
496.974	15536.61
497.344	15788.13
497.713	15908.35
498.082	16081
498.452	16170.49
498.821	16369.13
499.19	16513.53
499.559	16681.67
499.928	16803.47
500.298	16925.95
500.667	17121.43
501.036	17167.75
501.405	17367.52
501.774	17451.59
502.143	17637.35
502.512	17645.93
502.88	17955.53
503.249	17930.45
503.618	18191
503.987	18204.11
504.356	18414.73
504.724	18561.16
505.093	18678
505.462	18727.04
505.83	18896.3
506.199	19076.41
506.567	19276.4
506.936	19317.75
507.304	19599.56
507.672	19623.96
508.041	19810.17
508.409	20044.06
508.777	20012.2
509.145	20326.77
509.514	20300.1
509.882	20499.19
510.25	20533.32
510.618	20767.89
510.986	20828.45
511.354	20971.5
511.722	21120.87
512.09	21408.77
512.458	21460.98
512.826	21523.12
513.193	21532.84
513.561	21696.22
513.929	21849.21
514.297	22072.03
514.664	22132.6
515.032	22336.43
515.4	22451.68
515.767	22564
516.135	22726.93
516.502	22526.26
516.869	22911.11
517.237	23055.74
517.604	22907.72
517.972	23405.78
518.339	23472
518.706	23452.11
519.073	23463.63
519.44	23739.33
519.808	23892.78
520.175	24011.64
520.542	24157.63
520.909	24356.94
521.276	24359.43
521.643	24617.5
522.009	24729.14
522.376	24958.51
522.743	24989.47
523.11	25200.76
523.477	25419.52
523.843	25435.11
524.21	25835.78
524.577	25793.74
524.943	25910.8
525.31	26074.19
525.676	26354.18
526.043	26503.1
526.409	26571.12
526.776	26808.18
527.142	26887.05
527.508	27055.86
527.874	27225.12
528.241	27157.1
528.607	27315.74
528.973	27540.59
529.339	27556.18
529.705	27835.5
530.071	27896.51
530.437	27987.36
530.803	28110.97
531.169	28211.08
531.535	28249.27
531.901	28298.99
532.267	28361.81
532.632	28479.77
532.998	28497.63
533.364	28589.38
533.73	28727.9
534.095	28922.93
534.461	28894.45
534.826	28964.05
535.192	28937.39
535.557	29115.46
535.923	29069.36
536.288	29231.17
536.653	29338.51
537.019	29230.94
537.384	29240.88
537.749	29294.67
538.114	29275.46
538.479	29299.64
538.845	29370.37
539.21	29352.52
539.575	29299.87
539.94	29355.23
540.305	29420.09
540.67	29461.89
541.034	29455.79
541.399	29492.4
541.764	29442.46
542.129	29471.84
542.494	29470.03
542.858	29517.26
543.223	29478.62
543.587	29501.22
543.952	29575.34
544.316	29555.45
544.681	29354.1
545.045	29600.87
545.41	29533.98
545.774	29425.29
546.138	29399.75
546.503	29445.62
546.867	29474.78
547.231	29636.13
547.595	29558.39
547.959	29559.29
548.324	29487.88
548.688	29498.28
549.052	29555.68
549.416	29402.69
549.779	29453.31
550.143	29359.52
550.507	29475.23
550.871	29439.07
551.235	29494.44
551.599	29574.89
551.962	29546.64
552.326	29578.5
552.689	29557.49
553.053	29297.61
553.417	29335.57
553.78	29574.66
554.143	29440.65
554.507	29552.51
554.87	29572.85
555.234	29692.4
555.597	29457.15
555.96	29528.33
556.323	29658.05
556.686	29510.26
557.05	29683.36
557.413	29651.49
557.776	29623.47
558.139	29780.53
558.502	29684.94
558.865	29818.72
559.228	29908.66
559.59	29845.39
559.953	29793.64
560.316	30071.14
560.679	29951.6
561.041	29997.93
561.404	30107.53
561.767	30232.95
562.129	30060.98
562.492	30296.68
562.854	30218.49
563.217	30167.86
563.579	30287.18
563.941	30395.88
564.304	30508.65
564.666	30667.51
565.028	30651.92
565.39	30582.54
565.753	30761.07
566.115	30644.69
566.477	30845.36
566.839	30920.39
567.201	31138.01
567.563	30913.61
567.925	31128.97
568.287	31078.8
568.648	31167.16
569.01	31298.23
569.372	31434.05
569.734	31289.87
570.095	31482.41
570.457	31656.41
570.819	31512.91
571.18	31627.94
571.542	31678.79
571.903	31811.44
572.265	31827.48
572.626	31900.47
572.987	31876.07
573.349	32128.72
573.71	32107.7
574.071	32273.57
574.432	32389.95
574.794	32643.05
575.155	32243.97
575.516	32328.26
575.877	32367.81
576.238	32424.08
576.599	32572.32
576.96	32535.03
577.32	32623.39
577.681	32774.58
578.042	32759.21
578.403	32793.33
578.763	32803.95
579.124	32856.61
579.485	33039.43
579.845	33019.99
580.206	32941.35
580.566	33057.05
580.927	33050.5
581.287	33118.97
581.648	32962.14
582.008	33135.24
582.368	33047.79
582.728	33161.91
583.089	33131.18
583.449	33110.39
583.809	33105.19
584.169	33253.21
584.529	33036.04
584.889	33241.23
585.249	33148.13
585.609	33018.19
585.969	33200.55
586.329	33163.94
586.688	33294.56
587.048	33186.77
587.408	33090.05
587.768	33132.76
588.127	33108.13
588.487	33182.93
588.846	33307.44
589.206	33117.84
589.565	33074.46
589.925	33326.43
590.284	33329.14
590.643	33291.85
591.003	33341.57
591.362	33518.96
591.721	33368.01
592.08	33346.09
592.44	33523.48
592.799	33316.71
593.158	33282.59
593.517	33381.57
593.876	33467.21
594.235	33411.17
594.593	33527.55
594.952	33420.43
595.311	33319.19
595.67	33424.28
596.029	33662.46
596.387	33485.07
596.746	33760.31
597.104	33493.2
597.463	33500.66
597.822	33700.88
598.18	33606.64
598.538	33443.71
598.897	33782.91
599.255	33576.14
599.613	33923.02
599.972	33688.22
600.33	33733.42
600.688	33706.98
601.046	33749.01
601.404	34007.76
601.762	33838.73
602.12	34014.32
602.478	33969.35
602.836	33942
603.194	33627.44
603.552	33818.16
603.91	33890.93
604.268	33994.21
604.625	33923.02
604.983	34096.12
605.341	33882.8
605.698	34260.19
606.056	34301.09
606.413	34182.67
606.771	34342.9
607.128	34299.06
607.485	34238.94
607.843	34287.3
608.2	34404.59
608.557	34508.54
608.914	34319.85
609.272	34518.94
609.629	34604.13
609.986	34722.32
610.343	34806.39
610.7	34844.58
611.057	34983.56
611.414	34790.79
611.771	34945.14
612.127	35133.38
612.484	35186.49
612.841	35353.72
613.198	35040.28
613.554	34962.32
613.911	35361.63
614.267	35247.28
614.624	35294.06
614.98	35419.03
615.337	35557.33
615.693	35535.41
616.05	35518.91
616.406	35679.81
616.762	35606.37
617.118	35657.89
617.475	35579.47
617.831	35705.57
618.187	35763.65
618.543	35942.63
618.899	36024.43
619.255	35885.45
619.611	36010.2
619.967	36151.21
620.323	36140.36
620.678	36042.51
621.034	36112.12
621.39	36174.94
621.746	36012.01
622.101	36473.69
622.457	36129.74
622.812	36609.73
623.168	36368.38
623.523	36378.32
623.879	36555.04
624.234	36449.28
624.589	36559.56
624.945	36471.2
625.3	36608.83
625.655	36680.91
626.01	36670.74
626.365	36623.97
626.72	36563.85
627.075	36440.92
627.43	36494.7
627.785	36405.67
628.14	36543.29
628.495	36461.26
628.85	36536.74
629.205	36428.72
629.559	36533.12
629.914	36379.23
630.269	36473.69
630.623	36307.59
630.978	36254.48
631.332	36471.43
631.687	36430.75
632.041	36295.61
632.396	36306.46
632.75	36227.14
633.104	36294.71
633.459	35994.38
633.813	36045
634.167	36087.94
634.521	36061.95
634.875	36116.86
635.229	35998.67
635.583	35837.77
635.937	35809.07
636.291	35808.39
636.645	35731.56
636.999	35604.33
637.352	35691.79
637.706	35518.01
638.06	35723.65
638.413	35598.68
638.767	35484.34
639.121	35565.69
639.474	35469.19
639.828	35497.44
640.181	35442.3
640.534	35461.51
640.888	35400.27
641.241	35235.98
641.594	35280.95
641.947	35493.6
642.301	35183.1
642.654	35415.64
643.007	35252.7
643.36	35384
643.713	35283.66
644.066	35370.89
644.419	35213.61
644.771	34819.04
645.124	34485.04
645.477	34542.67
645.83	34377.02
646.182	34264.93
646.535	34309.9
646.888	34451.82
647.24	34283.24
647.593	34495.89
647.945	34488.2
648.298	34145.61
648.65	34168.21
649.002	34106.97
649.355	34098.84
649.707	33899.07
650.059	33953.98
650.411	34414.08
650.763	34564.13
651.115	35070.11
651.467	34975.87
651.819	35007.29
652.171	34880.96
652.523	34906.27
652.875	35049.54
653.227	34807.07
653.578	35106.49
653.93	34987.63
654.282	34817.69
654.633	34849.55
654.985	34824.69
655.337	34886.16
655.688	35077.34
656.039	35072.37
656.391	34692.49
656.742	34881.19
657.094	34956.21
657.445	34987.4
657.796	35005.93
658.147	34809.78
658.498	35131.12
658.849	35174.96
659.2	35052.26
659.551	34953.5
659.902	35222.42
660.253	35120.96
660.604	35202.53
660.955	35111.24
661.306	35215.87
661.656	35132.71
662.007	35141.97
662.358	35203.89
662.708	35200.28
663.059	35171.35
663.409	35170.67
663.76	35317.11
664.11	35241.86
664.461	35385.35
664.811	35306.26
665.161	35297
665.511	35362.76
665.862	35355.98
666.212	35366.82
666.562	35527.27
666.912	35440.72
667.262	35171.58
667.612	35284.11
667.962	35450.89
668.312	35344.23
668.662	35579.25
669.011	35393.94
669.361	35405.92
669.711	35302.19
670.06	35323.66
670.41	35181.29
670.76	35200.5
671.109	35461.96
671.459	35313.27
671.808	35226.71
672.157	35422.42
672.507	35166.15
672.856	35166.15
673.205	35212.25
673.554	35203.66
673.904	35136.55
674.253	35409.76
674.602	35165.47
674.951	34692.94
675.3	34452.95
675.649	35112.59
675.998	35013.39
676.346	34996.21
676.695	35106.04
677.044	34848.65
677.393	34933.39
677.741	35015.87
678.09	34922.54
678.438	34868.76
678.787	34868.76
679.135	34737.24
679.484	34609.33
679.832	34809.32
680.181	34540.86
680.529	34644.13
680.877	34462.44
681.225	34300.19
681.573	34582.44
681.922	34466.96
682.27	34337.02
682.618	34407.53
682.966	34198.04
683.314	34247.31
683.661	34234.2
684.009	33943.58
684.357	34019.29
684.705	33780.2
685.053	33929.57
685.4	33759.86
685.748	33528.91
686.095	33526.87
686.443	33470.6
686.79	33334.79
687.138	33459.08
687.485	33343.15
687.832	33296.6
688.18	33193.32
688.527	32918.75
688.874	32848.25
689.221	32972.54
689.568	32748.14
689.915	32568.03
690.262	32742.71
690.609	32591.76
690.956	32446.9
691.303	32248.04
691.65	32218.88
691.997	32045.56
692.344	31864.32
692.69	31857.76
693.037	31876.29
693.383	31456.87
693.73	31606.02
694.077	31321.28
694.423	31433.59
694.769	31294.16
695.116	31275.18
695.462	30979.82
695.808	30843.55
696.155	30917.68
696.501	30555.65
696.847	30626.38
697.193	30446.5
697.539	30342.32
697.885	30183.46
698.231	30074.76
698.577	30018.72
698.923	30060.52
699.269	29535.11
699.614	29602
699.96	29475.91
700.306	29404.5
700.651	29272.75
700.997	29134.9
701.342	29013.09
701.688	29001.34
702.033	28856.04
702.379	28791.63
702.724	28615.82
703.069	28693.55
703.415	28381.25
703.76	28337.86
704.105	28328.14
704.45	28020.8
704.795	28029.39
705.14	27879.56
705.485	27947.81
705.83	27671.89
706.175	27850.64
706.52	27662.17
706.865	27556.86
707.209	27353.48
707.554	27355.06
707.899	27377.88
708.243	27218.56
708.588	27157.55
708.932	27075.52
709.277	27059.92
709.621	26883.43
709.966	26817.9
710.31	26909.19
710.654	26560.95
710.998	26627.62
711.342	26664.68
711.687	26527.96
712.031	26475.53
712.375	26259.49
712.719	26419.94
713.063	26205.26
713.407	26482.09
713.75	26322.99
714.094	26109.67
714.438	26123.9
714.782	26053.17
715.125	25934.53
715.469	26140.4
715.812	25851.82
716.156	25810.47
716.499	25824.93
716.843	25886.85
717.186	25751.03
717.53	25898.15
717.873	25927.75
718.216	25868.99
718.559	25900.41
718.902	25549.68
719.246	25713.74
719.589	25634.88
719.932	25549.91
720.275	25581.32
720.617	25660.86
720.96	25552.17
721.303	25590.58
721.646	25605.5
721.989	25563.92
722.331	25506.74
722.674	25474.88
723.016	25462.68
723.359	25464.49
723.701	25518.27
724.044	25488.67
724.386	25235.79
724.729	25544.03
725.071	25513.98
725.413	25330.25
725.755	25445.73
726.097	25296.13
726.439	25238.96
726.782	25285.96
727.124	25513.3
727.465	25448.22
727.807	25395.56
728.149	25490.7
728.491	25442.11
728.833	25564.82
729.175	25508.33
729.516	25431.27
729.858	25313.53
730.199	25519.85
730.541	25470.14
730.882	25562.11
731.224	25619.28
731.565	25578.38
731.906	25618.83
732.248	25706.97
732.589	25472.85
732.93	25603.92
733.271	25623.13
733.612	25600.75
733.953	25723.24
734.294	25740.64
734.635	25835.1
734.976	25857.02
735.317	25800.75
735.658	25854.76
735.999	25816.57
736.339	25965.72
736.68	25985.38
737.021	26058.59
737.361	26008.43
737.702	26186.73
738.042	26132.72
738.383	26275.09
738.723	26411.58
739.063	26377.46
739.404	26456.55
739.744	26347.85
740.084	26495.87
740.424	26468.08
740.764	26538.81
741.104	26806.6
741.444	26683.66
741.784	26855.86
742.124	26890.44
742.464	27040.72
742.804	27069.19
743.143	27165.68
743.483	27275.96
743.823	27135.18
744.162	27382.85
744.502	27559.35
744.841	27593.24
745.181	27815.61
745.52	27715.5
745.86	28011.54
746.199	28194.81
746.538	28268.03
746.877	28469.15
747.216	28514.58
747.556	28598.64
747.895	28748.47
748.234	28974
748.573	28962.25
748.911	29178.96
749.25	29352.75
749.589	29373.54
749.928	29700.53
750.267	29967.64
750.605	30071.6
750.944	30128.77
751.283	30293.51
751.621	30469.1
751.96	30454.41
752.298	30664.8
752.636	31028.63
752.975	31157.44
753.313	31299.36
753.651	31649.41
