Data from 14-4516_FLMS001491_009.txt Node
Date: Thu Apr 19 16:47:13 BST 2018
User: hsy
Spectrometer: FLMS00149
Trigger mode: 0
Integration Time (sec): 1.000000E-2
Scans to average: 10
Electric dark correction enabled: true
Nonlinearity correction enabled: false
Boxcar width: 0
XAxis mode: Wavelengths
Number of Pixels in Spectrum: 2048
>>>>>Begin Spectral Data<<<<<
341.393	-1.03
341.776	-1.03
342.16	-1.03
342.543	-55.27
342.927	-88.94
343.31	-67.47
343.693	-57.3
344.077	-66.57
344.46	-57.07
344.843	-46.68
345.226	-49.39
345.61	-20.47
345.993	-30.18
346.376	-29.5
346.759	19.53
347.142	23.83
347.525	39.19
347.908	64.96
348.291	79.42
348.674	84.39
349.057	113.32
349.44	126.88
349.823	154.45
350.206	174.11
350.588	229.92
350.971	235.8
351.354	243.71
351.737	280.77
352.119	271.28
352.502	283.48
352.884	271.5
353.267	317.83
353.65	331.16
354.032	318.06
354.414	328.23
354.797	321.22
355.179	349.02
355.562	379.3
355.944	354.67
356.326	370.26
356.709	367.77
357.091	357.38
357.473	372.29
357.855	385.85
358.238	380.43
358.62	373.87
359.002	387.21
359.384	362.35
359.766	366.42
360.148	362.12
360.53	359.41
360.912	352.86
361.294	383.37
361.676	371.39
362.057	368
362.439	362.35
362.821	368.68
363.203	353.31
363.584	363.48
363.966	371.39
364.348	375.91
364.729	384.04
365.111	377.04
365.493	367.32
365.874	341.78
366.256	355.12
366.637	337.04
367.019	337.72
367.4	341.56
367.781	359.19
368.163	325.06
368.544	374.78
368.925	350.37
369.306	359.19
369.688	352.41
370.069	348.11
370.45	364.38
370.831	363.93
371.212	347.89
371.593	352.18
371.974	353.08
372.355	386.76
372.736	383.14
373.117	376.59
373.498	381.56
373.879	372.74
374.26	342.24
374.641	383.37
375.021	365.06
375.402	369.58
375.783	361.45
376.163	379.52
376.544	381.78
376.925	388.34
377.305	367.55
377.686	393.76
378.066	385.17
378.447	406.19
378.827	379.3
379.208	398.73
379.588	383.82
379.968	407.09
380.349	403.03
380.729	412.97
381.109	415.91
381.489	397.6
381.87	402.8
382.25	411.16
382.63	414.78
383.01	421.1
383.39	431.05
383.77	415.46
384.15	421.33
384.53	437.83
384.91	422.91
385.29	412.29
385.67	426.75
386.049	454.78
386.429	421.56
386.809	460.65
387.189	454.1
387.568	472.63
387.948	453.87
388.328	437.15
388.707	460.65
389.087	463.82
389.466	471.95
389.846	451.39
390.225	487.77
390.605	490.03
390.984	483.93
391.363	474.66
391.743	473.08
392.122	492.74
392.501	491.39
392.881	481.67
393.26	505.4
393.639	517.37
394.018	505.4
394.397	511.27
394.776	506.75
395.155	511.5
395.534	511.27
395.913	492.52
396.292	523.7
396.671	526.64
397.05	556.92
397.429	548.56
397.808	558.05
398.186	556.92
398.565	549.91
398.944	562.57
399.323	591.5
399.701	570.25
400.08	565.96
400.458	581.33
400.837	605.05
401.215	604.6
401.594	612.29
401.972	604.38
402.351	600.76
402.729	612.74
403.107	618.84
403.486	615.68
403.864	630.82
404.242	655.9
404.62	671.04
404.999	672.85
405.377	687.99
405.755	689.57
406.133	705.17
406.511	717.14
406.889	699.52
407.267	718.05
407.645	734.09
408.023	720.31
408.401	757.59
408.779	750.36
409.156	791.26
409.534	786.52
409.912	805.5
410.29	809.12
410.667	790.59
411.045	844.14
411.422	846.4
411.8	854.99
412.178	870.36
412.555	902
412.933	917.14
413.31	906.06
413.687	942.22
414.065	941.32
414.442	965.5
414.819	953.29
415.197	990.58
415.574	1005.27
415.951	1005.27
416.328	997.36
416.705	1023.8
417.082	1057.92
417.46	1050.24
417.837	1038.94
418.214	1078.26
418.591	1085.27
418.967	1099.5
419.344	1128.2
419.721	1135.44
420.098	1153.97
420.475	1143.8
420.852	1159.62
421.228	1146.28
421.605	1174.98
421.982	1200.29
422.358	1222.21
422.735	1238.94
423.111	1237.58
423.488	1271.7
423.864	1290.69
424.241	1301.99
424.617	1317.35
424.994	1345.83
425.37	1342.44
425.746	1371.14
426.123	1379.05
426.499	1369.33
426.875	1400.29
427.251	1430.8
427.627	1435.09
428.003	1438.48
428.379	1475.77
428.756	1487.07
429.132	1492.04
429.507	1523.9
429.883	1559.61
430.259	1587.18
430.635	1594.41
431.011	1607.29
431.387	1637.57
431.763	1682.31
432.138	1683.67
432.514	1709.43
432.89	1701.98
433.265	1769.77
433.641	1772.71
434.016	1783.33
434.392	1835.08
434.767	1855.42
435.143	1858.13
435.518	1902.42
435.894	1946.26
436.269	1955.3
436.644	1979.26
437.02	1992.14
437.395	2006.37
437.77	2079.14
438.145	2086.37
438.52	2105.81
438.895	2140.83
439.271	2118.91
439.646	2186.71
440.021	2228.29
440.395	2193.26
440.77	2209.53
441.145	2220.15
441.52	2270.77
441.895	2309.87
442.27	2321.17
442.645	2309.19
443.019	2335.18
443.394	2343.54
443.769	2358.23
444.143	2366.82
444.518	2400.26
444.892	2424.67
445.267	2424.44
445.641	2467.6
446.016	2481.62
446.39	2480.49
446.764	2486.14
447.139	2504.44
447.513	2539.92
447.887	2551.67
448.262	2572.23
448.636	2609.3
449.01	2608.84
449.384	2689.97
449.758	2680.25
450.132	2688.62
450.506	2781.04
450.88	2749.63
451.254	2754.6
451.628	2800.93
452.002	2853.36
452.376	2866.24
452.75	2896.75
453.123	2914.6
453.497	2974.94
453.871	2998.66
454.244	3040.7
454.618	3094.03
454.992	3116.18
455.365	3149.85
455.739	3226.68
456.112	3224.65
456.486	3255.38
456.859	3308.94
457.232	3364.98
457.606	3362.72
457.979	3473.68
458.352	3524.07
458.725	3524.07
459.099	3613.11
459.472	3644.97
459.845	3666.67
460.218	3725.65
460.591	3773.78
460.964	3756.61
461.337	3875.25
461.71	3913.22
462.083	3993.21
462.456	4005.19
462.829	4051.52
463.201	4085.64
463.574	4105.75
463.947	4194.34
464.32	4237.05
464.692	4284.28
465.065	4275.47
465.438	4364.73
465.81	4459.64
466.183	4460.55
466.555	4533.09
466.928	4566.08
467.3	4587.55
467.672	4656.25
468.045	4774.66
468.417	4811.05
468.789	4882
469.161	4895.56
469.534	4999.97
469.906	5048.55
470.278	5095.56
470.65	5120.87
471.022	5275.21
471.394	5339.62
471.766	5366.29
472.138	5470.46
472.51	5606.05
472.882	5617.8
473.253	5693.96
473.625	5825.03
473.997	5882.2
474.369	5895.09
474.74	6021.64
475.112	6122.42
475.484	6225.7
475.855	6339.37
476.227	6379.14
476.598	6564.45
476.97	6586.14
477.341	6784.55
477.713	6880.6
478.084	6964.44
478.455	7146.13
478.827	7160.14
479.198	7371.2
479.569	7409.4
479.94	7572.1
480.311	7709.05
480.682	7891.87
481.053	8022.03
481.424	8145.42
481.795	8257.96
482.166	8444.85
482.537	8505.41
482.908	8717.38
483.279	8848.68
483.65	8959.41
484.021	9225.84
484.391	9323.02
484.762	9427.65
485.133	9540.86
485.503	9711.26
485.874	9968.65
486.244	10028.08
486.615	10233.73
486.985	10394.4
487.356	10611.12
487.726	10663.32
488.097	10940.83
488.467	10981.05
488.837	11340.37
489.207	11343.98
489.578	11658.1
489.948	11792.11
490.318	11937.86
490.688	12025.09
491.058	12247.91
491.428	12482.48
491.798	12563.38
492.168	12826.65
492.538	12944.39
492.908	13049.02
493.278	13388.45
493.648	13474.77
494.017	13592.74
494.387	13825.95
494.757	13957.47
495.126	14134.19
495.496	14216.9
495.866	14440.85
496.235	14599.26
496.605	14700.73
496.974	14858.69
497.344	15078.35
497.713	15055.3
498.082	15312.24
498.452	15533.02
498.821	15672.68
499.19	15710.42
499.559	15931.66
499.928	16043.29
500.298	16146.57
500.667	16303.62
501.036	16443.06
501.405	16623.16
501.774	16694.35
502.143	16959.43
502.512	17017.28
502.88	17182.7
503.249	17251.4
503.618	17424.95
503.987	17544.04
504.356	17649.13
504.724	17750.14
505.093	17819.74
505.462	17990.81
505.83	18113.07
506.199	18329.56
506.567	18501.08
506.936	18582.44
507.304	18756.89
507.672	18812.94
508.041	19030.78
508.409	19136.09
508.777	19300.61
509.145	19492.47
509.514	19473.94
509.882	19665.12
510.25	19711.67
510.618	19948.27
510.986	19925
511.354	20107.37
511.722	20331.99
512.09	20456.06
512.458	20362.28
512.826	20663.96
513.193	20798.87
513.561	20865.76
513.929	20963.39
514.297	21200.22
514.664	21334.91
515.032	21401.57
515.4	21506.43
515.767	21588.91
516.135	21808.56
516.502	21655.8
516.869	22062.12
517.237	22113.87
517.604	21993.19
517.972	22291.49
518.339	22470.69
518.706	22578.94
519.073	22581.43
519.44	22788.65
519.808	23007.18
520.175	23101.64
520.542	23255.76
520.909	23367.62
521.276	23423.66
521.643	23715.41
522.009	23805.12
522.376	23789.08
522.743	24020.94
523.11	24220.93
523.477	24419.34
523.843	24473.35
524.21	24797.64
524.577	24869.5
524.943	24956.5
525.31	25084.19
525.676	25292.09
526.043	25462.03
526.409	25521.24
526.776	25651.63
527.142	25796.48
527.508	25763.49
527.874	26078.96
528.241	26182.69
528.607	26317.6
528.973	26544.03
529.339	26487.09
529.705	26642.34
530.071	26809.56
530.437	26972.05
530.803	27102.44
531.169	27125.04
531.535	27214.75
531.901	27320.28
532.267	27312.15
532.632	27553.05
532.998	27526.38
533.364	27645.7
533.73	27572.93
534.095	27976.31
534.461	27801.18
534.826	27836.66
535.192	27907.39
535.557	28110.77
535.923	28038.23
536.288	28109.19
536.653	28121.17
537.019	28127.04
537.384	28129.98
537.749	28266.93
538.114	28120.04
538.479	28163.65
538.845	28294.72
539.21	28214.72
539.575	28237.77
539.94	28276.19
540.305	28363.87
540.67	28327.04
541.034	28329.98
541.399	28358
541.764	28365.23
542.129	28361.84
542.494	28338.56
542.858	28358.22
543.223	28298.11
543.587	28564.55
543.952	28322.29
544.316	28515.51
544.681	28224.22
545.045	28409.75
545.41	28520.25
545.774	28343.76
546.138	28455.85
546.503	28420.14
546.867	28407.94
547.231	28445.45
547.595	28394.15
547.959	28508.05
548.324	28484.1
548.688	28340.14
549.052	28366.13
549.416	28315.51
549.779	28283.65
550.143	28448.16
550.507	28470.99
550.871	28334.72
551.235	28367.94
551.599	28427.6
551.962	28334.27
552.326	28419.92
552.689	28359.35
553.053	28219.92
553.417	28271.9
553.78	28505.11
554.143	28433.93
554.507	28506.92
554.87	28522.06
555.234	28571.33
555.597	28294.5
555.96	28494.72
556.323	28421.05
556.686	28405.23
557.05	28717.76
557.413	28517.99
557.776	28528.39
558.139	28636.63
558.502	28516.64
558.865	28607.48
559.228	28750.53
559.59	28709.17
559.953	28773.35
560.316	28965.89
560.679	28875.5
561.041	28933.8
561.404	28937.19
561.767	29156.39
562.129	28997.75
562.492	29204.98
562.854	29191.2
563.217	29097.86
563.579	29144.87
563.941	29238.65
564.304	29433.45
564.666	29550.73
565.028	29358.87
565.39	29451.08
565.753	29642.71
566.115	29563.16
566.477	29643.39
566.839	29685.87
567.201	29949.37
567.563	29737.4
567.925	29957.05
568.287	30048.12
568.648	30035.69
569.01	30150.04
569.372	30333.76
569.734	30068.01
570.095	30345.52
570.457	30443.14
570.819	30457.83
571.18	30345.06
571.542	30660.76
571.903	30683.81
572.265	30778.05
572.626	30850.14
572.987	30849.68
573.349	30993.41
573.71	31029.34
574.071	31022.79
574.432	31173.52
574.794	31333.96
575.155	31204.25
575.516	31405.15
575.877	31357.24
576.238	31425.71
576.599	31542.55
576.96	31494.19
577.32	31609.44
577.681	31456.9
578.042	31800.84
578.403	31701.19
578.763	31520.63
579.124	31670.45
579.485	31895.76
579.845	31973.27
580.206	31742.32
580.566	31898.7
580.927	31853.5
581.287	32045.36
581.648	31921.07
582.008	31942.08
582.368	31855.98
582.728	32026.6
583.089	31958.58
583.449	31966.72
583.809	32044.91
584.169	32119.25
584.529	32005.36
584.889	32201.51
585.249	31951.35
585.609	31866.38
585.969	32134.4
586.329	32060.95
586.688	32152.7
587.048	32105.92
587.408	32172.81
587.768	32041.74
588.127	32223.21
588.487	32084.68
588.846	32389.08
589.206	32152.93
589.565	32121.29
589.925	32274.73
590.284	32121.97
590.643	32101.4
591.003	32242.87
591.362	32243.54
591.721	32288.52
592.08	32218.01
592.44	32338.68
592.799	32335.97
593.158	32397.89
593.517	32158.35
593.876	32300.72
594.235	32304.79
594.593	32292.58
594.952	32379.13
595.311	32221.17
595.67	32384.33
596.029	32516.31
596.387	32543.65
596.746	32627.49
597.104	32444.9
597.463	32521.96
597.822	32647.15
598.18	32508.62
598.538	32536.87
598.897	32776.64
599.255	32484.89
599.613	32913.81
599.972	32643.53
600.33	32697.09
600.688	32687.37
601.046	32739.35
601.404	32895.73
601.762	32782.29
602.12	32929.63
602.478	33018.21
602.836	32919.46
603.194	32836.98
603.552	32980.7
603.91	32845.34
604.268	33143.18
604.625	32866.81
604.983	33334.14
605.341	33005.11
605.698	33082.17
606.056	33301.6
606.413	33114.48
606.771	33308.6
607.128	33323.06
607.485	33237.87
607.843	33224.99
608.2	33409.84
608.557	33634.69
608.914	33460.69
609.272	33556.28
609.629	33678.08
609.986	33759.89
610.343	33687.57
610.7	33974.35
611.057	33873.33
611.414	33759.89
611.771	34045.08
612.127	34083.27
612.484	34088.47
612.841	34307.45
613.198	33979.77
613.554	34026.32
613.911	34296.37
614.267	34253.44
614.624	34290.5
614.98	34474.22
615.337	34629.92
615.693	34425.63
616.05	34615.46
616.406	34701.33
616.762	34556.03
617.118	34589.25
617.475	34612.75
617.831	34845.51
618.187	34833.08
618.543	34837.6
618.899	34907.88
619.255	34977.03
619.611	34905.85
619.967	35112.4
620.323	35153.75
620.678	35056.35
621.034	35058.84
621.39	34989.01
621.746	35199.63
622.101	35445.04
622.457	35135.45
622.812	35353.29
623.168	35298.83
623.523	35448.43
623.879	35516.45
624.234	35313.29
624.589	35337.47
624.945	35574.98
625.3	35540.18
625.655	35574.76
626.01	35572.95
626.365	35564.81
626.72	35560.52
627.075	35539.5
627.43	35440.75
627.785	35520.07
628.14	35423.12
628.495	35511.71
628.85	35544.93
629.205	35404.82
629.559	35547.41
629.914	35402.11
630.269	35465.61
630.623	35217.48
630.978	35218.61
631.332	35371.82
631.687	35426.29
632.041	35305.61
632.396	35290.02
632.75	35240.3
633.104	35240.53
633.459	35152.85
633.813	35182.9
634.167	35138.61
634.521	35296.35
634.875	35107.2
635.229	34996.69
635.583	34932.97
635.937	34850.26
636.291	34892.06
636.645	34862.69
636.999	34777.04
637.352	34993.76
637.706	34675.12
638.06	34770.26
638.413	34728.45
638.767	34504.73
639.121	34680.77
639.474	34553.99
639.828	34555.57
640.181	34520.1
640.534	34547.44
640.888	34395.8
641.241	34241.91
641.594	34327.56
641.947	34505.86
642.301	34290.27
642.654	34271.74
643.007	34254.79
643.36	34448.23
643.713	34247.79
644.066	34413.66
644.419	34192.19
644.771	33830.4
645.124	33625.66
645.477	33558.76
645.83	33340.92
646.182	33386.57
646.535	33223.41
646.888	33362.61
647.24	33241.94
647.593	33528.71
647.945	33290.97
648.298	33246.68
648.65	33100.7
649.002	32994.49
649.355	32980.93
649.707	32962.4
650.059	33000.59
650.411	33371.88
650.763	33517.41
651.115	33973.89
651.467	33903.61
651.819	34001.01
652.171	33890.28
652.523	33849.15
652.875	33839.21
653.227	33812.09
653.578	34008.47
653.93	33940.68
654.282	33782.94
654.633	33858.42
654.985	33934.35
655.337	33954.01
655.688	33861.81
656.039	34013.22
656.391	33710.17
656.742	33781.58
657.094	33893.67
657.445	33938.42
657.796	34015.93
658.147	33811.87
658.498	34028.36
658.849	33968.47
659.2	33954.01
659.551	33891.41
659.902	33982.71
660.253	33956.27
660.604	34090.73
660.955	34004.4
661.306	34208.01
661.656	34040.33
662.007	34097.28
662.358	34161.23
662.708	34168.47
663.059	34130.27
663.409	34055.25
663.76	34337.73
664.11	34131.18
664.461	34401
664.811	34448.01
665.161	34451.85
665.511	34166.88
665.862	34288.24
666.212	34342.02
666.562	34578.85
666.912	34525.29
667.262	34307.67
667.612	34388.8
667.962	34390.83
668.312	34294.56
668.662	34598.74
669.011	34406.2
669.361	34378.4
669.711	34341.34
670.06	34439.87
670.41	34327.78
670.76	34276.49
671.109	34434
671.459	34349.48
671.808	34241.23
672.157	34370.95
672.507	34038.3
672.856	34198.07
673.205	34319.42
673.554	34363.04
673.904	34169.37
674.253	34509.93
674.602	34223.38
674.951	33668.14
675.3	33554.47
675.649	34109.48
675.998	34080.33
676.346	34060.22
676.695	34159.43
677.044	33824.75
677.393	33956.27
677.741	33929.6
678.09	33805.09
678.438	33737.06
678.787	33832.2
679.135	33818.64
679.484	33664.98
679.832	33734.81
680.181	33665.2
680.529	33674.69
680.877	33546.56
681.225	33478.54
681.573	33665.65
681.922	33408.49
682.27	33438.54
682.618	33316.06
682.966	33305.21
683.314	33372.55
683.661	33136.18
684.009	33087.82
684.357	33001.27
684.705	32895.05
685.053	32883.08
685.4	32691.22
685.748	32675.85
686.095	32731.22
686.443	32531.67
686.79	32365.12
687.138	32564.67
687.485	32467.49
687.832	32319.7
688.18	32247.84
688.527	32081.52
688.874	32037.9
689.221	31876.1
689.568	31785.93
689.915	31719.04
690.262	31651.24
690.609	31537.35
690.956	31395.21
691.303	31409.67
691.65	31184.59
691.997	31066.85
692.344	31056.01
692.69	30928.78
693.037	30963.13
693.383	30674.32
693.73	30735.79
694.077	30543.25
694.423	30539.41
694.769	30363.14
695.116	30279.75
695.462	30091.96
695.808	30097.16
696.155	29978.75
696.501	29704.18
696.847	29882.7
697.193	29489.27
697.539	29527.46
697.885	29304.19
698.231	29255.15
698.577	29093.57
698.923	29034.36
699.269	28962.95
699.614	28779
699.96	28718.44
700.306	28607.93
700.651	28388.05
700.997	28209.53
701.342	28214.72
701.688	28125.69
702.033	27986.71
702.379	28002.98
702.724	27827.84
703.069	27964.34
703.415	27685.7
703.76	27595.98
704.105	27574.74
704.45	27348.98
704.795	27376.78
705.14	27167.97
705.485	27223.56
705.83	26950.58
706.175	27111.48
706.52	26948.77
706.865	26824.25
707.209	26639.62
707.554	26689.79
707.899	26621.77
708.243	26570.02
708.588	26446.18
708.932	26362.57
709.277	26347.88
709.621	26326.86
709.966	25966.42
710.31	26048
710.654	25912.64
710.998	25943.6
711.342	25888.01
711.687	25679.65
712.031	25710.84
712.375	25552.2
712.719	25582.93
713.063	25473.33
713.407	25589.71
713.75	25499.32
714.094	25492.99
714.438	25325.53
714.782	25376.38
715.125	25188.36
715.469	25331.64
715.812	25104.75
716.156	25144.07
716.499	25150.62
716.843	25267.23
717.186	25103.39
717.53	25192.66
717.873	25217.06
718.216	25091.42
718.559	25112.66
718.902	24951.99
719.246	25019.1
719.589	24929.84
719.932	24771.65
720.275	24839.9
720.617	24913.34
720.96	24849.39
721.303	24857.98
721.646	24906.56
721.989	24771.88
722.331	24728.26
722.674	24808.71
723.016	24758.77
723.359	24741.82
723.701	24718.32
724.044	24791.31
724.386	24622.28
724.729	24659.56
725.071	24776.17
725.413	24703.86
725.755	24646.68
726.097	24672.22
726.439	24738.88
726.782	24548.83
727.124	24860.46
727.465	24652.78
727.807	24631.32
728.149	24761.48
728.491	24609.4
728.833	24736.85
729.175	24704.76
729.516	24660.69
729.858	24753.57
730.199	24847.81
730.541	24898.65
730.882	24829.5
731.224	24765.78
731.565	24775.27
731.906	24854.13
732.248	24919.44
732.589	24695.04
732.93	24893.91
733.271	24883.51
733.612	24980.46
733.953	25040.8
734.294	24955.83
734.635	25004.64
734.976	25190.85
735.317	25049.84
735.658	25071.76
735.999	25148.14
736.339	25165.54
736.68	25250.96
737.021	25239.21
737.361	25289.6
737.702	25535.25
738.042	25501.8
738.383	25430.62
738.723	25581.35
739.063	25424.74
739.404	25598.07
739.744	25631.29
740.084	25673.1
740.424	25709.03
740.764	25854.33
741.104	25905.41
741.444	25855.46
741.784	25986.53
742.124	26154.44
742.464	26091.39
742.804	26190.82
743.143	26180.65
743.483	26480.76
743.823	26475.11
744.162	26561.21
744.502	26640.3
744.841	26728.44
745.181	26900.86
745.52	26973.17
745.86	27099.27
746.199	27351.92
746.538	27343.56
746.877	27613.38
747.216	27529.32
747.556	27626.94
747.895	27857.9
748.234	27999.36
748.573	28095.41
748.911	28175.4
749.25	28404.78
749.589	28452.46
749.928	28675.28
750.267	28850.64
750.605	29007.92
750.944	29155.04
751.283	29245.66
751.621	29564.75
751.96	29505.54
752.298	29685.19
752.636	29917.5
752.975	30197.72
753.313	30152.07
753.651	30518.84
