Data from 14-4516_FLMS001491_001.txt Node
Date: Thu Apr 19 16:46:52 BST 2018
User: hsy
Spectrometer: FLMS00149
Trigger mode: 0
Integration Time (sec): 1.000000E-2
Scans to average: 10
Electric dark correction enabled: true
Nonlinearity correction enabled: false
Boxcar width: 0
XAxis mode: Wavelengths
Number of Pixels in Spectrum: 2048
>>>>>Begin Spectral Data<<<<<
341.393	3.26
341.776	3.26
342.16	3.26
342.543	-76.51
342.927	-70.63
343.31	-76.51
343.693	-78.77
344.077	-55.04
344.46	-85.77
344.843	-55.04
345.226	-38.77
345.61	-24.31
345.993	7.1
346.376	-7.13
346.759	1.68
347.142	18.63
347.525	39.42
347.908	75.35
348.291	59.08
348.674	97.05
349.057	123.03
349.44	106.76
349.823	129.59
350.206	170.04
350.588	229.25
350.971	226.76
351.354	258.17
351.737	276.7
352.119	274.89
352.502	292.29
352.884	289.13
353.267	286.42
353.65	316.47
354.032	329.13
354.414	333.88
354.797	335.01
355.179	318.96
355.562	372.29
355.944	361.67
356.326	358.51
356.709	373.65
357.091	378.17
357.473	378.62
357.855	358.73
358.238	382.91
358.62	386.53
359.002	379.3
359.384	401.44
359.766	360.77
360.148	368
360.53	389.02
360.912	375.46
361.294	369.58
361.676	368.68
362.057	365.51
362.439	376.36
362.821	375.23
363.203	349.92
363.584	358.28
363.966	369.35
364.348	327.77
364.729	345.63
365.111	346.76
365.493	365.96
365.874	354.67
366.256	356.25
366.637	369.13
367.019	356.47
367.4	352.41
367.781	371.16
368.163	357.15
368.544	331.39
368.925	346.08
369.306	372.74
369.688	362.8
370.069	349.02
370.45	354.89
370.831	344.04
371.212	377.72
371.593	359.19
371.974	360.77
372.355	365.74
372.736	376.59
373.117	373.87
373.498	370.71
373.879	367.77
374.26	349.02
374.641	358.96
375.021	354.89
375.402	385.17
375.783	401.22
376.163	384.95
376.544	365.96
376.925	389.47
377.305	392.63
377.686	391.28
378.066	383.14
378.447	406.19
378.827	396.7
379.208	391.73
379.588	395.34
379.968	399.86
380.349	381.11
380.729	393.08
381.109	393.53
381.489	407.32
381.87	406.87
382.25	392.18
382.63	410.48
383.01	391.5
383.39	430.14
383.77	428.56
384.15	419.3
384.53	426.98
384.91	422.91
385.29	440.77
385.67	429.01
386.049	434.44
386.429	448.45
386.809	442.12
387.189	472.4
387.568	443.48
387.948	458.84
388.328	471.05
388.707	455.91
389.087	463.36
389.466	465.17
389.846	474.21
390.225	467.21
390.605	476.47
390.984	476.02
391.363	487.77
391.743	479.18
392.122	485.96
392.501	491.16
392.881	517.15
393.26	521.89
393.639	535.45
394.018	506.53
394.397	545.4
394.776	525.28
395.155	525.73
395.534	529.35
395.913	543.81
396.292	558.28
396.671	551.5
397.05	551.27
397.429	553.76
397.808	565.51
398.186	560.76
398.565	576.58
398.944	567.32
399.323	577.26
399.701	580.65
400.08	598.5
400.458	574.1
400.837	596.92
401.215	631.04
401.594	618.16
401.972	609.8
402.351	624.49
402.729	638.73
403.107	624.04
403.486	643.92
403.864	649.35
404.242	655
404.62	639.18
404.999	690.7
405.377	678.73
405.755	665.84
406.133	679.86
406.511	706.07
406.889	737.03
407.267	728.67
407.645	741.55
408.023	753.53
408.401	781.1
408.779	777.48
409.156	780.19
409.534	806.41
409.912	813.86
410.29	821.09
410.667	851.38
411.045	850.47
411.422	845.05
411.8	851.6
412.178	895.22
412.555	916.01
412.933	900.64
413.31	950.81
413.687	967.53
414.065	969.56
414.442	1012.5
414.819	1010.47
415.197	1005.04
415.574	1024.25
415.951	1017.25
416.328	1013.18
416.705	1069
417.082	1078.26
417.46	1077.13
417.837	1108.32
418.214	1090.47
418.591	1094.99
418.967	1113.97
419.344	1155.77
419.721	1151.26
420.098	1146.96
420.475	1177.92
420.852	1187.41
421.228	1174.53
421.605	1218.6
421.982	1231.25
422.358	1263.12
422.735	1243.23
423.111	1263.79
423.488	1318.71
423.864	1332.49
424.241	1337.46
424.617	1325.71
424.994	1338.37
425.37	1365.49
425.746	1359.39
426.123	1393.51
426.499	1438.25
426.875	1416.33
427.251	1467.86
427.627	1489.55
428.003	1524.35
428.379	1494.75
428.756	1542.21
429.132	1578.81
429.507	1598.7
429.883	1565.71
430.259	1607.74
430.635	1663.78
431.011	1659.04
431.387	1707.62
431.763	1727.96
432.138	1751.69
432.514	1765.48
432.89	1781.07
433.265	1788.98
433.641	1801.63
434.016	1839.82
434.392	1886.15
434.767	1911.46
435.143	1926.83
435.518	1911.69
435.894	1997.56
436.269	2027.16
436.644	2045.02
437.02	2080.72
437.395	2090.67
437.77	2109.87
438.145	2120.27
438.52	2165.01
438.895	2188.97
439.271	2178.8
439.646	2215.18
440.021	2256.31
440.395	2262.64
440.77	2247.72
441.145	2313.48
441.52	2380.83
441.895	2340.83
442.27	2403.65
442.645	2376.99
443.019	2408.62
443.394	2415.18
443.769	2414.27
444.143	2455.85
444.518	2474.61
444.892	2481.84
445.267	2501.28
445.641	2524.55
446.016	2550.31
446.39	2570.2
446.764	2582.4
447.139	2602.97
447.513	2627.6
447.887	2612.46
448.262	2642.29
448.636	2682.74
449.01	2729.52
449.384	2747.37
449.758	2813.81
450.132	2800.03
450.506	2831.44
450.88	2851.32
451.254	2837.09
451.628	2892.9
452.002	2920.47
452.376	2928.61
452.75	3011.77
453.123	3004.09
453.497	3048.38
453.871	3064.2
454.244	3158.66
454.618	3133.8
454.992	3217.19
455.365	3248.6
455.739	3300.35
456.112	3320.92
456.486	3375.83
456.859	3431.87
457.232	3544.41
457.606	3511.64
457.979	3605.43
458.352	3622.6
458.725	3652.88
459.099	3665.54
459.472	3723.39
459.845	3819.66
460.218	3849.04
460.591	3895.36
460.964	3935.81
461.337	4005.42
461.71	4003.16
462.083	4145.07
462.456	4097.17
462.829	4156.37
463.201	4234.79
463.574	4254.9
463.947	4325.18
464.32	4390.72
464.692	4412.86
465.065	4469.59
465.438	4545.29
465.81	4602.69
466.183	4646.3
466.555	4692.4
466.928	4784.38
467.3	4783.7
467.672	4829.35
468.045	4950.03
468.417	4970.36
468.789	5008.55
469.161	5070.7
469.534	5158.83
469.906	5251.71
470.278	5248.77
470.65	5371.71
471.022	5474.31
471.394	5494.87
471.766	5596.34
472.138	5652.61
472.51	5790.23
472.882	5835.65
473.253	5930.56
473.625	5941.19
473.997	6146.83
474.369	6130.11
474.74	6255.53
475.112	6349.76
475.484	6436.54
475.855	6578.91
476.227	6624.78
476.598	6807.6
476.97	6882.4
477.341	6965.34
477.713	7105
478.084	7128.05
478.455	7356.29
478.827	7458.89
479.198	7660.24
479.569	7680.12
479.94	7895.03
480.311	7943.17
480.682	8175.93
481.053	8307.45
481.424	8487.11
481.795	8554
482.166	8728.23
482.537	8825.4
482.908	9021.56
483.279	9134.77
483.65	9253.19
484.021	9509.68
484.391	9645.27
484.762	9734.98
485.133	9814.76
485.503	10050.23
485.874	10261.98
486.244	10343.56
486.615	10632.14
486.985	10718.01
487.356	10886.82
487.726	11010.66
488.097	11291.1
488.467	11386.01
488.837	11569.51
489.207	11755.5
489.578	12033.45
489.948	12067.35
490.318	12421.02
490.688	12332.66
491.058	12654
491.428	12834.34
491.798	12990.27
492.168	13203.37
492.538	13322.46
492.908	13490.82
493.278	13720.87
493.648	13809.45
494.017	14029.11
494.387	14165.6
494.757	14354.3
495.126	14535.76
495.496	14683.1
495.866	14867.73
496.235	14903.66
496.605	15274.05
496.974	15244.22
497.344	15429.98
497.713	15580.93
498.082	15696.18
498.452	15878.78
498.821	15971.66
499.19	16104.08
499.559	16296.85
499.928	16535.71
500.298	16506.56
500.667	16767.12
501.036	16805.31
501.405	17042.36
501.774	17102.25
502.143	17288.68
502.512	17301.34
502.88	17497.27
503.249	17623.59
503.618	17871.27
503.987	17768.22
504.356	18031.26
504.724	18073.07
505.093	18176.8
505.462	18407.98
505.83	18534.3
506.199	18609.33
506.567	19052.71
506.936	18934.52
507.304	19172.25
507.672	19285.47
508.041	19365.47
508.409	19456.08
508.777	19609.3
509.145	19817.2
509.514	19889.07
509.882	20072.11
510.25	19983.98
510.618	20310.53
510.986	20223.75
511.354	20496.28
511.722	20701.93
512.09	20913.22
512.458	20955.93
512.826	21041.13
513.193	21120.45
513.561	21171.29
513.929	21357.96
514.297	21549.36
514.664	21754.33
515.032	21841.11
515.4	21983.93
515.767	22052.85
516.135	22226.18
516.502	22057.82
516.869	22467.08
517.237	22425.05
517.604	22528.77
517.972	22865.49
518.339	22816.22
518.706	22993.62
519.073	23053.73
519.44	23123.78
519.808	23405.59
520.175	23498.46
520.542	23759.02
520.909	23850.55
521.276	23836.53
521.643	24118.56
522.009	24119.24
522.376	24266.58
522.743	24410.76
523.11	24653.91
523.477	24848.94
523.843	24973.23
524.21	25113.56
524.577	25326.21
524.943	25341.58
525.31	25538.41
525.676	25705.64
526.043	25892.98
526.409	25932.3
526.776	26193.08
527.142	26207.09
527.508	26357.15
527.874	26572.73
528.241	26623.13
528.607	26736.35
528.973	26988.09
529.339	26842.78
529.705	27294.52
530.071	27297.69
530.437	27362.32
530.803	27520.51
531.169	27489.09
531.535	27587.85
531.901	27602.31
532.267	27775.19
532.632	27803.66
532.998	27919.82
533.364	27970.89
533.73	28016.76
534.095	28217.21
534.461	28215.18
534.826	28251.33
535.192	28323.42
535.557	28469.41
535.923	28382.63
536.288	28571.78
536.653	28532.68
537.019	28365.91
537.384	28488.84
537.749	28485.68
538.114	28613.58
538.479	28446.58
538.845	28581.04
539.21	28541.95
539.575	28579.69
539.94	28711.21
540.305	28675.96
540.67	28651.77
541.034	28797.76
541.399	28695.84
541.764	28730.87
542.129	28685.9
542.494	28719.12
542.858	28794.82
543.223	28709.85
543.587	28931.99
543.952	28659.01
544.316	28819
544.681	28634.37
545.045	28878.44
545.41	28811.32
545.774	28710.3
546.138	28695.84
546.503	28692
546.867	28832.34
547.231	28716.41
547.595	28861.49
547.959	28782.17
548.324	28646.8
548.688	28674.37
549.052	28715.05
549.416	28615.84
549.779	28614.49
550.143	28799.12
550.507	28760.25
550.871	28634.15
551.235	28606.8
551.599	28859.45
551.962	28701.04
552.326	28822.62
552.689	28809.51
553.053	28515.73
553.417	28681.38
553.78	28829.17
554.143	28722.06
554.507	28827.36
554.87	28820.13
555.234	28952.78
555.597	28664.66
555.96	28727.48
556.323	28849.06
556.686	28736.07
557.05	28753.02
557.413	28757.08
557.776	28861.49
558.139	28901.03
558.502	28935.16
558.865	28894.03
559.228	29087.92
559.59	28988.94
559.953	28974.7
560.316	29265.54
560.679	29058.09
561.041	29249.95
561.404	29222.61
561.767	29385.31
562.129	29393.9
562.492	29382.83
562.854	29408.59
563.217	29456.27
563.579	29406.78
563.941	29603.39
564.304	29541.69
564.666	29839.77
565.028	29760.9
565.39	29670.51
565.753	29839.99
566.115	29891.97
566.477	29863.27
566.839	29956.37
567.201	30191.17
567.563	30114.56
567.925	30233.65
568.287	30229.36
568.648	30265.97
569.01	30307.1
569.372	30507.77
569.734	30414.67
570.095	30574.44
570.457	30724.04
570.819	30771.04
571.18	30797.48
571.542	30915.44
571.903	30747.76
572.265	30949.79
572.626	31159.96
572.987	31103.24
573.349	31145.95
573.71	31263.68
574.071	31292.38
574.432	31288.54
574.794	31557.46
575.155	31423.91
575.516	31339.84
575.877	31445.37
576.238	31467.52
576.599	31630
576.96	31740.06
577.32	31691.92
577.681	31859.15
578.042	31969.2
578.403	31865.25
578.763	31727.4
579.124	31868.41
579.485	32020.73
579.845	32004.91
580.206	31919.71
580.566	31920.62
580.927	32017.56
581.287	32057.11
581.648	31861.63
582.008	32201.06
582.368	32059.14
582.728	32062.53
583.089	32142.08
583.449	32130.1
583.809	32256.88
584.169	32295.97
584.529	32164.22
584.889	32339.14
585.249	32059.59
585.609	32083.32
585.969	32210.78
586.329	32032.02
586.688	32195.64
587.048	32138.46
587.408	32108.18
587.768	32142.98
588.127	32209.65
588.487	32201.51
588.846	32250.1
589.206	32116.32
589.565	32047.39
589.925	32259.14
590.284	32175.75
590.643	32296.42
591.003	32152.7
591.362	32347.72
591.721	32310.21
592.08	32118.35
592.44	32288.29
592.799	32193.15
593.158	32262.3
593.517	32242.87
593.876	32383.43
594.235	32312.02
594.593	32340.72
594.952	32428.62
595.311	32308.63
595.67	32291.91
596.029	32543.65
596.387	32460.04
596.746	32561.05
597.104	32408.96
597.463	32525.35
597.822	32641.05
598.18	32412.58
598.538	32499.13
598.897	32706.81
599.255	32518.34
599.613	32794.94
599.972	32628.39
600.33	32611.9
600.688	32586.36
601.046	32710.43
601.404	32853.25
601.762	32699.35
602.12	32808.73
602.478	32828.39
602.836	32838.11
603.194	32672.01
603.552	32817.32
603.91	32758.79
604.268	32960.14
604.625	32921.95
604.983	32941.15
605.341	32790.88
605.698	32994.03
606.056	33146.8
606.413	33056.4
606.771	33159.68
607.128	33288.72
607.485	33167.36
607.843	33211.65
608.2	33252.11
608.557	33315.16
608.914	33326.45
609.272	33449.61
609.629	33603.28
609.986	33631.53
610.343	33489.84
610.7	33916.04
611.057	33691.64
611.414	33664.98
611.771	33766.22
612.127	33983.16
612.484	33915.37
612.841	33965.08
613.198	33949.26
613.554	33844.41
613.911	34128.47
614.267	34095.25
614.624	34107
614.98	34174.57
615.337	34326.65
615.693	34349.93
616.05	34526.65
616.406	34462.47
616.762	34351.74
617.118	34466.99
617.475	34431.06
617.831	34599.42
618.187	34697.49
618.543	34804.16
618.899	34856.13
619.255	34891.61
619.611	34902.46
619.967	34940.2
620.323	35134.54
620.678	35035.11
621.034	35047.76
621.39	35066.75
621.746	35043.92
622.101	35276.46
622.457	34982.68
622.812	35285.5
623.168	35170.25
623.523	35238.27
623.879	35320.3
624.234	35170.02
624.589	35382.67
624.945	35321.2
625.3	35397.36
625.655	35331.15
626.01	35307.19
626.365	35334.99
626.72	35343.35
627.075	35355.33
627.43	35414.53
627.785	35363.24
628.14	35274.88
628.495	35370.24
628.85	35467.64
629.205	35313.07
629.559	35321.43
629.914	35232.62
630.269	35295.89
630.623	35211.6
630.978	35056.35
631.332	35287.98
631.687	35389.45
632.041	35144.26
632.396	35173.19
632.75	35114.2
633.104	35142.68
633.459	34936.13
633.813	34900.42
634.167	34859.3
634.521	34823.59
634.875	34974.77
635.229	34808.22
635.583	34688.9
635.937	34728.68
636.291	34855.68
636.645	34651.39
636.999	34651.17
637.352	34654.55
637.706	34504.05
638.06	34630.6
638.413	34495.01
638.767	34351.74
639.121	34492.07
639.474	34338.41
639.828	34308.58
640.181	34281.68
640.534	34334.56
640.888	34218.63
641.241	34191.52
641.594	34202.14
641.947	34325.98
642.301	34274.45
642.654	34179.31
643.007	34217.5
643.36	34252.31
643.713	34077.62
644.066	34420.44
644.419	33979.77
644.771	33694.35
645.124	33294.59
645.477	33519.22
645.83	33175.95
646.182	33231.77
646.535	33236.29
646.888	33318.32
647.24	33121.26
647.593	33460.24
647.945	33123.07
648.298	33107.7
648.65	33071.77
649.002	32902.51
649.355	32820.03
649.707	32929.63
650.059	32926.92
650.411	33327.36
650.763	33474.02
651.115	33938.64
651.467	33747.01
651.819	33892.54
652.171	33850.06
652.523	33653.45
652.875	33605.99
653.227	33594.24
653.578	33816.61
653.93	33761.02
654.282	33738.87
654.633	33643.06
654.985	33728.25
655.337	33720.12
655.688	33793.56
656.039	33932.31
656.391	33571.42
656.742	33654.36
657.094	33645.54
657.445	33725.09
657.796	33797.63
658.147	33697.97
658.498	33845.76
658.849	33971.41
659.2	33797.4
659.551	33745.2
659.902	33871.75
660.253	33818.87
660.604	33938.19
660.955	33847.8
661.306	34097.28
661.656	33987.45
662.007	33926.44
662.358	33979.32
662.708	34064.06
663.059	34012.99
663.409	33884.41
663.76	34078.07
664.11	34076.94
664.461	34311.51
664.811	34282.36
665.161	34145.19
665.511	34133.89
665.862	34155.58
666.212	34322.36
666.562	34375.92
666.912	34295.69
667.262	34116.49
667.612	34299.99
667.962	34257.05
668.312	34115.81
668.662	34358.97
669.011	34268.12
669.361	34304.73
669.711	34320.1
670.06	34139.77
670.41	34184.74
670.76	34120.11
671.109	34274
671.459	34230.16
671.808	34216.37
672.157	34146.55
672.507	33959.43
672.856	33973.44
673.205	34114.91
673.554	34185.19
673.904	33938.19
674.253	34295.02
674.602	34090.05
674.951	33565.09
675.3	33381.37
675.649	33971.86
675.998	33896.38
676.346	33922.6
676.695	33976.83
677.044	33759.66
677.393	34012.31
677.741	33919.21
678.09	33787.01
678.438	33711.53
678.787	33868.59
679.135	33707.91
679.484	33538.2
679.832	33854.58
680.181	33612.32
680.529	33598.99
680.877	33413.91
681.225	33346.79
681.573	33619.55
681.922	33399.67
682.27	33187.7
682.618	33307.02
682.966	33123.52
683.314	33235.61
683.661	33144.99
684.009	33000.59
684.357	32753.14
684.705	32820.7
685.053	32783.19
685.4	32641.73
685.748	32506.59
686.095	32514.72
686.443	32324.22
686.79	32364.45
687.138	32368.29
687.485	32236.99
687.832	32132.81
688.18	32125.13
688.527	31917
688.874	31953.83
689.221	31962.42
689.568	31801.97
689.915	31614.18
690.262	31470.23
690.609	31557.24
690.956	31421.65
691.303	31444.92
691.65	31301.42
691.997	31160.18
692.344	31029.11
692.69	30909.57
693.037	30802.68
693.383	30575.11
693.73	30573.31
694.077	30381.9
694.423	30318.62
694.769	30312.52
695.116	30261.45
695.462	29957.5
695.808	29842.48
696.155	30000.21
696.501	29727.68
696.847	29746.21
697.193	29455.37
697.539	29476.61
697.885	29228.71
698.231	29082.5
698.577	29073.68
698.923	29128.82
699.269	28705.78
699.614	28694.26
699.96	28467.6
700.306	28445.9
700.651	28393.93
700.997	28332.69
701.342	28181.5
701.688	28041.4
702.033	27909.65
702.379	28021.51
702.724	27794.4
703.069	27913.04
703.415	27503.1
703.76	27527.51
704.105	27363.22
704.45	27354.41
704.795	27228.99
705.14	27132.27
705.485	27006.39
705.83	26840.07
706.175	26953.29
706.52	26860.41
706.865	26589.91
707.209	26557.37
707.554	26538.16
707.899	26611.83
708.243	26423.13
708.588	26322.8
708.932	26210.94
709.277	26204.61
709.621	26027.44
709.966	25953.77
710.31	26011.39
710.654	25815.24
710.998	25855.69
711.342	25774.56
711.687	25707.67
712.031	25654.57
712.375	25463.61
712.719	25442.14
713.063	25439.88
713.407	25648.01
713.75	25323.27
714.094	25338.64
714.438	25237.18
714.782	25131.64
715.125	25182.26
715.469	25329.38
715.812	25024.98
716.156	25007.58
716.499	25054.81
716.843	25068.14
717.186	24989.95
717.53	25042.6
717.873	25013.45
718.216	25033.34
718.559	24907.47
718.902	24700.92
719.246	24790.41
719.589	24730.75
719.932	24681.48
720.275	24776.62
720.617	24717.64
720.96	24620.02
721.303	24657.98
721.646	24764.65
721.989	24543.63
722.331	24681.48
722.674	24633.58
723.016	24688.72
723.359	24511.54
723.701	24735.04
724.044	24533.01
724.386	24487.82
724.729	24660.24
725.071	24540.47
725.413	24541.83
725.755	24576.18
726.097	24635.84
726.439	24512.22
726.782	24551.09
727.124	24679.22
727.465	24634.03
727.807	24547.93
728.149	24625.44
728.491	24605.55
728.833	24723.29
729.175	24725.32
729.516	24637.19
729.858	24623.18
730.199	24786.79
730.541	24500.25
730.882	24599.68
731.224	24749.96
731.565	24650.52
731.906	24738.21
732.248	24890.97
732.589	24783.4
732.93	24803.29
733.271	24802.16
733.612	24858.2
733.953	24985.88
734.294	24988.14
734.635	24882.61
734.976	25003.06
735.317	25044.41
735.658	25064.3
735.999	24953.57
736.339	25053
736.68	25244.18
737.021	25250.96
737.361	25226.33
737.702	25414.12
738.042	25333.67
738.383	25465.19
738.723	25581.57
739.063	25375.93
739.404	25623.15
739.744	25586.77
740.084	25605.3
740.424	25847.55
740.764	25843.71
741.104	25916.48
741.444	25911.73
741.784	25902.92
742.124	26084.84
742.464	26134.55
742.804	26325.96
743.143	26236.7
743.483	26425.84
743.823	26507.42
744.162	26455.9
744.502	26739.73
744.841	26714.2
745.181	27065.6
745.52	27110.8
745.86	27206.39
746.199	27371.81
746.538	27382.66
746.877	27754.62
747.216	27753.72
747.556	27910.55
747.895	27974.73
748.234	28081.39
748.573	28349.86
748.911	28404.78
749.25	28575.62
749.589	28614.71
749.928	28843.18
750.267	29000.92
750.605	29187.13
750.944	29318.88
751.283	29384.86
751.621	29831.63
751.96	29819.65
752.298	29909.59
752.636	30176.48
752.975	30327.89
753.313	30433.2
753.651	30778.27
753.989	30784.15
