Data from 142_FLMS001491_004.txt Node
Date: Thu Apr 19 16:09:04 BST 2018
User: hsy
Spectrometer: FLMS00149
Trigger mode: 0
Integration Time (sec): 1.000000E-2
Scans to average: 10
Electric dark correction enabled: true
Nonlinearity correction enabled: false
Boxcar width: 0
XAxis mode: Wavelengths
Number of Pixels in Spectrum: 2048
>>>>>Begin Spectral Data<<<<<
341.393	-4.58
341.776	-4.58
342.16	-4.58
342.543	-61.52
342.927	-68.3
343.31	-63.56
343.693	-79.15
344.077	-82.99
344.46	-64.91
344.843	-51.13
345.226	-37.8
345.61	-34.63
345.993	-9.32
346.376	-14.75
346.759	26.16
347.142	28.42
347.525	44.46
347.908	55.99
348.291	79.04
348.674	96.44
349.057	107.74
349.44	124.91
349.823	147.96
350.206	187.51
350.588	235.87
350.971	232.93
351.354	269.09
351.737	285.13
352.119	292.14
352.502	306.83
352.884	325.58
353.267	340.5
353.65	319.26
354.032	356.32
354.414	348.41
354.797	323.32
355.179	350.67
355.562	361.06
355.944	359.48
356.326	372.14
356.709	386.6
357.091	385.7
357.473	375.53
357.855	383.21
358.238	364
358.62	383.21
359.002	395.41
359.384	398.8
359.766	387.28
360.148	384.34
360.53	399.26
360.912	385.47
361.294	382.76
361.676	372.59
362.057	392.25
362.439	380.72
362.821	391.35
363.203	372.59
363.584	377.79
363.966	380.72
364.348	377.56
364.729	383.21
365.111	385.47
365.493	364.91
365.874	384.11
366.256	394.96
366.637	354.96
367.019	372.59
367.4	367.17
367.781	354.96
368.163	375.3
368.544	366.49
368.925	371.23
369.306	359.48
369.688	363.32
370.069	364
370.45	385.7
370.831	380.5
371.212	372.36
371.593	383.21
371.974	387.28
372.355	375.07
372.736	389.76
373.117	394.28
373.498	381.85
373.879	377.11
374.26	376.2
374.641	393.38
375.021	349.09
375.402	399.48
375.783	378.24
376.163	429.08
376.544	392.93
376.925	396.77
377.305	393.38
377.686	400.61
378.066	396.09
378.447	401.06
378.827	396.09
379.208	418.24
379.588	418.92
379.968	414.4
380.349	397
380.729	411.91
381.109	413.94
381.489	417.11
381.87	436.77
382.25	439.48
382.63	424.11
383.01	418.46
383.39	430.89
383.77	430.21
384.15	439.71
384.53	429.99
384.91	427.95
385.29	429.99
385.67	428.63
386.049	445.36
386.429	448.75
386.809	458.46
387.189	452.59
387.568	471.12
387.948	474.51
388.328	459.59
388.707	481.06
389.087	459.14
389.466	459.82
389.846	466.37
390.225	484.22
390.605	480.38
390.984	474.06
391.363	502.98
391.743	492.81
392.122	493.49
392.501	498.24
392.881	519.48
393.26	519.48
393.639	503.89
394.018	511.79
394.397	517.9
394.776	515.64
395.155	529.42
395.534	533.94
395.913	520.16
396.292	551.79
396.671	522.87
397.05	536.2
397.429	524.45
397.808	543.21
398.186	537.78
398.565	539.59
398.944	554.05
399.323	549.76
399.701	532.81
400.08	549.99
400.458	571
400.837	572.58
401.215	551.57
401.594	543.21
401.972	559.93
402.351	580.04
402.729	585.24
403.107	584.56
403.486	607.61
403.864	594.28
404.242	576.88
404.62	617.33
404.999	613.26
405.377	637.21
405.755	616.88
406.133	645.12
406.511	625.92
406.889	620.49
407.267	628.4
407.645	618.68
408.023	633.37
408.401	633.37
408.779	645.12
409.156	674.95
409.534	705.46
409.912	676.54
410.29	712.47
410.667	714.73
411.045	692.58
411.422	726.25
411.8	735.97
412.178	741.84
412.555	750.88
412.933	731.68
413.31	762.18
413.687	750.66
414.065	769.41
414.442	801.28
414.819	783.43
415.197	805.12
415.574	784.78
415.951	826.36
416.328	800.83
416.705	835.85
417.082	821.62
417.46	828.62
417.837	840.15
418.214	823.88
418.591	874.27
418.967	833.37
419.344	850.99
419.721	863.2
420.098	872.91
420.475	900.03
420.852	898.45
421.228	890.32
421.605	891.9
421.982	916.53
422.358	898
422.735	921.95
423.111	927.83
423.488	925.34
423.864	923.76
424.241	967.38
424.617	981.61
424.994	974.16
425.37	960.37
425.746	968.51
426.123	975.29
426.499	996.75
426.875	993.14
427.251	1016.19
427.627	1027.04
428.003	1028.62
428.379	1055.73
428.756	1042.18
429.132	1054.61
429.507	1084.66
429.883	1093.93
430.259	1093.47
430.635	1125.11
431.011	1143.87
431.387	1160.82
431.763	1113.59
432.138	1134.6
432.514	1152
432.89	1175.51
433.265	1210.76
433.641	1228.84
434.016	1230.42
434.392	1242.85
434.767	1269.51
435.143	1236.97
435.518	1241.49
435.894	1295.05
436.269	1302.06
436.644	1288.95
437.02	1293.92
437.395	1332.79
437.77	1342.06
438.145	1349.06
438.52	1351.09
438.895	1360.81
439.271	1331.43
439.646	1396.29
440.021	1428.15
440.395	1406.91
440.77	1418.21
441.145	1431.09
441.52	1443.07
441.895	1441.04
442.27	1454.82
442.645	1461.83
443.019	1466.8
443.394	1461.6
443.769	1481.71
444.143	1473.35
444.518	1525.1
444.892	1518.32
445.267	1507.25
445.641	1511.99
446.016	1536.17
446.39	1545.89
446.764	1561.48
447.139	1561.03
447.513	1548.15
447.887	1587.02
448.262	1577.53
448.636	1587.47
449.01	1592.67
449.384	1622.95
449.758	1617.3
450.132	1650.52
450.506	1642.84
450.88	1672.67
451.254	1683.29
451.628	1705.89
452.002	1717.19
452.376	1717.41
452.75	1732.33
453.123	1763.29
453.497	1771.87
453.871	1769.61
454.244	1811.87
454.618	1855.71
454.992	1846.67
455.365	1875.37
455.739	1901.14
456.112	1951.08
456.486	1945.2
456.859	1982.04
457.232	2009.38
457.606	2031.08
457.979	2040.34
458.352	2051.19
458.725	2087.8
459.099	2118.76
459.472	2130.06
459.845	2126.44
460.218	2195.14
460.591	2226.78
460.964	2196.04
461.337	2235.14
461.71	2268.81
462.083	2307.23
462.456	2323.95
462.829	2312.65
463.201	2381.8
463.574	2361.92
463.947	2391.29
464.32	2423.16
464.692	2445.53
465.065	2516.71
465.438	2531.63
465.81	2557.39
466.183	2515.81
466.555	2603.26
466.928	2646.2
467.3	2618.63
467.672	2658.86
468.045	2762.36
468.417	2695.69
468.789	2726.88
469.161	2759.42
469.534	2824.28
469.906	2875.57
470.278	2892.3
470.65	2900.66
471.022	2964.16
471.394	2986.31
471.766	3020.66
472.138	3091.61
472.51	3132.97
472.882	3154.89
473.253	3176.36
473.625	3273.76
473.997	3327.31
474.369	3337.48
474.74	3385.17
475.112	3456.12
475.484	3477.37
475.855	3576.57
476.227	3622.22
476.598	3678.04
476.97	3663.58
477.341	3810.01
477.713	3844.36
478.084	3869.9
478.455	3986.51
478.827	3996
479.198	4169.55
479.569	4205.26
479.94	4269.66
480.311	4353.05
480.682	4425.14
481.053	4527.06
481.424	4625.81
481.795	4677.79
482.166	4750.1
482.537	4817.9
482.908	4909.19
483.279	4979.93
483.65	5138.79
484.021	5235.51
484.391	5325.45
484.762	5372.23
485.133	5426.24
485.503	5555.96
485.874	5674.6
486.244	5729.51
486.615	5891.31
486.985	5972.67
487.356	6130.18
487.726	6221.02
488.097	6398.87
488.467	6464.18
488.837	6614.46
489.207	6722.48
489.578	6864.4
489.948	6925.64
490.318	7138.29
490.688	7218.06
491.058	7392.52
491.428	7504.83
491.798	7624.83
492.168	7838.16
492.538	7935.55
492.908	8171.48
493.278	8271.59
493.648	8399.95
494.017	8568.08
494.387	8716.32
494.757	8865.47
495.126	9048.75
495.496	9158.12
495.866	9359.25
496.235	9461.16
496.605	9586.36
496.974	9799.91
497.344	9945.67
497.713	10066.12
498.082	10145.67
498.452	10402.61
498.821	10557.41
499.19	10657.52
499.559	10916.04
499.928	11062.93
500.298	11178.18
500.667	11419.98
501.036	11533.65
501.405	11695.23
501.774	11856.81
502.143	12049.34
502.512	12233.52
502.88	12487.52
503.249	12578.6
503.618	12697.91
503.987	12959.6
504.356	13088.86
504.724	13238.47
505.093	13430.32
505.462	13620.6
505.83	13760.49
506.199	13922.97
506.567	14215.84
506.936	14305.78
507.304	14584.87
507.672	14615.38
508.041	14835.71
508.409	14985.99
508.777	15292.42
509.145	15432.76
509.514	15496.26
509.882	15778.96
510.25	15863.71
510.618	16122.68
510.986	16213.3
511.354	16313.86
511.722	16659.39
512.09	16841.99
512.458	16816.9
512.826	17027.97
513.193	17182.77
513.561	17382.09
513.929	17489.88
514.297	17740.27
514.664	17909.3
515.032	18073.59
515.4	18316.3
515.767	18365.34
516.135	18478.55
516.502	18574.82
516.869	18960.12
517.237	19108.37
517.604	19101.14
517.972	19464.29
518.339	19471.52
518.706	19611.41
519.073	19872.19
519.44	19888.01
519.808	20142.24
520.175	20244.16
520.542	20523.02
520.909	20729.79
521.276	20729.12
521.643	21103.57
522.009	21169.33
522.376	21361.64
522.743	21522.99
523.11	21862.87
523.477	22023.32
523.843	22191.68
524.21	22489.07
524.577	22560.48
524.943	22801.83
525.31	22943.97
525.676	23179.9
526.043	23379.22
526.409	23649.49
526.776	23812.88
527.142	23990.27
527.508	24066.2
527.874	24289.93
528.241	24507.55
528.607	24693.31
528.973	24920.19
529.339	24996.57
529.705	25207.42
530.071	25406.73
530.437	25682.43
530.803	25759.04
531.169	25899.83
531.535	25985.02
531.901	26206.71
532.267	26274.96
532.632	26387.05
532.998	26614.61
533.364	26868.39
533.73	26888.73
534.095	27283.75
534.461	27199
534.826	27405.78
535.192	27484.64
535.557	27737.75
535.923	27694.58
536.288	27819.78
536.653	28006.89
537.019	28088.24
537.384	28211.86
537.749	28363.94
538.114	28416.37
538.479	28428.12
538.845	28561.45
539.21	28506.09
539.575	28697.95
539.94	28935.68
540.305	29125.28
540.67	29096.58
541.034	29270.13
541.399	29334.09
541.764	29414.54
542.129	29582.89
542.494	29596.45
542.858	29729.11
543.223	29756.9
543.587	30000.74
543.952	29944.24
544.316	30065.14
544.681	30177.68
545.045	30126.38
545.41	30367.05
545.774	30343.78
546.138	30375.87
546.503	30623.32
546.867	30593.72
547.231	30761.17
547.595	30933.14
547.959	31040.71
548.324	30987.83
548.688	31136.07
549.052	31320.02
549.416	31231.44
549.779	31315.28
550.143	31428.5
550.507	31571.54
550.871	31696.96
551.235	31649.05
551.599	31949.39
551.962	31990.74
552.326	32079.78
552.689	32280.68
553.053	32105.54
553.417	32280.9
553.78	32549.14
554.143	32571.97
554.507	32719.76
554.87	32842.24
555.234	33125.4
555.597	32994.33
555.96	33134.67
556.323	33240.65
556.686	33297.37
557.05	33596.12
557.413	33570.36
557.776	33767.64
558.139	34020.52
558.502	33993.17
558.865	34034.3
559.228	34425.03
559.59	34354.97
559.953	34506.83
560.316	34754.06
560.679	34808.75
561.041	35030.21
561.404	35160.83
561.767	35498.9
562.129	35393.59
562.492	35690.08
562.854	35756.74
563.217	35876.97
563.579	35861.6
563.941	36198.09
564.304	36322.83
564.666	36661.13
565.028	36655.93
565.39	36913.78
565.753	36953.55
566.115	37108.8
566.477	37179.08
566.839	37502.01
567.201	37853.64
567.563	37802.34
567.925	38060.86
568.287	38072.84
568.648	38329.11
569.01	38530.68
569.372	38803.67
569.734	38716.44
570.095	39064.91
570.457	39212.7
570.819	39248.63
571.18	39350.32
571.542	39726.81
571.903	39719.13
572.265	39950.98
572.626	40210.19
572.987	40254.48
573.349	40458.99
573.71	40705.99
574.071	40903.5
574.432	41061.69
574.794	41306.43
575.155	41457.16
575.516	41382.58
575.877	41724.5
576.238	41622.58
576.599	42029.12
576.96	42051.72
577.32	42277.93
577.681	42385.95
578.042	42781.87
578.403	42766.95
578.763	42827.29
579.124	42994.52
579.485	43459.14
579.845	43590.44
580.206	43589.08
580.566	43691
580.927	43830.2
581.287	44251.66
581.648	44076.3
582.008	44595.16
582.368	44627.47
582.728	44838.99
583.089	45043.96
583.449	45230.62
583.809	45459.31
584.169	45681.23
584.529	45756.48
584.889	46247.99
585.249	46206.86
585.609	46105.85
585.969	46557.82
586.329	46655.21
586.688	47050.46
587.048	47169.32
587.408	47307.63
587.768	47569.31
588.127	47813.83
588.487	47969.53
588.846	48415.39
589.206	48162.97
589.565	48512.57
589.925	48910.3
590.284	48945.1
590.643	49129.95
591.003	49356.16
591.362	49820.55
591.721	49826.88
592.08	50021.91
592.44	50390.03
592.799	50423.7
593.158	50665.5
593.517	50585.96
593.876	51037.7
594.235	51146.85
594.593	51365.6
594.952	51605.59
595.311	51666.38
595.67	51849.65
596.029	52264.11
596.387	52327.16
596.746	52602.18
597.104	52533.7
597.463	52698.67
597.822	52997.65
598.18	52964.43
598.538	53195.15
598.897	53532.55
599.255	53466.33
599.613	53943.16
599.972	53804.86
600.33	54056.15
600.688	54111.97
601.046	54303.37
601.404	54597.38
601.762	54577.04
602.12	54797.82
602.478	54957.82
602.836	55113.52
603.194	55040.76
603.552	55151.71
603.91	55280.98
604.268	55468.09
604.625	55641.19
604.983	55780.62
605.341	55746.95
605.698	56023.1
606.056	56198.92
606.413	56135.42
606.771	56482.53
607.128	56476.65
607.485	56546.48
607.843	56584.22
608.2	56762.97
608.557	56947.6
608.914	56946.47
609.272	57114.83
609.629	57317.08
609.986	57399.79
610.343	57420.81
610.7	57649.28
611.057	57721.82
611.414	57683.17
611.771	57835.71
612.127	58012.88
612.484	58021.24
612.841	58157.51
613.198	58130.62
613.554	58172.65
613.911	58387.11
614.267	58455.36
614.624	58512.3
614.98	58640.66
615.337	58873.88
615.693	58823.03
616.05	58884.72
616.406	58962.46
616.762	58977.83
617.118	59018.96
617.475	59107.54
617.831	59262.79
618.187	59292.62
618.543	59332.85
618.899	59465.05
619.255	59526.06
619.611	59480.87
619.967	59656.91
620.323	59750.01
620.678	59626.17
621.034	59677.47
621.39	59702.55
621.746	59765.83
622.101	60007.86
622.457	59857.8
622.812	59941.64
623.168	59962.89
623.523	60008.31
623.879	60183.9
624.234	60042.88
624.589	60105.48
624.945	60122.88
625.3	60224.57
625.655	60210.34
626.01	60256.89
626.365	60270
626.72	60208.53
627.075	60256.44
627.43	60227.51
627.785	60291.69
628.14	60322.88
628.495	60306.61
628.85	60376.66
629.205	60280.17
629.559	60389.54
629.914	60293.27
630.269	60329.2
630.623	60269.77
630.978	60222.99
631.332	60391.8
631.687	60348.41
632.041	60267.06
632.396	60334.85
632.75	60303.22
633.104	60357
633.459	60205.14
633.813	60239.26
634.167	60193.62
634.521	60212.37
634.875	60237.68
635.229	60211.47
635.583	60108.42
635.937	60108.42
636.291	60124.69
636.645	60093.96
636.999	60024.13
637.352	60088.31
637.706	59930.12
638.06	60109.1
638.413	59940.29
638.767	59936.45
639.121	59923.79
639.474	59816.9
639.828	59865.94
640.181	59883.34
640.534	59919.05
640.888	59747.3
641.241	59663.69
641.594	59703.68
641.947	59807.18
642.301	59652.84
642.654	59714.53
643.007	59661.65
643.36	59695.78
643.713	59639.73
644.066	59744.14
644.419	59519.96
644.771	59313.19
645.124	59098.95
645.477	59035.68
645.83	58928.34
646.182	58956.13
646.535	58914.33
646.888	58934.67
647.24	58841.11
647.593	59064.38
647.945	58857.15
648.298	58784.16
648.65	58703.48
649.002	58645.41
649.355	58598.63
649.707	58505.52
650.059	58533.32
650.411	58856.93
650.763	58951.39
651.115	59335.11
651.467	59186.18
651.819	59170.37
652.171	59118.62
652.523	59024.38
652.875	59082.68
653.227	58907.77
653.578	59131.5
653.93	59053.08
654.282	58873.88
654.633	58923.82
654.985	58945.29
655.337	58938.28
655.688	58900.99
656.039	58940.99
656.391	58754.1
656.742	58746.42
657.094	58739.64
657.445	58803.14
657.796	58763.82
658.147	58733.77
658.498	58698.97
658.849	58696.48
659.2	58632.53
659.551	58607.22
659.902	58719.53
660.253	58557.73
660.604	58637.27
660.955	58570.15
661.306	58663.49
661.656	58598.18
662.007	58574.9
662.358	58566.54
662.708	58571.51
663.059	58531.29
663.409	58377.17
663.76	58567.44
664.11	58537.61
664.461	58555.01
664.811	58524.05
665.161	58531.29
665.511	58464.85
665.862	58481.34
666.212	58470.27
666.562	58548.69
666.912	58475.02
667.262	58417.16
667.612	58474.11
667.962	58412.42
668.312	58348.24
668.662	58523.15
669.011	58443.38
669.361	58373.1
669.711	58382.14
670.06	58292.65
670.41	58296.04
670.76	58294
671.109	58396.83
671.459	58296.49
671.808	58308.69
672.157	58384.85
672.507	58138.75
672.856	58192.54
673.205	58261.46
673.554	58214.46
673.904	58200.22
674.253	58364.06
674.602	58214.23
674.951	57951.87
675.3	57807.01
675.649	58204.51
675.998	58247.45
676.346	58113.22
676.695	58249.26
677.044	58063.73
677.393	58130.62
677.741	58225.76
678.09	58052.2
678.438	58047.46
678.787	58119.09
679.135	58048.81
679.484	57991.19
679.832	58062.6
680.181	58003.62
680.529	58029.38
680.877	57874.35
681.225	57939.66
681.573	58143.27
681.922	57873.45
682.27	57871.42
682.618	57842.04
682.966	57777.86
683.314	57821.25
683.661	57837.29
684.009	57707.8
684.357	57625.32
684.705	57546
685.053	57644.98
685.4	57567.02
685.748	57577.19
686.095	57537.64
686.443	57391.65
686.79	57467.81
687.138	57541.93
687.485	57476.17
687.832	57319.34
688.18	57428.94
688.527	57326.8
688.874	57338.55
689.221	57281.83
689.568	57191.43
689.915	57111.44
690.262	57203.41
690.609	57151.44
690.956	56993.93
691.303	57001.38
691.65	56960.93
691.997	56844.55
692.344	56687.72
692.69	56756.19
693.037	56765.68
693.383	56513.94
693.73	56618.12
694.077	56485.92
694.423	56534.28
694.769	56452.24
695.116	56408.63
695.462	56238.92
695.808	56223.78
696.155	56239.82
696.501	56105.59
696.847	56020.17
697.193	55885.48
697.539	55992.6
697.885	55747.63
698.231	55736.78
698.577	55755.09
698.923	55702.21
699.269	55506.28
699.614	55508.99
699.96	55384.02
700.306	55425.15
700.651	55344.03
700.997	55277.59
701.342	55044.82
701.688	55058.61
702.033	55062.68
702.379	55013.86
702.724	54925.28
703.069	54936.35
703.415	54633.99
703.76	54657.04
704.105	54656.36
704.45	54564.84
704.795	54484.16
705.14	54389.7
705.485	54426.76
705.83	54151.97
706.175	54336.59
706.52	54122.36
706.865	54103.15
707.209	53958.75
707.554	53989.71
707.899	53990.39
708.243	53744.29
708.588	53705.65
708.932	53604.41
709.277	53682.15
709.621	53517.18
709.966	53367.58
710.31	53392.21
710.654	53162.39
710.998	53278.54
711.342	53370.74
711.687	53179.56
712.031	53024.76
712.375	53013.69
712.719	52917.65
713.063	52845.11
713.407	53056.85
713.75	52786.8
714.094	52708.16
714.438	52590.43
714.782	52585.45
715.125	52325.35
715.469	52515.17
715.812	52374.61
716.156	52217.33
716.499	52336.42
716.843	52314.05
717.186	52062.08
717.53	52289.87
717.873	52165.35
718.216	52128.97
718.559	52058.46
718.902	51717.45
719.246	51903.89
719.589	51707.51
719.932	51702.31
720.275	51641.52
720.617	51636.55
720.96	51566.05
721.303	51579.6
721.646	51488.53
721.989	51372.38
722.331	51392.04
722.674	51327.18
723.016	51374.41
723.359	51183.68
723.701	51225.04
724.044	51098.71
724.386	50888.32
724.729	51007.87
725.071	51042.9
725.413	50992.28
725.755	50877.02
726.097	50683.13
726.439	50529.01
726.782	50597.71
727.124	50762.9
727.465	50642.68
727.807	50432.52
728.149	50533.98
728.491	50420.76
728.833	50472.06
729.175	50400.43
729.516	50276.59
729.858	50303.03
730.199	50291.28
730.541	50200.66
730.882	50112.75
731.224	50268.23
731.565	49993.43
731.906	50034.79
732.248	50018.97
732.589	49747.34
732.93	49714.57
733.271	49858.07
733.612	49829.82
733.953	49714.12
734.294	49649.03
734.635	49496.5
734.976	49695.81
735.317	49509.15
735.658	49396.16
735.999	49344.86
736.339	49403.84
736.68	49391.19
737.021	49363.84
737.361	49254.47
737.702	49496.04
738.042	49216.5
738.383	49224.19
738.723	49185.32
739.063	48985.32
739.404	49086.11
739.744	49144.87
740.084	48965.44
740.424	49008.37
740.764	48920.01
741.104	49020.58
741.444	48699.45
741.784	48568.61
742.124	48828.04
742.464	48690.64
742.804	48647.7
743.143	48541.27
743.483	48612.45
743.823	48304.44
744.162	48398.44
744.502	48404.77
744.841	48271.67
745.181	48359.12
745.52	48214.95
745.86	48253.82
746.199	48172.24
746.538	47953.03
746.877	48134.72
747.216	48010.43
747.556	48039.13
747.895	48039.13
748.234	47889.76
748.573	47783.32
748.911	47714.85
749.25	47704
749.589	47434.85
749.928	47638.01
750.267	47581.74
750.605	47563.44
750.944	47451.58
751.283	47332.48
751.621	47463.78
751.96	47175.65
752.298	47163
752.636	47141.08
752.975	46972.04
753.313	46885.04
753.651	47013.4
753.989	46893.17
754.327	46876
754.666	46483.92
755.004	46693.41
