Data from 142_FLMS001491_009.txt Node
Date: Thu Apr 19 16:09:17 BST 2018
User: hsy
Spectrometer: FLMS00149
Trigger mode: 0
Integration Time (sec): 1.000000E-2
Scans to average: 10
Electric dark correction enabled: true
Nonlinearity correction enabled: false
Boxcar width: 0
XAxis mode: Wavelengths
Number of Pixels in Spectrum: 2048
>>>>>Begin Spectral Data<<<<<
341.393	-21.79
341.776	-21.79
342.16	-21.79
342.543	-65.86
342.927	-75.13
343.31	-78.29
343.693	-66.99
344.077	-66.09
344.46	-84.84
344.843	-57.05
345.226	-37.61
345.61	-19.08
345.993	-12.98
346.376	10.07
346.759	12.1
347.142	31.31
347.525	46.23
347.908	48.49
348.291	71.31
348.674	76.96
349.057	126.45
349.44	132.1
349.823	129.62
350.206	159.9
350.588	245.54
350.971	256.62
351.354	279.89
351.737	260.46
352.119	293.23
352.502	315.6
352.884	306.79
353.267	337.29
353.65	345.43
354.032	347.91
354.414	358.76
354.797	360.12
355.179	377.97
355.562	361.25
355.944	378.42
356.326	387.24
356.709	390.4
357.091	362.6
357.473	385.88
357.855	391.3
358.238	382.72
358.62	387.46
359.002	397.4
359.384	384.75
359.766	380.46
360.148	375.26
360.53	411.87
360.912	385.65
361.294	388.59
361.676	385.88
362.057	396.95
362.439	395.14
362.821	392.21
363.203	383.62
363.584	396.27
363.966	384.07
364.348	395.37
364.729	379.55
365.111	379.55
365.493	381.59
365.874	373.9
366.256	382.94
366.637	390.4
367.019	345.65
367.4	354.69
367.781	372.32
368.163	386.78
368.544	376.61
368.925	367.58
369.306	382.26
369.688	375.48
370.069	362.38
370.45	374.35
370.831	392.66
371.212	369.83
371.593	378.65
371.974	380.46
372.355	377.97
372.736	397.4
373.117	378.42
373.498	392.43
373.879	400.79
374.26	387.69
374.641	405.31
375.021	392.21
375.402	411.64
375.783	412.09
376.163	409.16
376.544	379.33
376.925	391.3
377.305	405.31
377.686	400.57
378.066	389.5
378.447	408.48
378.827	423.39
379.208	402.83
379.588	406.67
379.968	411.64
380.349	411.42
380.729	415.48
381.109	413.45
381.489	422.04
381.87	414.13
382.25	446.44
382.63	440.12
383.01	435.14
383.39	420.91
383.77	462.04
384.15	436.73
384.53	433.79
384.91	467.23
385.29	462.04
385.67	438.31
386.049	474.69
386.429	459.32
386.809	455.26
387.189	453.22
387.568	465.88
387.948	457.52
388.328	455.71
388.707	446.22
389.087	480.34
389.466	475.59
389.846	466.33
390.225	488.25
390.605	480.11
390.984	495.03
391.363	487.12
391.743	510.17
392.122	535.48
392.501	508.81
392.881	499.32
393.26	519.66
393.639	496.39
394.018	507.23
394.397	517.4
394.776	538.42
395.155	530.96
395.534	527.34
395.913	548.59
396.292	540.23
396.671	526.89
397.05	528.25
397.429	549.49
397.808	565.08
398.186	572.09
398.565	555.37
398.944	581.81
399.323	555.82
399.701	564.86
400.08	554.46
400.458	575.71
400.837	560.11
401.215	585.87
401.594	550.62
401.972	570.28
402.351	576.16
402.729	598.53
403.107	597.63
403.486	604.63
403.864	601.24
404.242	593.33
404.62	607.79
404.999	619.77
405.377	617.51
405.755	636.27
406.133	664.29
406.511	627.91
406.889	664.97
407.267	645.08
407.645	635.59
408.023	683.05
408.401	680.11
408.779	696.61
409.156	693.22
409.534	699.09
409.912	712.65
410.29	681.01
410.667	711.29
411.045	699.32
411.422	714.91
411.8	751.29
412.178	738.64
412.555	753.33
412.933	768.02
413.31	769.37
413.687	780.45
414.065	787
414.442	784.51
414.819	820.44
415.197	822.48
415.574	811.18
415.951	850.27
416.328	826.77
416.705	824.29
417.082	818.64
417.46	835.59
417.837	847.56
418.214	874.91
418.591	894.11
418.967	894.57
419.344	890.73
419.721	899.09
420.098	873.55
420.475	914.45
420.852	911.29
421.228	912.65
421.605	904.51
421.982	934.34
422.358	937.05
422.735	937.73
423.111	958.07
423.488	971.18
423.864	956.03
424.241	993.1
424.617	987.45
424.994	975.92
425.37	1005.3
425.746	1002.36
426.123	1035.35
426.499	1000.1
426.875	1031.29
427.251	1031.51
427.627	1094.34
428.003	1067.22
428.379	1065.64
428.756	1115.8
429.132	1087.56
429.507	1120.78
429.883	1133.2
430.259	1120.55
430.635	1144.05
431.011	1148.35
431.387	1164.16
431.763	1175.46
432.138	1204.39
432.514	1204.39
432.89	1213.65
433.265	1224.95
433.641	1267.44
434.016	1244.84
434.392	1259.98
434.767	1269.02
435.143	1287.78
435.518	1310.6
435.894	1295.23
436.269	1332.75
436.644	1336.36
437.02	1348.11
437.395	1358.74
437.77	1384.5
438.145	1392.86
438.52	1431.05
438.895	1406.87
439.271	1431.28
439.646	1457.49
440.021	1485.96
440.395	1445.51
440.77	1463.14
441.145	1443.93
441.52	1499.07
441.895	1478.28
442.27	1491.16
442.645	1490.48
443.019	1518.51
443.394	1538.17
443.769	1522.8
444.143	1546.3
444.518	1558.28
444.892	1562.12
445.267	1533.19
445.641	1570.93
446.016	1584.94
446.39	1589.69
446.764	1627.2
447.139	1596.24
447.513	1625.4
447.887	1649.12
448.262	1630.37
448.636	1645.06
449.01	1668.11
449.384	1665.62
449.758	1669.91
450.132	1676.24
450.506	1731.38
450.88	1737.03
451.254	1720.76
451.628	1756.47
452.002	1778.84
452.376	1783.81
452.75	1831.27
453.123	1838.72
453.497	1836.91
453.871	1847.31
454.244	1874.2
454.618	1915.11
454.992	1924.37
455.365	1907.87
455.739	1986.97
456.112	2022.9
456.486	2020.19
456.859	2045.95
457.232	2079.17
457.606	2091.82
457.979	2077.36
458.352	2138.83
458.725	2154.87
459.099	2169.34
459.472	2217.7
459.845	2216.79
460.218	2256.56
460.591	2296.79
460.964	2287.3
461.337	2328.43
461.71	2387.18
462.083	2423.34
462.456	2434.19
462.829	2436.67
463.201	2458.14
463.574	2496.11
463.947	2494.07
464.32	2537.01
464.692	2554.41
465.065	2604.58
465.438	2616.78
465.81	2675.09
466.183	2633.05
466.555	2692.94
466.928	2729.77
467.3	2742.88
467.672	2805.25
468.045	2824.01
468.417	2840.73
468.789	2879.15
469.161	2876.44
469.534	2930.22
469.906	2959.6
470.278	3007.05
470.65	3042.31
471.022	3091.35
471.394	3155.3
471.766	3188.29
472.138	3233.94
472.51	3273.94
472.882	3339.7
473.253	3349.42
473.625	3431.68
473.997	3482.52
474.369	3463.99
474.74	3531.56
475.112	3593.25
475.484	3643.42
475.855	3707.37
476.227	3772.91
476.598	3850.2
476.97	3837.99
477.341	3951.66
477.713	4012.68
478.084	4028.04
478.455	4166.35
478.827	4224.65
479.198	4344.65
479.569	4348.04
479.94	4462.83
480.311	4566.11
480.682	4623.96
481.053	4709.16
481.424	4784.86
481.795	4807.23
482.166	4995.25
482.537	4995.93
482.908	5161.12
483.279	5233.44
483.65	5278.18
484.021	5482.47
484.391	5515.24
484.762	5602.01
485.133	5629.36
485.503	5762.01
485.874	5923.81
486.244	5987.99
486.615	6157.71
486.985	6245.39
487.356	6363.12
487.726	6435.21
488.097	6618.71
488.467	6752.94
488.837	6790.23
489.207	6943.67
489.578	7140.73
489.948	7244.46
490.318	7359.93
490.688	7448.97
491.058	7677.21
491.428	7780.71
491.798	7890.32
492.168	8156.3
492.538	8163.3
492.908	8366.23
493.278	8577.53
493.648	8702.72
494.017	8870.85
494.387	8912.21
494.757	9168.02
495.126	9238.53
495.496	9411.86
495.866	9589.48
496.235	9669.93
496.605	9920.54
496.974	10078.73
497.344	10193.76
497.713	10379.52
498.082	10531.83
498.452	10629
498.821	10853.18
499.19	10919.39
499.559	11168.65
499.928	11392.6
500.298	11502.65
500.667	11708.07
501.036	11855.63
501.405	12044.1
501.774	12150.09
502.143	12354.83
502.512	12589.4
502.88	12734.48
503.249	12899.45
503.618	13086.11
503.987	13231.64
504.356	13459.43
504.724	13604.52
505.093	13770.84
505.462	13901.23
505.83	14137.83
506.199	14328.11
506.567	14589.57
506.936	14657.37
507.304	14955.89
507.672	15049.22
508.041	15271.82
508.409	15419.16
508.777	15618.02
509.145	15924.91
509.514	15995.64
509.882	16238.34
510.25	16325.35
510.618	16507.04
510.986	16619.35
511.354	16940.7
511.722	17182.95
512.09	17343.4
512.458	17356.51
512.826	17632.66
513.193	17762.82
513.561	17924.85
513.929	18099.09
514.297	18255.92
514.664	18421.34
515.032	18596.47
515.4	18850.25
515.767	18998.95
516.135	19124.82
516.502	19089.34
516.869	19508.54
517.237	19665.15
517.604	19673.51
517.972	19935.2
518.339	20131.58
518.706	20283.21
519.073	20367.95
519.44	20535.86
519.808	20932.23
520.175	20831.67
520.542	21178.33
520.909	21294.48
521.276	21544.42
521.643	21776.5
522.009	21888.37
522.376	22112.99
522.743	22294.91
523.11	22497.84
523.477	22825.74
523.843	22912.52
524.21	23104.15
524.577	23415.1
524.943	23617.81
525.31	23632.73
525.676	23906.17
526.043	24145.93
526.409	24170.79
526.776	24559.48
527.142	24654.17
527.508	24766.26
527.874	25057.55
528.241	25243.31
528.607	25443.3
528.973	25663.41
529.339	25728.72
529.705	26018.2
530.071	26261.58
530.437	26454.12
530.803	26575.7
531.169	26786.54
531.535	26769.59
531.901	27112.86
532.267	27177.94
532.632	27325.96
532.998	27439.18
533.364	27634.88
533.73	27775.44
534.095	27973.4
534.461	28043.91
534.826	28183.11
535.192	28305.15
535.557	28589.43
535.923	28619.04
536.288	28762.53
536.653	28924.11
537.019	28815.87
537.384	29093.6
537.749	29079.14
538.114	29266.48
538.479	29314.16
538.845	29411.56
539.21	29598.22
539.575	29623.3
539.94	29790.3
540.305	30030.98
540.67	29955.95
541.034	30043.63
541.399	30198.2
541.764	30326.34
542.129	30331.98
542.494	30491.53
542.858	30574.24
543.223	30767.23
543.587	30769.94
543.952	30884.06
544.316	31018.97
544.681	30969.48
545.045	31093.77
545.41	31319.76
545.774	31228.68
546.138	31313.65
546.503	31546.87
546.867	31564.27
547.231	31800.87
547.595	31739.86
547.959	31814.43
548.324	31987.31
548.688	32096.01
549.052	32249.9
549.416	32145.72
549.779	32376.45
550.143	32425.94
550.507	32713.39
550.871	32806.27
551.235	32670
551.599	33004.46
551.962	33048.98
552.326	33191.57
552.689	33257.78
553.053	32958.36
553.417	33200.38
553.78	33605.8
554.143	33642.41
554.507	33759.92
554.87	33847.6
555.234	34251.88
555.597	33869.07
555.96	34228.15
556.323	34345.66
556.686	34467.47
557.05	34631.31
557.413	34654.36
557.776	34759.21
558.139	35087.34
558.502	35036.95
558.865	35080.33
559.228	35511.96
559.59	35481.68
559.953	35612.75
560.316	35997.82
560.679	35981.78
561.041	36122.34
561.404	36390.36
561.767	36644.59
562.129	36559.84
562.492	36914.86
562.854	36952.83
563.217	36841.87
563.579	37143.78
563.941	37490.21
564.304	37570.89
564.666	37921.84
565.028	37827.38
565.39	37966.13
565.753	38296.3
566.115	38356.18
566.477	38412.45
566.839	38703.97
567.201	38918.65
567.563	38886.34
567.925	39232.99
568.287	39295.37
568.648	39451.52
569.01	39646.77
569.372	39897.16
569.734	39946.42
570.095	40210.14
570.457	40439.52
570.819	40556.8
571.18	40468.22
571.542	40926.28
571.903	41053.96
572.265	41180.97
572.626	41408.53
572.987	41295.31
573.349	41699.14
573.71	41797.67
574.071	42056.42
574.432	42361.73
574.794	42658.44
575.155	42550.65
575.516	42600.36
575.877	42782.96
576.238	42985.89
576.599	43070.41
576.96	43274.24
577.32	43417.97
577.681	43592.2
578.042	43874.45
578.403	43942.93
578.763	43984.73
579.124	44292.75
579.485	44512.4
579.845	44699.97
580.206	44615.45
580.566	44898.83
580.927	45015.89
581.287	45257.92
581.648	45288.88
582.008	45464.69
582.368	45706.5
582.728	45931.8
583.089	45851.35
583.449	46148.07
583.809	46255.86
584.169	46635.74
584.529	46598.68
584.889	47068.72
585.249	46987.82
585.609	47059.45
585.969	47354.36
586.329	47396.62
586.688	47764.52
587.048	47702.6
587.408	48073.89
587.768	48166.32
588.127	48372.19
588.487	48558.85
588.846	48837.71
589.206	48856.02
589.565	49000.87
589.925	49333.07
590.284	49536.23
590.643	49687.63
591.003	49820.51
591.362	50180.05
591.721	50362.64
592.08	50414.39
592.44	50710.66
592.799	50814.38
593.158	50947.04
593.517	51113.13
593.876	51406.69
594.235	51467.47
594.593	51567.13
594.952	51809.16
595.311	51972.77
595.67	51987.91
596.029	52445.53
596.387	52574.11
596.746	52886.65
597.104	52662.92
597.463	52844.84
597.822	53270.14
598.18	53212.29
598.538	53363.47
598.897	53613.41
599.255	53608.89
599.613	54095.65
599.972	53899.27
600.33	54139.72
600.688	54134.52
601.046	54351.47
601.404	54674.62
601.762	54732.02
602.12	54903.77
602.478	55079.13
602.836	55240.93
603.194	55110.99
603.552	55351.44
603.91	55381.27
604.268	55610.19
604.625	55648.16
604.983	55931.31
605.341	55828.26
605.698	56131.31
606.056	56330.17
606.413	56198.2
606.771	56499.66
607.128	56556.15
607.485	56533.33
607.843	56680.44
608.2	56871.63
608.557	56979.42
608.914	56990.94
609.272	57197.04
609.629	57311.16
609.986	57483.81
610.343	57443.14
610.7	57693.07
611.057	57749.34
611.414	57756.57
611.771	57903.46
612.127	57984.37
612.484	58079.73
612.841	58175.77
613.198	58194.53
613.554	58231.36
613.911	58430.46
614.267	58470.23
614.624	58494.86
614.98	58644.46
615.337	58850.33
615.693	58847.85
616.05	58879.03
616.406	58986.6
616.762	58978.46
617.118	59014.17
617.475	59067.05
617.831	59221.85
618.187	59266.14
618.543	59335.06
618.899	59502.97
619.255	59501.16
619.611	59518.34
619.967	59601.72
620.323	59727.37
620.678	59627.71
621.034	59653.7
621.39	59767.82
621.746	59741.16
622.101	60054.14
622.457	59849.4
622.812	60007.81
623.168	60050.07
623.523	59999.91
623.879	60151.77
624.234	60011.88
624.589	60119.68
624.945	60114.7
625.3	60187.47
625.655	60209.84
626.01	60204.42
626.365	60253.46
626.72	60217.3
627.075	60221.82
627.43	60256.4
627.785	60288.49
628.14	60293.46
628.495	60328.94
628.85	60333
629.205	60293.01
629.559	60372.33
629.914	60331.65
630.269	60352.66
630.623	60282.38
630.978	60252.55
631.332	60390.86
631.687	60361.25
632.041	60290.29
632.396	60377.75
632.75	60319.9
633.104	60369.39
633.459	60208.49
633.813	60182.27
634.167	60230.86
634.521	60183.18
634.875	60241.93
635.229	60131.2
635.583	60099.56
635.937	60136.62
636.291	60116.29
636.645	60119.45
636.999	59980.02
637.352	60152.67
637.706	59969.17
638.06	60110.19
638.413	59948.38
638.767	59939.34
639.121	59910.19
639.474	59836.97
639.828	59780.02
640.181	59810.08
640.534	59904.77
640.888	59726.01
641.241	59646.69
641.594	59662.51
641.947	59720.36
642.301	59679.46
642.654	59720.14
643.007	59623.64
643.36	59670.87
643.713	59628.39
644.066	59748.16
644.419	59559.24
644.771	59333.03
645.124	59038.35
645.477	58987.28
645.83	58959.03
646.182	58862.76
646.535	58894.85
646.888	58899.6
647.24	58749.54
647.593	58888.75
647.945	58764.01
648.298	58714.06
648.65	58653.73
649.002	58572.37
649.355	58543.67
649.707	58500.96
650.059	58531.7
650.411	58732.37
650.763	58905.7
651.115	59257.33
651.467	59081.96
651.819	59077.22
652.171	59020.95
652.523	58937.56
652.875	59010.78
653.227	58864.34
653.578	59039.7
653.93	58983.66
654.282	58886.04
654.633	58793.84
654.985	58934.4
655.337	58838.58
655.688	58832.03
656.039	58939.82
656.391	58636.33
656.742	58691.01
657.094	58658.92
657.445	58702.31
657.796	58783.21
658.147	58567.4
658.498	58751.8
658.849	58690.34
659.2	58603.56
659.551	58592.71
659.902	58782.31
660.253	58523.56
660.604	58630.9
660.955	58507.74
661.306	58616.89
661.656	58440.17
662.007	58522.88
662.358	58564.91
662.708	58511.58
663.059	58522.43
663.409	58392.04
663.76	58541.41
664.11	58471.13
664.461	58507.06
664.811	58512.71
665.161	58503.45
665.511	58395.88
665.862	58468.87
666.212	58477.01
666.562	58510
666.912	58406.73
667.262	58432.94
667.612	58439.95
667.962	58407.63
668.312	58323.79
668.662	58434.52
669.011	58444.01
669.361	58385.48
669.711	58438.59
670.06	58316.33
670.41	58356.56
670.76	58280.18
671.109	58419.16
671.459	58373.73
671.808	58351.36
672.157	58457.12
672.507	58175.09
672.856	58260.06
673.205	58291.48
673.554	58343.45
673.904	58210.8
674.253	58403.34
674.602	58190.46
674.951	58009.68
675.3	57837.7
675.649	58268.88
675.998	58206.28
676.346	58250.8
676.695	58243.79
677.044	58097.36
677.393	58188.88
677.741	58126.73
678.09	58089.45
678.438	58058.94
678.787	58152.04
679.135	58171.7
679.484	57936
679.832	58027.98
680.181	57990.24
680.529	58017.13
680.877	57919.73
681.225	57861.43
681.573	58149.11
681.922	57914.76
682.27	57810.36
682.618	57874.76
682.966	57840.19
683.314	57808.55
683.661	57717.03
684.009	57679.51
684.357	57659.85
684.705	57584.15
685.053	57601.78
685.4	57575.11
685.748	57532.85
686.095	57527.43
686.443	57434.55
686.79	57405.17
687.138	57454.44
687.485	57438.84
687.832	57364.27
688.18	57367.88
688.527	57135.57
688.874	57260.09
689.221	57244.72
689.568	57010.15
689.915	57010.15
690.262	57063.03
690.609	57008.8
690.956	56828.01
691.303	56917.95
691.65	56852.19
691.997	56770.61
692.344	56729.48
692.69	56612.42
693.037	56661.91
693.383	56481.13
693.73	56538.53
694.077	56381.92
694.423	56369.49
694.769	56278.65
695.116	56326.1
695.462	56174.24
695.808	56073
696.155	56113
696.501	55931.09
696.847	56009.73
697.193	55702.84
697.539	55826
697.885	55690.87
698.231	55552.56
698.577	55557.54
698.923	55528.16
699.269	55436.64
699.614	55290.88
699.96	55203.65
700.306	55241.84
700.651	55119.81
700.997	55121.62
701.342	55061.5
701.688	55023.54
702.033	54966.82
702.379	54873.26
702.724	54752.36
703.069	54819.48
703.415	54503.55
703.76	54509.65
704.105	54443.44
704.45	54364.35
704.795	54342.88
705.14	54158.03
705.485	54149.89
705.83	53970.01
706.175	54078.71
706.52	53972.04
706.865	53899.5
707.209	53847.75
707.554	53666.96
707.899	53714.42
708.243	53646.85
708.588	53552.84
708.932	53460.87
709.277	53514.65
709.621	53267.2
709.966	53160.99
710.31	53177.49
710.654	52973.65
710.998	53153.53
711.342	53115.57
711.687	52935.23
712.031	52917.15
712.375	52704.28
712.719	52714
713.063	52694.56
713.407	52782.92
713.75	52612.76
714.094	52549.93
714.438	52407.79
714.782	52490.95
715.125	52264.52
715.469	52476.26
715.812	52174.8
716.156	52074.01
716.499	52031.75
716.843	52106.1
717.186	52024.07
717.53	52127.34
717.873	52000.57
718.216	51974.58
718.559	51923.96
718.902	51590.64
719.246	51677.86
719.589	51578.43
719.932	51465.44
720.275	51525.33
720.617	51492.78
720.96	51431.54
721.303	51383.18
721.646	51432.45
721.989	51107.48
722.331	51241.04
722.674	51073.36
723.016	51084.66
723.359	50846.93
723.701	51018.22
724.044	50944.1
724.386	50717.89
724.729	50857.77
725.071	50849.19
725.413	50734.39
725.755	50589.31
726.097	50547.5
726.439	50372.59
726.782	50473.15
727.124	50606.48
727.465	50467.5
727.807	50274.29
728.149	50398.58
728.491	50199.03
728.833	50295.98
729.175	50298.24
729.516	50060.28
729.858	50018.47
730.199	50019.83
730.541	49980.06
730.882	49861.41
731.224	49910.23
731.565	49780.51
731.906	49780.29
732.248	49836.1
732.589	49581.2
732.93	49520.41
733.271	49600.63
733.612	49482.89
733.953	49575.55
734.294	49469.11
734.635	49312.5
734.976	49370.13
735.317	49249.45
735.658	49191.15
735.999	49102.11
736.339	49134.2
736.68	49092.62
737.021	49010.82
737.361	48884.27
737.702	49212.84
738.042	48918.39
738.383	48963.59
738.723	48961.33
739.063	48900.31
739.404	48790.03
739.744	48779.41
740.084	48654.67
740.424	48762.23
740.764	48594.1
741.104	48758.39
741.444	48547.1
741.784	48430.49
742.124	48431.85
742.464	48420.32
742.804	48376.71
743.143	48284.73
743.483	48336.94
743.823	48144.85
744.162	48223.04
744.502	48233.44
744.841	47954.12
745.181	48174.23
745.52	47918.64
745.86	47947.57
746.199	47906.89
746.538	47783.28
746.877	47950.96
747.216	47801.58
747.556	47804.75
747.895	47685.43
748.234	47675.26
748.573	47618.54
748.911	47460.57
749.25	47411.31
749.589	47334.25
749.928	47387.13
750.267	47413.57
750.605	47239.79
750.944	47068.95
751.283	47045.22
751.621	47183.75
751.96	46921.83
752.298	46877.09
752.636	46973.81
752.975	46736.75
753.313	46713.7
753.651	46961.83
753.989	46503.99
754.327	46536.08
754.666	46388.06
