Data from 142_FLMS001491_010.txt Node
Date: Thu Apr 19 16:09:20 BST 2018
User: hsy
Spectrometer: FLMS00149
Trigger mode: 0
Integration Time (sec): 1.000000E-2
Scans to average: 10
Electric dark correction enabled: true
Nonlinearity correction enabled: false
Boxcar width: 0
XAxis mode: Wavelengths
Number of Pixels in Spectrum: 2048
>>>>>Begin Spectral Data<<<<<
341.393	4.45
341.776	4.45
342.16	4.45
342.543	-69.22
342.927	-67.64
343.31	-77.36
343.693	-76.9
344.077	-60.63
344.46	-40.52
344.843	-48.2
345.226	-28.54
345.61	-32.84
345.993	-35.78
346.376	-20.18
346.759	31.79
347.142	14.62
347.525	45.35
347.908	50.32
348.291	88.51
348.674	79.93
349.057	110.43
349.44	138
349.823	124.67
350.206	195.86
350.588	226.59
350.971	271.33
351.354	266.14
351.737	290.09
352.119	278.57
352.502	283.31
352.884	305.01
353.267	301.84
353.65	327.83
354.032	352.69
354.414	374.61
354.797	341.62
355.179	376.64
355.562	363.76
355.944	369.41
356.326	353.14
356.709	368.28
357.091	362.86
357.473	379.81
357.855	363.76
358.238	374.38
358.62	387.49
359.002	392.01
359.384	393.14
359.766	399.01
360.148	395.85
360.53	383.87
360.912	388.39
361.294	396.98
361.676	365.57
362.057	370.99
362.439	395.85
362.821	384.33
363.203	379.13
363.584	379.35
363.966	390.2
364.348	360.15
364.729	362.18
365.111	382.97
365.493	382.74
365.874	355.85
366.256	354.95
366.637	364.67
367.019	373.48
367.4	355.63
367.781	366.47
368.163	360.15
368.544	363.31
368.925	368.73
369.306	358.34
369.688	385.91
370.069	382.74
370.45	371.45
370.831	345.23
371.212	384.1
371.593	388.85
371.974	374.16
372.355	359.92
372.736	380.71
373.117	405.57
373.498	370.77
373.879	363.08
374.26	385.68
374.641	369.41
375.021	392.91
375.402	396.53
375.783	372.8
376.163	406.92
376.544	400.82
376.925	402.4
377.305	403.31
377.686	398.34
378.066	391.56
378.447	376.64
378.827	395.63
379.208	416.42
379.588	387.49
379.968	405.79
380.349	395.63
380.729	427.04
381.109	413.7
381.489	402.18
381.87	426.36
382.25	425.45
382.63	440.37
383.01	404.21
383.39	425.45
383.77	433.59
384.15	426.58
384.53	432.69
384.91	438.79
385.29	421.61
385.67	425.45
386.049	430.65
386.429	439.01
386.809	450.76
387.189	455.28
387.568	434.95
387.948	444.44
388.328	429.75
388.707	462.52
389.087	465
389.466	466.36
389.846	464.55
390.225	475.4
390.605	477.43
390.984	478.11
391.363	472.91
391.743	485.57
392.122	485.57
392.501	493.48
392.881	486.92
393.26	504.32
393.639	494.15
394.018	512.68
394.397	509.07
394.776	516.07
395.155	496.87
395.534	504.77
395.913	499.13
396.292	530.76
396.671	543.64
397.05	539.8
397.429	526.02
397.808	527.15
398.186	525.11
398.565	532.57
398.944	534.15
399.323	561.95
399.701	556.75
400.08	521.72
400.458	547.71
400.837	578.9
401.215	555.62
401.594	566.69
401.972	581.61
402.351	569.63
402.729	593.36
403.107	585.22
403.486	576.41
403.864	593.36
404.242	591.1
404.62	589.07
404.999	615.28
405.377	599.46
405.755	605.56
406.133	621.38
406.511	615.51
406.889	634.94
407.267	615.51
407.645	620.93
408.023	657.54
408.401	635.84
408.779	651.21
409.156	671.32
409.534	665.9
409.912	677.2
410.29	660.03
410.667	670.87
411.045	719.23
411.422	707.48
411.8	705.22
412.178	699.8
412.555	738.67
412.933	718.78
413.31	741.6
413.687	758.33
414.065	753.36
414.442	767.37
414.819	775.5
415.197	769.85
415.574	786.12
415.951	795.16
416.328	814.15
416.705	801.94
417.082	801.49
417.46	804.88
417.837	835.16
418.214	841.04
418.591	824.99
418.967	831.32
419.344	850.75
419.721	857.99
420.098	857.99
420.475	868.38
420.852	878.32
421.228	864.77
421.605	891.21
421.982	912
422.358	918.32
422.735	904.09
423.111	911.77
423.488	915.16
423.864	926.01
424.241	958.55
424.617	940.24
424.994	932.11
425.37	954.71
425.746	940.92
426.123	981.15
426.499	979.34
426.875	963.07
427.251	985.21
427.627	1003.74
428.003	1018.43
428.379	1046.46
428.756	1036.96
429.132	1065.89
429.507	1056.4
429.883	1067.47
430.259	1096.4
430.635	1111.76
431.011	1135.72
431.387	1120.35
431.763	1148.6
432.138	1148.83
432.514	1167.36
432.89	1161.03
433.265	1194.47
433.641	1186.79
434.016	1213.91
434.392	1233.34
434.767	1242.38
435.143	1220.91
435.518	1253.91
435.894	1271.99
436.269	1273.12
436.644	1308.37
437.02	1292.1
437.395	1300.91
437.77	1320.8
438.145	1334.13
438.52	1308.82
438.895	1365.77
439.271	1384.53
439.646	1373.23
440.021	1399.67
440.395	1392.66
440.77	1373.23
441.145	1390.63
441.52	1418.42
441.895	1419.78
442.27	1420.23
442.645	1433.79
443.019	1431.98
443.394	1462.04
443.769	1495.94
444.143	1490.51
444.518	1485.09
444.892	1473.34
445.267	1481.02
445.641	1509.95
446.016	1508.59
446.39	1511.53
446.764	1531.19
447.139	1520.79
447.513	1553.79
447.887	1481.47
448.262	1537.74
448.636	1565.76
449.01	1571.64
449.384	1574.35
449.758	1605.99
450.132	1618.19
450.506	1600.34
450.88	1648.93
451.254	1642.15
451.628	1683.05
452.002	1662.71
452.376	1700.68
452.75	1725.31
453.123	1745.19
453.497	1778.19
453.871	1764.63
454.244	1828.81
454.618	1826.32
454.992	1845.98
455.365	1798.07
455.739	1849.82
456.112	1899.31
456.486	1902.7
456.859	1927.56
457.232	1973.21
457.606	1961.23
457.979	1991.06
458.352	2037.62
458.725	2026.99
459.099	2099.08
459.472	2112.64
459.845	2147.44
460.218	2130.95
460.591	2159.42
460.964	2202.81
461.337	2235.8
461.71	2234.9
462.083	2265.86
462.456	2288.91
462.829	2300.43
463.201	2310.15
463.574	2385.63
463.947	2373.88
464.32	2388.34
464.692	2411.17
465.065	2438.06
465.438	2472.63
465.81	2461.33
466.183	2547.21
466.555	2580.2
466.928	2583.82
467.3	2613.87
467.672	2602.57
468.045	2671.5
468.417	2681.89
468.789	2704.94
469.161	2748.78
469.534	2797.82
469.906	2827.65
470.278	2859.06
470.65	2857.26
471.022	2941.55
471.394	2993.97
471.766	3012.96
472.138	3088.66
472.51	3095.22
472.882	3164.14
473.253	3189.68
473.625	3193.07
473.997	3246.17
474.369	3288.43
474.74	3360.97
475.112	3378.6
475.484	3470.12
475.855	3523.45
476.227	3545.37
476.598	3629.21
476.97	3685.71
477.341	3776.78
477.713	3794.63
478.084	3856.1
478.455	3929.09
478.827	3986.72
479.198	4057
479.569	4095.19
479.94	4212.25
480.311	4260.16
480.682	4329.53
481.053	4477.55
481.424	4515.52
481.795	4607.27
482.166	4678.68
482.537	4753.7
482.908	4863.98
483.279	4971.32
483.65	5060.36
484.021	5153.69
484.391	5230.3
484.762	5338.32
485.133	5330.18
485.503	5479.79
485.874	5556.62
486.244	5671.87
486.615	5807.01
486.985	5906.89
487.356	6006.55
487.726	6103.72
488.097	6302.36
488.467	6327.45
488.837	6556.14
489.207	6647.21
489.578	6770.15
489.948	6903.25
490.318	7018.73
490.688	7076.58
491.058	7240.64
491.428	7422.56
491.798	7517.47
492.168	7761.76
492.538	7841.76
492.908	8037.91
493.278	8172.82
493.648	8248.53
494.017	8425.24
494.387	8587.05
494.757	8708.17
495.126	8852.35
495.496	8974.61
495.866	9165.79
496.235	9298.44
496.605	9510.87
496.974	9581.37
497.344	9778.43
497.713	9889.39
498.082	10031.53
498.452	10298.64
498.821	10495.7
499.19	10551.06
499.559	10722.36
499.928	10885.97
500.298	11067.43
500.667	11276.47
501.036	11337.48
501.405	11511.94
501.774	11744.03
502.143	11968.2
502.512	12057.92
502.88	12356.44
503.249	12360.06
503.618	12580.84
503.987	12681.63
504.356	13017.21
504.724	13166.59
505.093	13307.15
505.462	13413.59
505.83	13656.52
506.199	13877.3
506.567	14095.15
506.936	14201.14
507.304	14459.21
507.672	14558.19
508.041	14765.64
508.409	14979.87
508.777	15111.17
509.145	15313.2
509.514	15411.05
509.882	15627.99
510.25	15776.69
510.618	16009.68
510.986	16066.17
511.354	16271.37
511.722	16614.41
512.09	16808.98
512.458	16786.61
512.826	17110.21
513.193	17139.59
513.561	17369.19
513.929	17413.93
514.297	17733.7
514.664	17953.13
515.032	18003.75
515.4	18211.43
515.767	18488.03
516.135	18560.57
516.502	18606.22
516.869	18872.65
517.237	18986.1
517.604	18974.12
517.972	19402.81
518.339	19553.77
518.706	19623.37
519.073	19719.64
519.44	19970.48
519.808	20270.81
520.175	20231.26
520.542	20534.3
520.909	20739.95
521.276	20785.37
521.643	21022.88
522.009	21250.22
522.376	21441.17
522.743	21429.2
523.11	21891.11
523.477	22091.78
523.843	22142.62
524.21	22478.66
524.577	22555.72
524.943	22820.35
525.31	22910.06
525.676	23277.28
526.043	23391.18
526.409	23482.48
526.776	23792.3
527.142	23832.3
527.508	24114.78
527.874	24482.9
528.241	24585.72
528.607	24605.84
528.973	24931.48
529.339	25024.58
529.705	25287.17
530.071	25495.08
530.437	25540.73
530.803	25735.07
531.169	25917.21
531.535	25983.43
531.901	26185.91
532.267	26248.5
532.632	26519.01
532.998	26569.17
533.364	26729.17
533.73	26933.91
534.095	27250.51
534.461	27198.31
534.826	27265.65
535.192	27478.3
535.557	27678.07
535.923	27714.68
536.288	27905.86
536.653	28084.16
537.019	27922.81
537.384	28127.78
537.749	28251.39
538.114	28380.43
538.479	28387.66
538.845	28636.24
539.21	28580.65
539.575	28746.74
539.94	28815.44
540.305	29079.62
540.67	28974.31
541.034	29087.75
541.399	29238.93
541.764	29309.67
542.129	29497.46
542.494	29640.96
542.858	29613.39
543.223	29683.89
543.587	30016.77
543.952	29897.45
544.316	29974.51
544.681	29995.07
545.045	30288.85
545.41	30301.73
545.774	30313.03
546.138	30386.93
546.503	30602.29
546.867	30581.27
547.231	30758.22
547.595	30849.29
547.959	30963.64
548.324	30952.56
548.688	31065.33
549.052	31204.53
549.416	31294.93
549.779	31345.32
550.143	31412.89
550.507	31730.17
550.871	31782.37
551.235	31764.52
551.599	32041.57
551.962	32038.41
552.326	32125.86
552.689	32178.74
553.053	32188.69
553.417	32278.63
553.78	32646.3
554.143	32652.4
554.507	32772.63
554.87	32835.68
555.234	33246.06
555.597	32900.76
555.96	33151.37
556.323	33342.1
556.686	33404.02
557.05	33578.93
557.413	33731.47
557.776	33724.69
558.139	34056.21
558.502	34175.53
558.865	34120.39
559.228	34432.7
559.59	34375.3
559.953	34521.96
560.316	34900.25
560.679	34784.1
561.041	35099.12
561.404	35317.19
561.767	35511.76
562.129	35399.9
562.492	35755.6
562.854	35901.13
563.217	35839.44
563.579	36013.9
563.941	36189.26
564.304	36319.88
564.666	36629.93
565.028	36636.48
565.39	36886.64
565.753	37064.72
566.115	37047.32
566.477	37221.1
566.839	37579.96
567.201	37892.94
567.563	37786.28
567.925	38083.9
568.287	38142.2
568.648	38195.08
569.01	38439.82
569.372	38886.59
569.734	38771.57
570.095	38993.25
570.457	39261.04
570.819	39302.85
571.18	39425.33
571.542	39660.36
571.903	39837.98
572.265	40152.77
572.626	40232.77
572.987	40115.48
573.349	40474.12
573.71	40662.14
574.071	40857.84
574.432	41115.01
574.794	41301.22
575.155	41407.43
575.516	41367.88
575.877	41624.82
576.238	41841.54
576.599	41915.66
576.96	42038.6
577.32	42222.32
577.681	42521.75
578.042	42645.59
578.403	42778.01
578.763	42823.66
579.124	43051.68
579.485	43447.37
579.845	43643.75
580.206	43474.04
580.566	43788.61
580.927	43794.26
581.287	44195.6
581.648	44062.27
582.008	44534.35
582.368	44477.18
582.728	44780.9
583.089	44938.63
583.449	44970.05
583.809	45297.95
584.169	45497.94
584.529	45481.9
584.889	46018.61
585.249	45883.47
585.609	46009.34
585.969	46400.29
586.329	46337.69
586.688	46541.76
587.048	46900.84
587.408	46981.52
587.768	47097.9
588.127	47348.74
588.487	47525.69
588.846	47908.5
589.206	47863.08
589.565	47901.95
589.925	48391.43
590.284	48583.28
590.643	48745.54
591.003	48976.72
591.362	49334.68
591.721	49423.04
592.08	49541.68
592.44	49930.37
592.799	49973.76
593.158	50059.4
593.517	50278.16
593.876	50531.48
594.235	50621.2
594.593	50743.23
594.952	51034.07
595.311	51084.69
595.67	51379.82
596.029	51614.17
596.387	51743.88
596.746	52017.54
597.104	51952.24
597.463	52099.35
597.822	52522.39
598.18	52513.35
598.538	52609.62
598.897	52928.93
599.255	52877.64
599.613	53358.75
599.972	53205.54
600.33	53459.09
600.688	53516.71
601.046	53674.45
601.404	54054.1
601.762	54110.82
602.12	54310.59
602.478	54422.68
602.836	54466.07
603.194	54328.44
603.552	54612.73
603.91	54798.04
604.268	54882.1
604.625	54969.56
604.983	55263.79
605.341	55140.63
605.698	55423.33
606.056	55678.92
606.413	55590.11
606.771	55793.72
607.128	55877.56
607.485	55916.65
607.843	55956.2
608.2	56179.7
608.557	56344.21
608.914	56370.88
609.272	56563.87
609.629	56645.67
609.986	56774.93
610.343	56752.79
610.7	57052.67
611.057	57075.04
611.414	57037.53
611.771	57249.05
612.127	57400.23
612.484	57408.14
612.841	57560.9
613.198	57459.89
613.554	57543.05
613.911	57746.21
614.267	57851.52
614.624	57878.63
614.98	57999.31
615.337	58225.29
615.693	58174.67
616.05	58244.27
616.406	58383.25
616.762	58414.66
617.118	58442.01
617.475	58416.25
617.831	58625.96
618.187	58616.02
618.543	58773.98
618.899	58980.75
619.255	58886.74
619.611	58916.35
619.967	59110.24
620.323	59105.49
620.678	59076.57
621.034	59106.4
621.39	59108.43
621.746	59147.98
622.101	59418.03
622.457	59254.42
622.812	59430.01
623.168	59435.43
623.523	59510
623.879	59525.37
624.234	59402.66
624.589	59524.47
624.945	59573.05
625.3	59606.27
625.655	59645.82
626.01	59614.86
626.365	59638.59
626.72	59617.12
627.075	59590.9
627.43	59658.7
627.785	59661.64
628.14	59670.9
628.495	59737.57
628.85	59700.51
629.205	59672.94
629.559	59805.14
629.914	59658.47
630.269	59667.74
630.623	59628.42
630.978	59593.84
631.332	59698.7
631.687	59739.15
632.041	59676.55
632.396	59711.58
632.75	59651.69
633.104	59694.63
633.459	59607.85
633.813	59582.09
634.167	59599.72
634.521	59652.6
634.875	59666.38
635.229	59666.61
635.583	59437.01
635.937	59511.36
636.291	59524.69
636.645	59480.63
636.999	59403.11
637.352	59463.68
637.706	59350.91
638.06	59406.28
638.413	59334.19
638.767	59302.1
639.121	59332.15
639.474	59212.16
639.828	59231.59
640.181	59194.76
640.534	59307.75
640.888	59196.34
641.241	59089.45
641.594	59139.84
641.947	59201.31
642.301	59082.9
642.654	59062.33
643.007	59012.84
643.36	59068.43
643.713	59010.58
644.066	59110.01
644.419	58914.09
644.771	58717.03
645.124	58447.88
645.477	58444.27
645.83	58272.07
646.182	58274.1
646.535	58249.92
646.888	58243.14
647.24	58169.02
647.593	58308.68
647.945	58126.54
648.298	58184.16
648.65	57990.95
649.002	57938.07
649.355	57958.18
649.707	57877.96
650.059	57839.76
650.411	58169.25
650.763	58224.16
651.115	58630.48
651.467	58519.07
651.819	58513.87
652.171	58416.02
652.523	58427.32
652.875	58446.98
653.227	58307.55
653.578	58475.23
653.93	58455.34
654.282	58268.91
654.633	58264.84
654.985	58232.97
655.337	58307.77
655.688	58239.53
656.039	58362.69
656.391	58034.34
656.742	58085.41
657.094	58148.68
657.445	58145.07
657.796	58149.81
658.147	58051.96
658.498	58122.47
658.849	58131.28
659.2	58031.62
659.551	58028.01
659.902	58103.71
660.253	57978.74
660.604	58021.23
660.955	57880.67
661.306	58029.36
661.656	57927.9
662.007	57956.37
662.358	57945.98
662.708	57929.48
663.059	57961.57
663.409	57729.26
663.76	57914.56
664.11	57844.96
664.461	57860.33
664.811	57924.73
665.161	57836.83
665.511	57783.27
665.862	57821.91
666.212	57851.74
666.562	57829.6
666.912	57850.84
667.262	57762.7
667.612	57745.98
667.962	57817.39
668.312	57715.7
668.662	57855.58
669.011	57803.83
669.361	57715.02
669.711	57745.76
670.06	57728.13
670.41	57622.37
670.76	57658.07
671.109	57788.24
671.459	57675.93
671.808	57669.15
672.157	57681.8
672.507	57573.56
672.856	57567.46
673.205	57580.79
673.554	57624.18
673.904	57557.51
674.253	57730.39
674.602	57564.74
674.951	57229.39
675.3	57110.97
675.649	57542.15
675.998	57565.2
676.346	57578.53
676.695	57604.06
677.044	57413.56
677.393	57499.66
677.741	57507.12
678.09	57485.65
678.438	57379.44
678.787	57557.06
679.135	57485.88
679.484	57357.97
679.832	57433.9
680.181	57366.56
680.529	57305.77
680.877	57243.62
681.225	57280.91
681.573	57445.88
681.922	57254.24
682.27	57217.41
682.618	57190.52
682.966	57145.55
683.314	57119.11
683.661	57129.95
684.009	57028.03
684.357	56985.78
684.705	56891.99
685.053	56906
685.4	56903.29
685.748	56862.16
686.095	56828.04
686.443	56677.31
686.79	56702.17
687.138	56822.84
687.485	56774.03
687.832	56673.92
688.18	56613.13
688.527	56558.22
688.874	56566.13
689.221	56529.74
689.568	56414.72
689.915	56331.1
690.262	56381.05
690.609	56335.62
690.956	56205.46
691.303	56282.07
691.65	56146.02
691.997	56095.86
692.344	55960.94
692.69	56019.93
693.037	55995.75
693.383	55777.67
693.73	55855.64
694.077	55744.68
694.423	55785.36
694.769	55685.24
695.116	55652.48
695.462	55534.29
695.808	55443.67
696.155	55499.49
696.501	55254.52
696.847	55319.15
697.193	55177.24
697.539	55177.01
697.885	55043.23
698.231	54989.9
698.577	54895.89
698.923	54979.95
699.269	54746.51
699.614	54694.08
699.96	54620.41
700.306	54557.82
700.651	54441.89
700.997	54430.59
701.342	54421.55
701.688	54322.57
702.033	54227.88
702.379	54215.68
702.724	54099.07
703.069	54116.47
703.415	53863.82
703.76	53836.71
704.105	53890.72
704.45	53768.01
704.795	53662.02
705.14	53554.23
705.485	53563.72
705.83	53426.32
706.175	53453.67
706.52	53372.31
706.865	53287.12
707.209	53123.05
707.554	53111.3
707.899	53165.09
708.243	52976.39
708.588	52913.57
708.932	52768.26
709.277	52796.51
709.621	52739.79
709.966	52460.92
710.31	52542.28
710.654	52345.67
710.998	52442.84
711.342	52412.11
711.687	52238.56
712.031	52176.86
712.375	52030.65
712.719	52100.25
713.063	51924.67
713.407	52117.43
713.75	51856.19
714.094	52004.89
714.438	51814.39
714.782	51772.13
715.125	51580.04
715.469	51810.32
715.812	51509.99
716.156	51458.92
716.499	51346.6
716.843	51406.26
717.186	51232.93
717.53	51351.57
717.873	51303.44
718.216	51113.39
718.559	51054.63
718.902	50859.84
719.246	50836.78
719.589	50856.45
719.932	50697.58
720.275	50709.33
720.617	50696.68
720.96	50632.04
721.303	50625.26
721.646	50672.5
721.989	50426.63
722.331	50444.93
722.674	50337.81
723.016	50353.18
723.359	50082
723.701	50298.49
724.044	50158.38
724.386	49939.86
724.729	50208.1
725.071	49955.45
725.413	50006.75
725.755	49902.8
726.097	49729.47
726.439	49694.44
726.782	49666.19
727.124	49822.8
727.465	49599.3
727.807	49570.38
728.149	49530.83
728.491	49376.03
728.833	49439.76
729.175	49345.98
729.516	49163.38
729.858	49232.76
730.199	49401.12
730.541	49283.61
730.882	49133.33
731.224	49197.51
731.565	49080.45
731.906	48989.38
732.248	48982.37
732.589	48690.85
732.93	48730.63
733.271	48673
733.612	48731.98
733.953	48860.79
734.294	48648.14
734.635	48526.11
734.976	48647.24
735.317	48502.38
735.658	48414.25
735.999	48353.23
736.339	48391.2
736.68	48367.7
737.021	48244.08
737.361	48177.42
737.702	48378.09
738.042	48175.16
738.383	48223.97
738.723	48190.3
739.063	48133.35
739.404	48211.54
739.744	47894.04
740.084	47802.29
740.424	47992.34
740.764	47830.08
741.104	47976.75
741.444	47774.72
741.784	47684.78
742.124	47590.99
742.464	47633.03
742.804	47454.5
743.143	47501.05
743.483	47441.39
743.823	47267.61
744.162	47262.64
744.502	47371.34
744.841	47203.43
745.181	47302.87
745.52	47125.92
745.86	47221.06
746.199	47061.29
746.538	46919.37
746.877	47082.99
747.216	46996.21
747.556	46740.4
747.895	46814.29
748.234	46727.74
748.573	46738.36
748.911	46495.43
749.25	46644.13
749.589	46463.34
749.928	46543.34
750.267	46426.28
750.605	46365.94
750.944	46371.37
751.283	46250.46
751.621	46199.39
751.96	46008.44
752.298	45965.5
752.636	45936.12
752.975	45780.65
753.313	45757.6
753.651	45905.62
753.989	45692.97
754.327	45657.94
754.666	45331.39
755.004	45585.85
