Data from 142_FLMS001491_005.txt Node
Date: Thu Apr 19 16:09:07 BST 2018
User: hsy
Spectrometer: FLMS00149
Trigger mode: 0
Integration Time (sec): 1.000000E-2
Scans to average: 10
Electric dark correction enabled: true
Nonlinearity correction enabled: false
Boxcar width: 0
XAxis mode: Wavelengths
Number of Pixels in Spectrum: 2048
>>>>>Begin Spectral Data<<<<<
341.393	-30.68
341.776	-30.68
342.16	-30.68
342.543	-58.47
342.927	-57.12
343.31	-68.64
343.693	-90.56
344.077	-60.96
344.46	-52.37
344.843	-51.47
345.226	-57.12
345.61	0.06
345.993	-30.68
346.376	-6.72
346.759	-5.82
347.142	31.69
347.525	32.82
347.908	59.72
348.291	83.67
348.674	85.93
349.057	130.45
349.44	138.13
349.823	163.67
350.206	198.02
350.588	231.91
350.971	271.01
351.354	298.13
351.737	287.28
352.119	298.81
352.502	291.8
352.884	329.54
353.267	334.74
353.65	333.38
354.032	341.74
354.414	355.3
354.797	356.43
355.179	358.01
355.562	378.35
355.944	365.92
356.326	383.32
356.709	395.53
357.091	398.92
357.473	379.93
357.855	389.42
358.238	394.62
358.62	392.59
359.002	396.66
359.384	389.42
359.766	403.44
360.148	387.62
360.53	402.53
360.912	407.28
361.294	402.98
361.676	376.77
362.057	371.57
362.439	390.55
362.821	400.72
363.203	379.26
363.584	386.04
363.966	405.92
364.348	371.12
364.729	383.78
365.111	372.93
365.493	400.05
365.874	384
366.256	384.91
366.637	356.43
367.019	390.1
367.4	370.22
367.781	380.84
368.163	364.79
368.544	379.26
368.925	379.71
369.306	398.01
369.688	389.2
370.069	375.19
370.45	386.94
370.831	387.62
371.212	378.8
371.593	398.69
371.974	381.97
372.355	388.97
372.736	374.28
373.117	381.97
373.498	376.54
373.879	396.43
374.26	392.14
374.641	386.71
375.021	397.56
375.402	402.53
375.783	414.28
376.163	408.18
376.544	386.04
376.925	395.98
377.305	409.31
377.686	406.15
378.066	388.29
378.447	419.93
378.827	416.54
379.208	411.12
379.588	419.03
379.968	406.37
380.349	418.8
380.729	428.75
381.109	411.8
381.489	421.29
381.87	443.21
382.25	431.23
382.63	437.79
383.01	425.13
383.39	457.67
383.77	425.36
384.15	430.78
384.53	444.11
384.91	456.32
385.29	448.18
385.67	447.73
386.049	483.43
386.429	447.95
386.809	479.82
387.189	464.68
387.568	462.19
387.948	478.24
388.328	490.67
388.707	477.78
389.087	472.59
389.466	459.71
389.846	495.18
390.225	501.29
390.605	490.44
390.984	519.14
391.363	523.43
391.743	516.43
392.122	526.82
392.501	514.62
392.881	503.09
393.26	542.19
393.639	528.63
394.018	534.28
394.397	526.14
394.776	554.84
395.155	546.48
395.534	548.52
395.913	536.31
396.292	539.93
396.671	556.2
397.05	528.18
397.429	534.51
397.808	553.94
398.186	551.68
398.565	554.39
398.944	563.21
399.323	565.47
399.701	585.35
400.08	572.92
400.458	576.76
400.837	593.71
401.215	605.01
401.594	597.1
401.972	609.76
402.351	598.01
402.729	610.44
403.107	612.02
403.486	625.58
403.864	613.15
404.242	617.89
404.62	635.75
404.999	642.75
405.377	633.26
405.755	622.86
406.133	669.87
406.511	668.06
406.889	673.49
407.267	662.41
407.645	694.05
408.023	683.65
408.401	682.3
408.779	697.44
409.156	714.39
409.534	671.68
409.912	732.69
410.29	720.26
410.667	744.22
411.045	749.19
411.422	756.65
411.8	763.43
412.178	776.99
412.555	779.7
412.933	790.32
413.31	805.69
413.687	804.1
414.065	814.27
414.442	823.99
414.819	828.51
415.197	823.09
415.574	844.55
415.951	823.31
416.328	869.86
416.705	859.69
417.082	858.56
417.46	880.94
417.837	908.28
418.214	875.97
418.591	889.07
418.967	919.58
419.344	931.33
419.721	921.39
420.098	932.24
420.475	954.83
420.852	960.48
421.228	965.68
421.605	961.61
421.982	966.81
422.358	967.71
422.735	992.35
423.111	971.78
423.488	982.4
423.864	989.63
424.241	995.96
424.617	1009.52
424.994	1033.02
425.37	1011.56
425.746	1040.26
426.123	1045.68
426.499	1067.83
426.875	1073.93
427.251	1079.8
427.627	1120.25
428.003	1122.06
428.379	1129.97
428.756	1155.28
429.132	1149.63
429.507	1156.18
429.883	1139.01
430.259	1182.4
430.635	1180.82
431.011	1186.01
431.387	1187.37
431.763	1231.44
432.138	1234.37
432.514	1255.84
432.89	1243.87
433.265	1297.2
433.641	1298.33
434.016	1313.92
434.392	1341.49
434.767	1372.9
435.143	1339.91
435.518	1349.85
435.894	1383.07
436.269	1374.71
436.644	1416.52
437.02	1407.25
437.395	1446.35
437.77	1452.67
438.145	1433.69
438.52	1437.08
438.895	1495.38
439.271	1462.62
439.646	1517.3
440.021	1520.47
440.395	1518.66
440.77	1516.17
441.145	1526.12
441.52	1540.81
441.895	1557.53
442.27	1575.61
442.645	1562.05
443.019	1604.53
443.394	1615.16
443.769	1604.76
444.143	1572.22
444.518	1638.43
444.892	1603.4
445.267	1625.1
445.641	1679.79
446.016	1663.74
446.39	1668.94
446.764	1678.43
447.139	1690.18
447.513	1697.19
447.887	1711.42
448.262	1693.35
448.636	1725.66
449.01	1704.64
449.384	1733.12
449.758	1763.63
450.132	1779.67
450.506	1820.8
450.88	1826
451.254	1808.37
451.628	1840.69
452.002	1861.48
452.376	1874.58
452.75	1894.92
453.123	1879.33
453.497	1930.4
453.871	1959.1
454.244	1982.6
454.618	1970.63
454.992	2042.04
455.365	2030.06
455.739	2050.85
456.112	2122.94
456.486	2131.98
456.859	2112.54
457.232	2188.93
457.606	2189.38
457.979	2225.53
458.352	2268.92
458.725	2284.29
459.099	2299.21
459.472	2326.1
459.845	2390.5
460.218	2361.8
460.591	2395.25
460.964	2404.97
461.337	2436.38
461.71	2472.08
462.083	2522.02
462.456	2567.45
462.829	2559.09
463.201	2607.22
463.574	2605.19
463.947	2645.64
464.32	2673.43
464.692	2678.18
465.065	2688.57
465.438	2734.9
465.81	2752.98
466.183	2819.42
466.555	2819.87
466.928	2879.08
467.3	2892.18
467.672	2920.88
468.045	2989.81
468.417	2983.25
468.789	3028.23
469.161	3071.16
469.534	3087.88
469.906	3166.98
470.278	3151.61
470.65	3246.52
471.022	3238.62
471.394	3305.05
471.766	3291.04
472.138	3407.65
472.51	3457.82
472.882	3523.81
473.253	3529.46
473.625	3625.72
473.997	3669.34
474.369	3689.23
474.74	3693.97
475.112	3839.05
475.484	3832.72
475.855	3914.3
476.227	3956.56
476.598	4035.43
476.97	4116.33
477.341	4204.24
477.713	4213.96
478.084	4303.67
478.455	4417.57
478.827	4381.86
479.198	4537.56
479.569	4571.91
479.94	4741.85
480.311	4785.92
480.682	4841.96
481.053	4996.08
481.424	5054.16
481.795	5130.09
482.166	5208.06
482.537	5284.66
482.908	5430.87
483.279	5528.27
483.65	5615.5
484.021	5714.48
484.391	5863.41
484.762	5904.76
485.133	6013.46
485.503	6071.76
485.874	6265.65
486.244	6294.81
486.615	6470.85
486.985	6587.68
487.356	6728.69
487.726	6782.03
488.097	6996.26
488.467	7051.4
488.837	7260.2
489.207	7328
489.578	7545.39
489.948	7609.57
490.318	7767.08
490.688	7862.9
491.058	8064.7
491.428	8236.9
491.798	8321.65
492.168	8488.65
492.538	8635.99
492.908	8856.77
493.278	9008.86
493.648	9109.87
494.017	9242.07
494.387	9439.13
494.757	9570.88
495.126	9751.89
495.496	9883.19
495.866	10019.91
496.235	10165.21
496.605	10306.68
496.974	10474.81
497.344	10667.35
497.713	10873.89
498.082	11025.76
498.452	11211.29
498.821	11358.18
499.19	11465.52
499.559	11637.49
499.928	11879.07
500.298	11979.85
500.667	12165.16
501.036	12374.87
501.405	12552.49
501.774	12589.78
502.143	12932.82
502.512	12999.94
502.88	13222.76
503.249	13300.5
503.618	13519.93
503.987	13719.24
504.356	14013.02
504.724	14053.47
505.093	14313.13
505.462	14440.35
505.83	14543.4
506.199	14825.88
506.567	14967.57
506.936	15211.18
507.304	15424.28
507.672	15662.92
508.041	15688.46
508.409	15913.76
508.777	16164.38
509.145	16330.47
509.514	16508.1
509.882	16621.31
510.25	16797.58
510.618	17055.88
510.986	17123.45
511.354	17373.38
511.722	17597.56
512.09	17780.61
512.458	17829.87
512.826	18140.82
513.193	18159.13
513.561	18377.2
513.929	18555.05
514.297	18751.88
514.664	18873.46
515.032	19074.13
515.4	19296.27
515.767	19422.14
516.135	19575.14
516.502	19643.38
516.869	19918.4
517.237	20107.32
517.604	20114.78
517.972	20492.17
518.339	20575.11
518.706	20616.01
519.073	20879.96
519.44	20983.91
519.808	21238.59
520.175	21330.57
520.542	21633.39
520.909	21830.44
521.276	21909.31
521.643	22261.17
522.009	22370.32
522.376	22517.2
522.743	22716.3
523.11	23022.5
523.477	23292.78
523.843	23325.54
524.21	23606.44
524.577	23851.18
524.943	24059.08
525.31	24154.68
525.676	24581.56
526.043	24655.45
526.409	24766.41
526.776	25096.8
527.142	25184.03
527.508	25542.21
527.874	25628.54
528.241	25743.56
528.607	25872.37
528.973	26263.09
529.339	26264.9
529.705	26582.41
530.071	26809.07
530.437	26920.48
530.803	27159.12
531.169	27321.82
531.535	27367.47
531.901	27558.65
532.267	27634.13
532.632	27928.59
532.998	28054.91
533.364	28159.77
533.73	28327.9
534.095	28637.72
534.461	28556.37
534.826	28665.52
535.192	28975.79
535.557	29120.42
535.923	29342.79
536.288	29329
536.653	29527.64
537.019	29439.73
537.384	29689.45
537.749	29777.35
538.114	29884.92
538.479	29889.67
538.845	30138.47
539.21	30032.49
539.575	30244.23
539.94	30382.08
540.305	30513.6
540.67	30509.31
541.034	30538.01
541.399	30707.95
541.764	30820.26
542.129	31042.63
542.494	31023.65
542.858	31283.75
543.223	31221.38
543.587	31468.16
543.952	31449.85
544.316	31600.81
544.681	31495.27
545.045	31862.95
545.41	31871.08
545.774	31985.88
546.138	31920.12
546.503	32183.62
546.867	32025.43
547.231	32305.42
547.595	32419.32
547.959	32580.44
548.324	32698.18
548.688	32763.26
549.052	32748.12
549.416	32752.19
549.779	32843.49
550.143	32924.16
550.507	33103.59
550.871	33187.66
551.235	33239.63
551.599	33605.27
551.962	33641.88
552.326	33786.51
552.689	33827.87
553.053	33589.68
553.417	33777.25
553.78	34167.07
554.143	34244.35
554.507	34414.74
554.87	34502.43
555.234	34696.77
555.597	34452.71
555.96	34753.04
556.323	34849.76
556.686	34936.09
557.05	35275.97
557.413	35241.84
557.776	35236.42
558.139	35599.35
558.502	35528.84
558.865	35679.34
559.228	35971.99
559.59	36042.95
559.953	36115.72
560.316	36495.37
560.679	36529.04
561.041	36701.69
561.404	36893.78
561.767	37185.75
562.129	37189.36
562.492	37386.42
562.854	37434.55
563.217	37588.67
563.579	37644.72
563.941	37937.82
564.304	38114.53
564.666	38534.86
565.028	38376.45
565.39	38461.19
565.753	38868.41
566.115	38896.89
566.477	39143.89
566.839	39269.53
567.201	39468.17
567.563	39521.96
567.925	39897.54
568.287	40013.92
568.648	40067.93
569.01	40427.69
569.372	40574.58
569.734	40570.29
570.095	41071.52
570.457	41121.24
570.819	41190.16
571.18	41283.72
571.542	41660.66
571.903	41805.28
572.265	41911.95
572.626	42061.55
572.987	42170.02
573.349	42508.32
573.71	42610.01
574.071	42753.51
574.432	43055.87
574.794	43178.36
575.155	43263.55
575.516	43344.68
575.877	43651.11
576.238	43717.55
576.599	43930.2
576.96	43958.22
577.32	44166.8
577.681	44416.74
578.042	44690.18
578.403	44645.89
578.763	44789.16
579.124	44960
579.485	45446.32
579.845	45545.98
580.206	45589.82
580.566	45788.68
580.927	45836.59
581.287	46079.07
581.648	46124.27
582.008	46536.69
582.368	46571.26
582.728	46627.31
583.089	46782.33
583.449	46872.04
583.809	47129.66
584.169	47441.75
584.529	47450.79
584.889	47852.13
585.249	47811.68
585.609	47759.48
585.969	48203.76
586.329	48245.57
586.688	48621.6
587.048	48672.22
587.408	48829.96
587.768	49010.07
588.127	49270.4
588.487	49293.45
588.846	49777.28
589.206	49797.39
589.565	49814.57
589.925	50221.56
590.284	50278.06
590.643	50426.75
591.003	50686.86
591.362	51056.12
591.721	51072.84
592.08	51152.16
592.44	51532.94
592.799	51593.95
593.158	51756.21
593.517	51826.49
593.876	52142.41
594.235	52202.53
594.593	52294.05
594.952	52576.98
595.311	52633.25
595.67	52889.74
596.029	53131.99
596.387	53369.73
596.746	53515.26
597.104	53496.5
597.463	53592.32
597.822	53853.56
598.18	53932.42
598.538	54042.7
598.897	54416.48
599.255	54270.95
599.613	54639.3
599.972	54653.76
600.33	54843.36
600.688	54821.67
601.046	54994.54
601.404	55347.08
601.762	55335.78
602.12	55503.91
602.478	55675.65
602.836	55794.07
603.194	55703
603.552	55931.69
603.91	55926.72
604.268	56128.98
604.625	56168.98
604.983	56354.51
605.341	56376.2
605.698	56589.98
606.056	56794.27
606.413	56753.59
606.771	57056.86
607.128	57142.51
607.485	57119.46
607.843	57220.25
608.2	57440.13
608.557	57506.12
608.914	57537.07
609.272	57705.88
609.629	57867.69
609.986	57938.87
610.343	58035.59
610.7	58271.52
611.057	58246.89
611.414	58250.5
611.771	58453.89
612.127	58547.44
612.484	58640.32
612.841	58693.88
613.198	58624.05
613.554	58641
613.911	58923.25
614.267	58941.78
614.624	59060.2
614.98	59058.62
615.337	59300.87
615.693	59168.44
616.05	59330.7
616.406	59451.83
616.762	59433.97
617.118	59510.36
617.475	59512.62
617.831	59720.97
618.187	59787.64
618.543	59740.63
618.899	59915.09
619.255	59954.86
619.611	59895.2
619.967	60029.21
620.323	60185.82
620.678	60076.67
621.034	60061.53
621.39	60091.36
621.746	60169.1
622.101	60466.26
622.457	60296.55
622.812	60442.08
623.168	60466.94
623.523	60466.49
623.879	60567.96
624.234	60468.07
624.589	60598.01
624.945	60611.12
625.3	60666.26
625.655	60646.6
626.01	60698.8
626.365	60694.73
626.72	60704.68
627.075	60659.25
627.43	60686.37
627.785	60770.21
628.14	60762.3
628.495	60758.46
628.85	60833.49
629.205	60763.2
629.559	60806.37
629.914	60800.04
630.269	60780.83
630.623	60748.74
630.978	60622.42
631.332	60797.1
631.687	60771.57
632.041	60756.2
632.396	60755.07
632.75	60710.1
633.104	60845.24
633.459	60656.31
633.813	60715.3
634.167	60659.25
634.521	60672.59
634.875	60707.39
635.229	60552.81
635.583	60526.37
635.937	60526.37
636.291	60593.49
636.645	60580.61
636.999	60473.04
637.352	60502.87
637.706	60411.12
638.06	60477.56
638.413	60414.51
638.767	60353.72
639.121	60481.18
639.474	60308.75
639.828	60319.37
640.181	60346.49
640.534	60368.19
640.888	60326.61
641.241	60118.48
641.594	60206.61
641.947	60271.69
642.301	60160.73
642.654	60217.91
643.007	60062.88
643.36	60213.39
643.713	60071.02
644.066	60234.86
644.419	60049.55
644.771	59842.55
645.124	59577.47
645.477	59535.67
645.83	59406.86
646.182	59374.99
646.535	59363.47
646.888	59397.36
647.24	59292.96
647.593	59414.09
647.945	59342.68
648.298	59216.35
648.65	59169.12
649.002	59076.24
649.355	59123.25
649.707	59014.32
650.059	59003.48
650.411	59358.04
650.763	59456.12
651.115	59734.76
651.467	59643.23
651.819	59612.27
652.171	59597.36
652.523	59511.94
652.875	59534.99
653.227	59403.24
653.578	59654.08
653.93	59452.05
654.282	59424.48
654.633	59361.66
654.985	59409.79
655.337	59360.76
655.688	59357.14
656.039	59417.03
656.391	59246.86
656.742	59304.49
657.094	59331.83
657.445	59289.57
657.796	59284.83
658.147	59262
658.498	59254.77
658.849	59217.48
659.2	59206.18
659.551	59057.26
659.902	59251.38
660.253	59145.85
660.604	59191.27
660.955	59070.82
661.306	59163.02
661.656	59064.49
662.007	59107.2
662.358	59028.56
662.708	59060.42
663.059	58991.5
663.409	58878.06
663.76	58980.65
664.11	59082.8
664.461	59088.45
664.811	58992.63
665.161	58967.77
665.511	58894.1
665.862	58918.06
666.212	59013.19
666.562	59017.26
666.912	58879.19
667.262	58841
667.612	58909.69
667.962	58903.59
668.312	58890.49
668.662	58991.73
669.011	58894.78
669.361	58876.47
669.711	58880.09
670.06	58860.2
670.41	58799.41
670.76	58789.92
671.109	58879.41
671.459	58838.06
671.808	58852.29
672.157	58843.03
672.507	58753.99
672.856	58726.87
673.205	58796.25
673.554	58801.22
673.904	58665.86
674.253	58929.81
674.602	58705.41
674.951	58373.66
675.3	58298.64
675.649	58751.51
675.998	58652.75
676.346	58700.21
676.695	58722.81
677.044	58542.25
677.393	58624.96
677.741	58658.63
678.09	58590.83
678.438	58513.09
678.787	58586.31
679.135	58565.07
679.484	58376.83
679.832	58520.33
680.181	58450.95
680.529	58499.08
680.877	58422.25
681.225	58383.83
681.573	58566.65
681.922	58392.42
682.27	58365.98
682.618	58400.55
682.966	58327.34
683.314	58371.4
683.661	58311.07
684.009	58276.26
684.357	58192.65
684.705	58150.62
685.053	58258.19
685.4	58021.58
685.748	58005.54
686.095	58016.38
686.443	57937.97
686.79	57989.04
687.138	58054.8
687.485	58025.2
687.832	57889.83
688.18	57921.47
688.527	57842.15
688.874	57798.08
689.221	57782.27
689.568	57688.48
689.915	57578.43
690.262	57635.83
690.609	57538.43
690.956	57546.11
691.303	57494.14
691.65	57354.03
691.997	57337.53
692.344	57214.82
692.69	57229.29
693.037	57272.9
693.383	57001.04
693.73	57081.49
694.077	56960.37
694.423	57025.68
694.769	56898
695.116	56933.7
695.462	56735.06
695.808	56631.79
696.155	56809.86
696.501	56577.1
696.847	56575.29
697.193	56435.18
697.539	56502.53
697.885	56248.97
698.231	56222.31
698.577	56248.3
698.923	56267.73
699.269	56023.89
699.614	55935.53
699.96	55866.61
700.306	55868.87
700.651	55835.42
700.997	55678.14
701.342	55604.92
701.688	55570.8
702.033	55501.2
702.379	55549.33
702.724	55453.51
703.069	55459.84
703.415	55158.83
703.76	55156.12
704.105	55224.14
704.45	55091.49
704.795	54994.77
705.14	54902.57
705.485	54930.59
705.83	54717.71
706.175	54878.84
706.52	54809.69
706.865	54697.83
707.209	54577.6
707.554	54488.79
707.899	54526.08
708.243	54338.29
708.588	54281.57
708.932	54173.1
709.277	54228.46
709.621	54105.98
709.966	53899.2
710.31	54007.45
710.654	53877.28
710.998	53840.45
711.342	53845.42
711.687	53777.4
712.031	53729.27
712.375	53549.38
712.719	53540.57
713.063	53479.78
713.407	53676.39
713.75	53451.53
714.094	53386.9
714.438	53244.76
714.782	53207.92
715.125	53000.24
715.469	53268.26
715.812	53029.85
716.156	52983.75
716.499	52936.07
716.843	52967.25
717.186	52753.25
717.53	52899.46
717.873	52828.95
718.216	52757.54
718.559	52727.26
718.902	52413.37
719.246	52449.75
719.589	52367.04
719.932	52311.9
720.275	52333.14
720.617	52249.53
720.96	52253.6
721.303	52260.83
721.646	52204.11
721.989	52093.15
722.331	52049.76
722.674	51914.85
723.016	51976.99
723.359	51769.09
723.701	51957.33
724.044	51673.73
724.386	51555.09
724.729	51736.1
725.071	51725.25
725.413	51605.03
725.755	51626.04
726.097	51474.41
726.439	51384.69
726.782	51292.27
727.124	51434.18
727.465	51287.97
727.807	51172.04
728.149	51170.69
728.491	51083.91
728.833	51097.02
729.175	51094.08
729.516	51095.21
729.858	50899.06
730.199	51008.43
730.541	50906.74
730.882	50847.08
731.224	50788.78
731.565	50617.48
731.906	50610.03
732.248	50672.85
732.589	50445.28
732.93	50489.8
733.271	50377.71
733.612	50383.82
733.953	50498.39
734.294	50253.42
734.635	50190.83
734.976	50352.63
735.317	50228.34
735.658	50090.04
735.999	50095.24
736.339	50004.62
736.68	50051.85
737.021	50075.58
737.361	49930.95
737.702	50093.43
738.042	49930.5
738.383	49835.13
738.723	49967.1
739.063	49679.2
739.404	49938.4
739.744	49820.89
740.084	49677.85
740.424	49736.15
740.764	49554.01
741.104	49767.34
741.444	49554.46
741.784	49411.19
742.124	49464.52
742.464	49394.24
742.804	49341.81
743.143	49259.78
743.483	49231.08
743.823	49100.69
744.162	49166.45
744.502	49160.12
744.841	48942.95
745.181	49053.68
745.52	48928.04
745.86	48953.8
746.199	48937.75
746.538	48902.27
746.877	48943.63
747.216	48858.66
747.556	48843.52
747.895	48603.75
748.234	48630.42
748.573	48533.47
748.911	48346.81
749.25	48315.17
749.589	48241.05
749.928	48269.3
750.267	48336.19
750.605	48139.81
750.944	48078.34
751.283	48030.21
751.621	48251.22
751.96	47888.51
752.298	47987.04
752.636	47832.25
752.975	47781.17
753.313	47536.89
753.651	47858.46
753.989	47578.47
754.327	47630.22
754.666	47255.31
