Data from 142_FLMS001491_001.txt Node
Date: Thu Apr 19 16:08:45 BST 2018
User: hsy
Spectrometer: FLMS00149
Trigger mode: 0
Integration Time (sec): 1.000000E-2
Scans to average: 10
Electric dark correction enabled: true
Nonlinearity correction enabled: false
Boxcar width: 0
XAxis mode: Wavelengths
Number of Pixels in Spectrum: 2048
>>>>>Begin Spectral Data<<<<<
341.393	-8.59
341.776	-8.59
342.16	-8.59
342.543	-46.33
342.927	-56.72
343.31	-69.83
343.693	-68.7
344.077	-54.69
344.46	-65.99
344.843	-59.43
345.226	-36.16
345.61	-21.47
345.993	-17.85
346.376	-1.81
346.759	-3.39
347.142	20.11
347.525	48.81
347.908	35.03
348.291	75.7
348.674	111.41
349.057	108.25
349.44	132.65
349.823	141.24
350.206	146.89
350.588	236.83
350.971	261.46
351.354	264.4
351.737	301.69
352.119	311.18
352.502	312.53
352.884	322.93
353.267	313.89
353.65	323.61
354.032	361.35
354.414	352.08
354.797	364.28
355.179	376.49
355.562	367
355.944	368.8
356.326	365.19
356.709	368.35
357.091	373.55
357.473	380.55
357.855	412.19
358.238	399.99
358.62	382.59
359.002	379.88
359.384	359.31
359.766	388.24
360.148	396.6
360.53	399.54
360.912	402.48
361.294	404.96
361.676	385.53
362.057	372.19
362.439	387.79
362.821	374.45
363.203	377.39
363.584	390.27
363.966	362.02
364.348	369.26
364.729	392.76
365.111	390.5
365.493	387.11
365.874	374.23
366.256	361.12
366.637	370.84
367.019	380.78
367.4	382.14
367.781	370.61
368.163	359.99
368.544	370.16
368.925	371.97
369.306	397.96
369.688	372.19
370.069	361.57
370.45	383.72
370.831	338.07
371.212	376.26
371.593	395.24
371.974	374.91
372.355	363.15
372.736	381.01
373.117	382.59
373.498	396.83
373.879	378.07
374.26	379.65
374.641	369.26
375.021	378.75
375.402	411.06
375.783	400.67
376.163	391.18
376.544	395.47
376.925	386.2
377.305	402.25
377.686	404.06
378.066	421.01
378.447	425.75
378.827	407.45
379.208	427.33
379.588	411.51
379.968	409.25
380.349	425.53
380.729	419.42
381.109	400.22
381.489	426.2
381.87	440.44
382.25	414.68
382.63	439.99
383.01	437.05
383.39	433.21
383.77	429.59
384.15	461.68
384.53	430.95
384.91	442.25
385.29	462.36
385.67	452.64
386.049	452.42
386.429	454.68
386.809	458.74
387.189	454.9
387.568	476.37
387.948	459.87
388.328	471.85
388.707	471.85
389.087	474.79
389.466	495.81
389.846	483.83
390.225	487.44
390.605	491.74
390.984	467.56
391.363	480.67
391.743	475.47
392.122	510.72
392.501	503.26
392.881	485.86
393.26	498.07
393.639	522.7
394.018	502.13
394.397	505.98
394.776	508.46
395.155	536.26
395.534	529.03
395.913	503.49
396.292	521.34
396.671	519.99
397.05	534.22
397.429	527.9
397.808	550.95
398.186	550.27
398.565	539.19
398.944	539.19
399.323	550.49
399.701	550.04
400.08	547.78
400.458	570.61
400.837	583.49
401.215	564.5
401.594	595.24
401.972	565.41
402.351	585.3
402.729	583.71
403.107	609.93
403.486	588.69
403.864	602.02
404.242	571.74
404.62	612.87
404.999	627.33
405.377	608.35
405.755	624.84
406.133	665.52
406.511	621.68
406.889	627.33
407.267	647.21
407.645	670.94
408.023	645.41
408.401	664.84
408.779	684.05
409.156	675.24
409.534	684.28
409.912	683.15
410.29	682.92
410.667	700.09
411.045	692.64
411.422	728.34
411.8	723.37
412.178	703.94
412.555	741.9
412.933	752.75
413.31	762.92
413.687	771.05
414.065	803.37
414.442	796.14
414.819	806.98
415.197	804.27
415.574	786.65
415.951	797.27
416.328	802.24
416.705	812.63
417.082	833.42
417.46	853.76
417.837	844.27
418.214	861.9
418.591	840.2
418.967	864.61
419.344	873.2
419.721	886.98
420.098	892.86
420.475	893.99
420.852	898.96
421.228	883.14
421.605	920.88
421.982	900.09
422.358	897.15
422.735	922.24
423.111	935.34
423.488	947.32
423.864	937.83
424.241	968.34
424.617	958.84
424.994	987.77
425.37	975.34
425.746	977.6
426.123	1022.35
426.499	1000.2
426.875	1015.11
427.251	1018.73
427.627	1035.45
428.003	1038.39
428.379	1060.54
428.756	1077.03
429.132	1091.27
429.507	1085.85
429.883	1101.67
430.259	1111.16
430.635	1157.03
431.011	1133.08
431.387	1158.84
431.763	1184.15
432.138	1179.4
432.514	1168.78
432.89	1204.71
433.265	1231.38
433.641	1231.83
434.016	1230.48
434.392	1288.78
434.767	1272.73
435.143	1282.23
435.518	1304.82
435.894	1270.93
436.269	1302.79
436.644	1347.08
437.02	1369.91
437.395	1330.13
437.77	1353.64
438.145	1333.07
438.52	1396.12
438.895	1362.9
439.271	1359.29
439.646	1432.5
440.021	1432.73
440.395	1453.3
440.77	1407.42
441.145	1460.07
441.52	1468.89
441.895	1428.89
442.27	1475.67
442.645	1448.1
443.019	1479.51
443.394	1478.15
443.769	1477.7
444.143	1493.29
444.518	1508.89
444.892	1514.76
445.267	1548.89
445.641	1546.4
446.016	1554.54
446.39	1563.12
446.764	1580.07
447.139	1537.81
447.513	1609.9
447.887	1601.09
448.262	1610.13
448.636	1576.91
449.01	1628.66
449.384	1623.69
449.758	1661.2
450.132	1698.26
450.506	1678.37
450.88	1677.24
451.254	1674.53
451.628	1708.66
452.002	1745.26
452.376	1742.1
452.75	1745.49
453.123	1800.63
453.497	1800.18
453.871	1796.56
454.244	1829.56
454.618	1859.16
454.992	1892.15
455.365	1888.76
455.739	1950.01
456.112	1958.14
456.486	1990
456.859	2005.82
457.232	2052.83
457.606	2045.14
457.979	2054.41
458.352	2090.79
458.725	2098.02
459.099	2117.68
459.472	2194.07
459.845	2205.14
460.218	2209.43
460.591	2242.43
460.964	2237.91
461.337	2274.52
461.71	2345.48
462.083	2338.47
462.456	2379.15
462.829	2368.98
463.201	2401.97
463.574	2444.23
463.947	2468.18
464.32	2508.86
464.692	2495.75
465.065	2533.04
465.438	2542.98
465.81	2587.05
466.183	2585.02
466.555	2676.54
466.928	2699.14
467.3	2658.91
467.672	2726.93
468.045	2777.33
468.417	2758.8
468.789	2793.15
469.161	2820.94
469.534	2897.55
469.906	2939.58
470.278	2929.41
470.65	2991.33
471.022	3019.58
471.394	3070.43
471.766	3093.25
472.138	3144.55
472.51	3204.66
472.882	3247.37
473.253	3320.36
473.625	3282.4
473.997	3378.89
474.369	3412.79
474.74	3464.54
475.112	3538.44
475.484	3589.28
475.855	3662.05
476.227	3661.82
476.598	3777.53
476.97	3846.45
477.341	3914.7
477.713	3953.79
478.084	3963.74
478.455	4084.41
478.827	4094.58
479.198	4248.93
479.569	4265.2
479.94	4367.57
480.311	4422.26
480.682	4519.2
481.053	4637.17
481.424	4688.69
481.795	4800.78
482.166	4879.87
482.537	4934.33
482.908	5029.92
483.279	5143.37
483.65	5232.63
484.021	5316.47
484.391	5377.49
484.762	5432.85
485.133	5565.5
485.503	5610.02
485.874	5763.92
486.244	5811.15
486.615	6027.64
486.985	6113.51
487.356	6227.18
487.726	6337.91
488.097	6517.79
488.467	6587.62
488.837	6707.62
489.207	6853.83
489.578	6975.41
489.948	7083.66
490.318	7282.97
490.688	7294.5
491.058	7534.27
491.428	7684.32
491.798	7787.82
492.168	7987.13
492.538	8110.07
492.908	8321.59
493.278	8495.6
493.648	8580.34
494.017	8751.63
494.387	8861.46
494.757	9079.99
495.126	9169.25
495.496	9312.07
495.866	9513.65
496.235	9627.54
496.605	9792.06
496.974	9946.41
497.344	10068.66
497.713	10236.12
498.082	10431.82
498.452	10678.36
498.821	10776.21
499.19	10843.56
499.559	11132.36
499.928	11286.71
500.298	11474.5
500.667	11659.35
501.036	11693.25
501.405	11937.31
501.774	12041.94
502.143	12328.04
502.512	12466.34
502.88	12599.22
503.249	12726.9
503.618	12978.64
503.987	13150.61
504.356	13375.47
504.724	13545.41
505.093	13657.27
505.462	13847.77
505.83	14026.52
506.199	14301.54
506.567	14467.87
506.936	14577.24
507.304	14781.98
507.672	14973.39
508.041	15154.63
508.409	15346.04
508.777	15563.43
509.145	15814.05
509.514	15842.3
509.882	16106.02
510.25	16205.9
510.618	16401.6
510.986	16441.15
511.354	16745.55
511.722	16988.25
512.09	17192.32
512.458	17227.57
512.826	17489.26
513.193	17662.36
513.561	17741
513.929	17911.62
514.297	18168.79
514.664	18314.09
515.032	18411.49
515.4	18708.66
515.767	18858.04
516.135	18979.16
516.502	19013.29
516.869	19336.67
517.237	19571.91
517.604	19552.93
517.972	19842.42
518.339	19916.31
518.706	20103.2
519.073	20238.79
519.44	20398.11
519.808	20648.04
520.175	20685.56
520.542	21088.94
520.909	21153.12
521.276	21323.73
521.643	21623.84
522.009	21692.76
522.376	21952.19
522.743	22074
523.11	22400.77
523.477	22518.05
523.843	22668.56
524.21	22961.2
524.577	23192.61
524.943	23350.35
525.31	23579.72
525.676	23788.3
526.043	23929.77
526.409	24093.83
526.776	24504.44
527.142	24413.82
527.508	24741.95
527.874	24956.86
528.241	25117.31
528.607	25281.82
528.973	25578.31
529.339	25673.45
529.705	25908.25
530.071	26122.7
530.437	26197.05
530.803	26452.64
531.169	26673.87
531.535	26760.43
531.901	26959.07
532.267	27021.21
532.632	27081.1
532.998	27319.73
533.364	27510.46
533.73	27615.09
534.095	27869.55
534.461	27887.85
534.826	28117.9
535.192	28039.04
535.557	28421.85
535.923	28356.32
536.288	28640.83
536.653	28716.31
537.019	28685.35
537.384	28769.64
537.749	28909.52
538.114	28994.72
538.479	29108.16
538.845	29356.29
539.21	29293.47
539.575	29407.36
539.94	29610.29
540.305	29738.2
540.67	29826.33
541.034	29894.81
541.399	29983.62
541.764	30008.48
542.129	30209.15
542.494	30318.3
542.858	30381.8
543.223	30461.57
543.587	30652.53
543.952	30595.13
544.316	30751.96
544.681	30764.16
545.045	30992.63
545.41	31167.09
545.774	31080.09
546.138	31287.54
546.503	31392.17
546.867	31401.89
547.231	31599.17
547.595	31733.4
547.959	31805.72
548.324	31885.26
548.688	31897.47
549.052	32147.63
549.416	31944.02
549.779	32121.19
550.143	32186.5
550.507	32500.16
550.871	32565.02
551.235	32547.62
551.599	32895.63
551.962	32837.55
552.326	32927.27
552.689	33125.46
553.053	32964.33
553.417	33146.93
553.78	33423.3
554.143	33322.29
554.507	33582.39
554.87	33717.53
555.234	33984.87
555.597	33832.33
555.96	33988.03
556.323	34075.04
556.686	34138.76
557.05	34422.37
557.413	34643.16
557.776	34514.8
558.139	34791.85
558.502	34894.22
558.865	34922.47
559.228	35266.87
559.59	35363.59
559.953	35448.56
560.316	35918.15
560.679	35759.29
561.041	35968.55
561.404	36226.39
561.767	36474.52
562.129	36459.15
562.492	36751.35
562.854	36779.15
563.217	36781.41
563.579	36912.48
563.941	37134.16
564.304	37441.05
564.666	37657.31
565.028	37686.69
565.39	37823.19
565.753	38036.06
566.115	38059.34
566.477	38292.1
566.839	38455.94
567.201	38815.7
567.563	38710.17
567.925	39079.65
568.287	39132.98
568.648	39228.57
569.01	39474.44
569.372	39733.19
569.734	39785.85
570.095	40020.42
570.457	40282.56
570.819	40418.37
571.18	40354.19
571.542	40744.92
571.903	40678.93
572.265	41062.2
572.626	41217.9
572.987	41188.3
573.349	41563.88
573.71	41861.95
574.071	41885.68
574.432	42221.04
574.794	42503.74
575.155	42477.75
575.516	42470.75
575.877	42673.23
576.238	42735.6
576.599	43108.02
576.96	43334.68
577.32	43240.44
577.681	43497.16
578.042	43794.55
578.403	43877.04
578.763	43913.65
579.124	44005.4
579.485	44367.65
579.845	44647.19
580.206	44487.64
580.566	44820.29
580.927	44766.73
581.287	45115.2
581.648	45202.88
582.008	45378.24
582.368	45598.35
582.728	45830.21
583.089	45816.65
583.449	45976.87
583.809	46206.69
584.169	46446.01
584.529	46514.48
584.889	46874.02
585.249	46847.13
585.609	46832.21
585.969	47256.84
586.329	47307
586.688	47636.94
587.048	47631.97
587.408	47843.94
587.768	48001.45
588.127	48286.19
588.487	48389.46
588.846	48859.96
589.206	48569.8
589.565	48850.01
589.925	49234.86
590.284	49399.83
590.643	49519.6
591.003	49809.31
591.362	50084.78
591.721	50119.36
592.08	50277.77
592.44	50620.36
592.799	50708.05
593.158	50826.91
593.517	50925.21
593.876	51252.44
594.235	51338.54
594.593	51537.4
594.952	51685.87
595.311	51773.1
595.67	52000.67
596.029	52260.09
596.387	52460.09
596.746	52613.08
597.104	52607.2
597.463	52778.27
597.822	53044.71
598.18	53021.2
598.538	53206.06
598.897	53457.58
599.255	53368.77
599.613	53971.91
599.972	53778.7
600.33	54022.53
600.688	54135.3
601.046	54233.6
601.404	54512.24
601.762	54557.44
602.12	54702.74
602.478	54805.56
602.836	55007.37
603.194	54939.8
603.552	55096.86
603.91	55174.82
604.268	55424.53
604.625	55440.35
604.983	55688.93
605.341	55611.65
605.698	55892.32
606.056	56104.29
606.413	56017.74
606.771	56226.54
607.128	56390.38
607.485	56345.86
607.843	56417.73
608.2	56676.25
608.557	56837.6
608.914	56819.97
609.272	56914.44
609.629	57169.57
609.986	57213.41
610.343	57206.18
610.7	57509.22
611.057	57510.58
611.414	57507.87
611.771	57709.9
612.127	57821.98
612.484	57873.73
612.841	57967.06
613.198	57967.74
613.554	58022.43
613.911	58277.79
614.267	58249.09
614.624	58329.99
614.98	58421.51
615.337	58661.96
615.693	58642.53
616.05	58697.89
616.406	58790.77
616.762	58820.6
617.118	58859.92
617.475	58895.4
617.831	58978.56
618.187	59153.47
618.543	59185.11
618.899	59348.72
619.255	59354.15
619.611	59305.11
619.967	59532.9
620.323	59561.6
620.678	59472.33
621.034	59471.2
621.39	59468.72
621.746	59598.66
622.101	59894.24
622.457	59626.68
622.812	59828.94
623.168	59794.36
623.523	59836.84
623.879	59939.44
624.234	59854.25
624.589	59918.88
624.945	59936.28
625.3	59968.82
625.655	60053.34
626.01	60069.61
626.365	60123.62
626.72	60053.56
627.075	60111.87
627.43	60093.11
627.785	60138.76
628.14	60102.37
628.495	60188.25
628.85	60215.59
629.205	60161.81
629.559	60224.18
629.914	60172.88
630.269	60191.19
630.623	60086.78
630.978	60082.94
631.332	60211.75
631.687	60180.79
632.041	60150.96
632.396	60192.99
632.75	60175.59
633.104	60166.33
633.459	60084.52
633.813	60074.8
634.167	60014.47
634.521	60061.02
634.875	60065.09
635.229	60035.26
635.583	59940.34
635.937	59980.34
636.291	59979.67
636.645	59921.59
636.999	59891.08
637.352	59980.57
637.706	59778.09
638.06	59934.24
638.413	59813.12
638.767	59749.84
639.121	59770.86
639.474	59655.38
639.828	59630.3
640.181	59667.81
640.534	59717.98
640.888	59575.83
641.241	59447.02
641.594	59591.2
641.947	59617.42
642.301	59522.05
642.654	59565.67
643.007	59465.1
643.36	59480.47
643.713	59437.31
644.066	59471.43
644.419	59379
644.771	59149.86
645.124	58802.52
645.477	58843.42
645.83	58728.63
646.182	58729.53
646.535	58654.5
646.888	58749.42
647.24	58622.64
647.593	58801.39
647.945	58659.25
648.298	58589.42
648.65	58563.66
649.002	58400.05
649.355	58390.1
649.707	58304
650.059	58429.2
650.411	58694.28
650.763	58783.99
651.115	59081.38
651.467	59031.67
651.819	58979.69
652.171	58938.79
652.523	58906.93
652.875	58890.2
653.227	58823.31
653.578	58961.61
653.93	58836.19
654.282	58730.21
654.633	58724.78
654.985	58734.95
655.337	58775.86
655.688	58743.99
656.039	58776.08
656.391	58553.49
656.742	58697.89
657.094	58580.15
657.445	58629.19
657.796	58634.62
658.147	58606.37
658.498	58550.78
658.849	58648.85
659.2	58567.73
659.551	58507.39
659.902	58612.92
660.253	58485.24
660.604	58539.03
660.955	58420.38
661.306	58521.4
661.656	58451.57
662.007	58457.22
662.358	58463.1
662.708	58437.79
663.059	58424.68
663.409	58249.09
663.76	58376.32
664.11	58417.9
664.461	58421.97
664.811	58442.98
665.161	58360.27
665.511	58314.4
665.862	58330.67
666.212	58367.5
666.562	58365.25
666.912	58407.73
667.262	58236.66
667.612	58212.93
667.962	58283.89
668.312	58290.9
668.662	58353.27
669.011	58303.55
669.361	58264.91
669.711	58216.55
670.06	58223.1
670.41	58189.88
670.76	58145.82
671.109	58292.48
671.459	58167.51
671.808	58186.49
672.157	58257.23
672.507	58059.72
672.856	58068.3
673.205	58139.94
673.554	58131.13
673.904	58034.63
674.253	58232.37
674.602	58133.84
674.951	57754.19
675.3	57670.8
675.649	58085.7
675.998	58112.37
676.346	58153.27
676.695	58122.99
677.044	57978.81
677.393	58001.86
677.741	58117.79
678.09	57982.66
678.438	57970.23
678.787	58027.63
679.135	57987.4
679.484	57849.33
679.832	57966.84
680.181	57934.07
680.529	57927.29
680.877	57798.93
681.225	57811.36
681.573	58061.52
681.922	57852.72
682.27	57790.57
682.618	57718.93
682.966	57664.7
683.314	57724.81
683.661	57721.65
684.009	57534.53
684.357	57571.59
684.705	57486.62
685.053	57592.61
685.4	57446.4
685.748	57347.87
686.095	57377.47
686.443	57264.26
686.79	57301.32
687.138	57412.05
687.485	57342.45
687.832	57273.97
688.18	57260.64
688.527	57205.05
688.874	57154.43
689.221	57125.73
689.568	57038.05
689.915	56983.36
690.262	57037.6
690.609	56936.81
690.956	56882.8
691.303	56813.87
691.65	56756.47
691.997	56627.21
692.344	56634.44
692.69	56531.62
693.037	56552.64
693.383	56387.67
693.73	56462.7
694.077	56229.48
694.423	56210.05
694.769	56209.37
695.116	56129.6
695.462	56061.12
695.808	55944.74
696.155	55951.52
696.501	55740.23
696.847	55871.3
697.193	55639.44
697.539	55808.93
697.885	55592.21
698.231	55525.77
698.577	55483.96
698.923	55433.12
699.269	55264.08
699.614	55234.48
699.96	55211.2
700.306	55160.81
700.651	55147.02
700.997	54947.71
701.342	55006.69
701.688	54910.65
702.033	54792.68
702.379	54857.54
702.724	54689.64
703.069	54772.57
703.415	54458.46
703.76	54494.84
704.105	54460.04
704.45	54397.44
704.795	54347.72
705.14	54213.26
705.485	54171.46
705.83	53980.28
706.175	54080.39
706.52	54002.2
706.865	53863.89
707.209	53848.53
707.554	53750.9
707.899	53783.67
708.243	53638.59
708.588	53599.04
708.932	53455.77
709.277	53489.22
709.621	53326.06
709.966	53075.67
710.31	53249.67
710.654	52999.06
710.998	53090.58
711.342	53053.52
711.687	52950.25
712.031	52855.11
712.375	52718.39
712.719	52658.05
713.063	52665.73
713.407	52812.62
713.75	52552.29
714.094	52561.56
714.438	52368.11
714.782	52389.58
715.125	52277.95
715.469	52472.52
715.812	52111.85
716.156	52119.31
716.499	51992.08
716.843	52094.68
717.186	51941.69
717.53	51992.76
717.873	51921.8
718.216	51860.11
718.559	51752.31
718.902	51488.36
719.246	51618.08
719.589	51479.32
719.932	51359.78
720.275	51365.2
720.617	51443.62
720.96	51266.67
721.303	51344.64
721.646	51200.69
721.989	51149.62
722.331	51171.08
722.674	51097.19
723.016	51127.24
723.359	50932.22
723.701	50960.02
724.044	50843.86
724.386	50635.05
724.729	50706.92
725.071	50700.36
725.413	50639.35
725.755	50697.2
726.097	50407.26
726.439	50356.19
726.782	50254.27
727.124	50560.48
727.465	50396.64
727.807	50166.59
728.149	50339.02
728.491	50054.73
728.833	50265.57
729.175	50063.54
729.516	49971.57
729.858	49915.52
730.199	50066.03
730.541	50026.48
730.882	49887.28
731.224	49908.07
731.565	49756.88
731.906	49746.26
732.248	49790.33
732.589	49495.42
732.93	49525.25
733.271	49409.55
733.612	49489.55
733.953	49547.85
734.294	49420.62
734.635	49195.09
734.976	49334.97
735.317	49232.15
735.658	49238.93
735.999	49137.92
736.339	49223.11
736.68	49037.58
737.021	49097.92
737.361	48923.23
737.702	49102.21
738.042	48828.32
738.383	48872.61
738.723	48872.61
739.063	48642.56
739.404	48924.36
739.744	48755.1
740.084	48680.53
740.424	48709.23
740.764	48633.07
741.104	48751.71
741.444	48557.82
741.784	48398.5
742.124	48558.95
742.464	48444.38
742.804	48366.64
743.143	48192.63
743.483	48282.57
743.823	47997.83
744.162	48102.46
744.502	48080.32
744.841	48021.56
745.181	48101.79
745.52	47956.48
745.86	47964.84
746.199	47812.53
746.538	47828.35
746.877	47849.82
747.216	47757.39
747.556	47689.59
747.895	47751.06
748.234	47583.83
748.573	47467.45
748.911	47591.07
749.25	47383.16
749.589	47266.33
749.928	47285.54
750.267	47391.07
750.605	47253.22
750.944	47195.14
751.283	47102.49
751.621	47108.14
751.96	46847.81
752.298	46827.47
752.636	46975.26
752.975	46846.23
753.313	46630.41
753.651	46761.71
753.989	46535.05
754.327	46497.99
754.666	46252.8
755.004	46401.04
