Data from 142_FLMS001491_008.txt Node
Date: Thu Apr 19 16:09:15 BST 2018
User: hsy
Spectrometer: FLMS00149
Trigger mode: 0
Integration Time (sec): 1.000000E-2
Scans to average: 10
Electric dark correction enabled: true
Nonlinearity correction enabled: false
Boxcar width: 0
XAxis mode: Wavelengths
Number of Pixels in Spectrum: 2048
>>>>>Begin Spectral Data<<<<<
341.393	-22.92
341.776	-22.92
342.16	-22.92
342.543	-74.67
342.927	-71.96
343.31	-63.37
343.693	-70.83
344.077	-84.62
344.46	-61.57
344.843	-68.8
345.226	-29.02
345.61	-32.64
345.993	-23.83
346.376	2.84
346.759	12.1
347.142	13.91
347.525	41.48
347.908	57.98
348.291	89.39
348.674	125.32
349.057	91.65
349.44	107.69
349.823	156.73
350.206	166.45
350.588	246.22
350.971	260.23
351.354	253.23
351.737	282.38
352.119	300.46
352.502	306.56
352.884	300.23
353.267	320.34
353.65	346.33
354.032	351.76
354.414	351.53
354.797	351.98
355.179	376.61
355.562	348.37
355.944	365.54
356.326	382.26
356.709	378.87
357.091	370.06
357.473	380.91
357.855	402.15
358.238	384.98
358.62	366.45
359.002	382.72
359.384	401.92
359.766	377.07
360.148	381.13
360.53	372.55
360.912	364.41
361.294	385.43
361.676	376.16
362.057	394.69
362.439	388.82
362.821	391.98
363.203	371.42
363.584	378.42
363.966	394.69
364.348	377.97
364.729	367.8
365.111	354.24
365.493	354.02
365.874	388.37
366.256	388.14
366.637	378.42
367.019	376.61
367.4	370.29
367.781	370.51
368.163	355.15
368.544	371.87
368.925	358.54
369.306	386.11
369.688	379.55
370.069	373
370.45	360.34
370.831	342.49
371.212	389.72
371.593	411.64
371.974	373
372.355	375.26
372.736	385.43
373.117	372.77
373.498	379.55
373.879	391.08
374.26	383.62
374.641	374.35
375.021	379.78
375.402	393.79
375.783	407.57
376.163	410.29
376.544	406.67
376.925	386.78
377.305	388.14
377.686	406.67
378.066	404.18
378.447	388.82
378.827	389.72
379.208	394.69
379.588	396.95
379.968	398.99
380.349	418.42
380.729	401.02
381.109	402.38
381.489	427.46
381.87	430.62
382.25	430.62
382.63	441.25
383.01	414.35
383.39	411.42
383.77	439.21
384.15	440.57
384.53	445.54
384.91	461.36
385.29	430.85
385.67	448.48
386.049	440.79
386.429	453.67
386.809	468.14
387.189	450.06
387.568	431.75
387.948	455.71
388.328	469.49
388.707	466.33
389.087	461.13
389.466	464.97
389.846	485.54
390.225	483.05
390.605	496.61
390.984	489.38
391.363	481.02
391.743	482.15
392.122	486.67
392.501	498.19
392.881	511.07
393.26	524.41
393.639	516.5
394.018	518.31
394.397	497.06
394.776	521.02
395.155	525.99
395.534	523.28
395.913	528.7
396.292	530.96
396.671	507.68
397.05	527.34
397.429	509.04
397.808	561.02
398.186	545.42
398.565	553.11
398.944	547.01
399.323	556.72
399.701	556.27
400.08	562.82
400.458	557.85
400.837	561.92
401.215	577.74
401.594	606.89
401.972	575.71
402.351	613.9
402.729	578.87
403.107	596.72
403.486	591.75
403.864	589.94
404.242	610.73
404.62	607.12
404.999	611.41
405.377	622.48
405.755	617.29
406.133	632.43
406.511	613.44
406.889	643.95
407.267	654.57
407.645	664.97
408.023	676.27
408.401	685.76
408.779	670.62
409.156	681.92
409.534	685.31
409.912	688.24
410.29	695.93
410.667	716.04
411.045	721.01
411.422	736.15
411.8	710.62
412.178	756.94
412.555	744.97
412.933	762.14
413.31	773.21
413.687	767.11
414.065	766.89
414.442	770.5
414.819	821.35
415.197	784.74
415.574	829.03
415.951	816.38
416.328	844.62
416.705	831.74
417.082	817.96
417.46	827.45
417.837	851.18
418.214	862.48
418.591	862.48
418.967	852.53
419.344	874
419.721	865.64
420.098	875.13
420.475	900.67
420.852	902.93
421.228	911.74
421.605	931.18
421.982	906.32
422.358	922.81
422.735	933.89
423.111	928.01
423.488	940.44
423.864	977.05
424.241	978.63
424.617	978.41
424.994	971.85
425.37	963.94
425.746	1000.78
426.123	987.22
426.499	1036.26
426.875	1009.59
427.251	1039.2
427.627	1034.45
428.003	1034.68
428.379	1077.61
428.756	1064.51
429.132	1059.76
429.507	1085.75
429.883	1083.71
430.259	1111.74
430.635	1131.17
431.011	1144.5
431.387	1155.35
431.763	1183.82
432.138	1174.11
432.514	1191.51
432.89	1213.65
433.265	1208.91
433.641	1237.38
434.016	1208.91
434.392	1280.09
434.767	1263.37
435.143	1283.03
435.518	1288.23
435.894	1320.77
436.269	1329.58
436.644	1351.96
437.02	1346.31
437.395	1308.79
437.77	1375.46
438.145	1400.99
438.52	1392.18
438.895	1384.27
439.271	1406.87
439.646	1410.49
440.021	1455.23
440.395	1446.64
440.77	1428.34
441.145	1438.73
441.52	1451.39
441.895	1473.76
442.27	1477.83
442.645	1482.8
443.019	1494.55
443.394	1519.18
443.769	1512.86
444.143	1512.86
444.518	1539.52
444.892	1536.36
445.267	1529.8
445.641	1529.58
446.016	1576.13
446.39	1556.7
446.764	1581.78
447.139	1577.26
447.513	1572.52
447.887	1635.11
448.262	1611.84
448.636	1625.85
449.01	1632.85
449.384	1624.27
449.758	1638.28
450.132	1676.24
450.506	1690.25
450.88	1702
451.254	1703.59
451.628	1738.61
452.002	1737.71
452.376	1743.58
452.75	1776.8
453.123	1811.6
453.497	1819.06
453.871	1836.91
454.244	1873.52
454.618	1906.29
454.992	1895.9
455.365	1909.91
455.739	1948.55
456.112	1957.14
456.486	2006.18
456.859	2008.21
457.232	2050.69
457.606	2049.11
457.979	2080.75
458.352	2146.06
458.725	2137.47
459.099	2116.68
459.472	2165.27
459.845	2197.58
460.218	2259.95
460.591	2257.92
460.964	2280.07
461.337	2320.74
461.71	2377.92
462.083	2366.62
462.456	2405.94
462.829	2402.32
463.201	2440.06
463.574	2399.39
463.947	2478.93
464.32	2523.22
464.692	2519.83
465.065	2515.32
465.438	2555.09
465.81	2612.04
466.183	2634.86
466.555	2692.03
466.928	2723.45
467.3	2721.64
467.672	2754.63
468.045	2821.3
468.417	2835.76
468.789	2851.13
469.161	2872.14
469.534	2901.52
469.906	2935.87
470.278	2967.05
470.65	3035.3
471.022	3044.57
471.394	3132.93
471.766	3141.51
472.138	3171.34
472.51	3256.09
472.882	3281.17
473.253	3284.33
473.625	3344.9
473.997	3413.37
474.369	3447.95
474.74	3477.55
475.112	3565.01
475.484	3587.83
475.855	3668.96
476.227	3739.01
476.598	3805.9
476.97	3871.44
477.341	3911.21
477.713	3965.9
478.084	4037.76
478.455	4103.07
478.827	4183.07
479.198	4293.12
479.569	4255.83
479.94	4392.78
480.311	4472.1
480.682	4596.39
481.053	4720
481.424	4762.49
481.795	4812.43
482.166	4951.64
482.537	5005.65
482.908	5081.8
483.279	5210.61
483.65	5327.22
484.021	5414
484.391	5496.93
484.762	5545.97
485.133	5651.05
485.503	5717.04
485.874	5871.61
486.244	5971.95
486.615	6111.83
486.985	6197.7
487.356	6327.64
487.726	6393.63
488.097	6610.12
488.467	6693.74
488.837	6868.42
489.207	6979.38
489.578	7076.78
489.948	7243.78
490.318	7382.76
490.688	7454.85
491.058	7625.24
491.428	7782.07
491.798	7880.37
492.168	8096.19
492.538	8256.41
492.908	8383.18
493.278	8576.4
493.648	8615.49
494.017	8892.77
494.387	9049.38
494.757	9119.21
495.126	9267
495.496	9391.52
495.866	9633.09
496.235	9789.02
496.605	10005.29
496.974	10063.82
497.344	10304.04
497.713	10402.34
498.082	10596.23
498.452	10721.88
498.821	10913.96
499.19	11047.97
499.559	11260.17
499.928	11383.1
500.298	11518.47
500.667	11812.47
501.036	11992.35
501.405	12132.92
501.774	12319.13
502.143	12504.88
502.512	12666.69
502.88	12924.31
503.249	12975.61
503.618	13220.12
503.987	13347.12
504.356	13588.47
504.724	13762.03
505.093	13855.13
505.462	14050.61
505.83	14223.71
506.199	14423.25
506.567	14775.11
506.936	14820.08
507.304	15049.9
507.672	15324.02
508.041	15289.67
508.409	15589.32
508.777	15817.11
509.145	16055.3
509.514	16185.24
509.882	16305.24
510.25	16515.4
510.618	16632.91
510.986	16804.21
511.354	17013.69
511.722	17306.56
512.09	17486.45
512.458	17518.76
512.826	17734.8
513.193	17860.45
513.561	18116.49
513.929	18215.02
514.297	18366.65
514.664	18693.87
515.032	18767.32
515.4	18875.79
515.767	19156.01
516.135	19196.46
516.502	19291.6
516.869	19696.33
517.237	19751.47
517.604	19756.22
517.972	20213.38
518.339	20207.05
518.706	20433.26
519.073	20596.65
519.44	20708.96
519.808	20955.73
520.175	21117.54
520.542	21263.07
520.909	21460.13
521.276	21602.5
521.643	21931.08
522.009	22042.71
522.376	22203.39
522.743	22361.8
523.11	22687.89
523.477	22891.05
523.843	23015.34
524.21	23276.58
524.577	23564.71
524.943	23749.33
525.31	23905.49
525.676	24139.61
526.043	24308.19
526.409	24402.2
526.776	24652.13
527.142	24882.64
527.508	25059.58
527.874	25233.36
528.241	25451.89
528.607	25599.91
528.973	25892.33
529.339	26028.82
529.705	26296.84
530.071	26535.47
530.437	26635.58
530.803	26812.08
531.169	26998.06
531.535	26997.16
531.901	27230.15
532.267	27303.59
532.632	27578.84
532.998	27711.04
533.364	27824.25
533.73	27882.78
534.095	28183.57
534.461	28386.27
534.826	28404.8
535.192	28560.28
535.557	28781.07
535.923	28788.97
536.288	29058.12
536.653	29213.14
537.019	29245.91
537.384	29431.9
537.749	29465.12
538.114	29481.39
538.479	29581.95
538.845	29788.27
539.21	29807.48
539.575	29830.76
539.94	29908.95
540.305	30122.27
540.67	30315.71
541.034	30346.9
541.399	30411.53
541.764	30617.85
542.129	30669.83
542.494	30748.02
542.858	30864.85
543.223	30912.53
543.587	30963.15
543.952	30965.19
544.316	31219.42
544.681	31180.32
545.045	31510.26
545.41	31615.57
545.774	31540.77
546.138	31501.22
546.503	31675.23
546.867	31908.89
547.231	31971.49
547.595	32043.35
547.959	32136.23
548.324	32101.2
548.688	32293.06
549.052	32318.37
549.416	32317.92
549.779	32507.52
550.143	32718.59
550.507	32950
550.871	32973.95
551.235	32926.27
551.599	33180.72
551.962	33184.34
552.326	33344.79
552.689	33485.57
553.053	33263.43
553.417	33549.3
553.78	33837.2
554.143	33900.25
554.507	34063.41
554.87	34175.73
555.234	34487.58
555.597	34245.33
555.96	34365.78
556.323	34542.04
556.686	34649.84
557.05	34824.07
557.413	34940.9
557.776	34928.7
558.139	35274.45
558.502	35476.93
558.865	35381.34
559.228	35705.63
559.59	35699.3
559.953	35743.14
560.316	36230.59
560.679	36136.8
561.041	36457.02
561.404	36572.5
561.767	36764.36
562.129	36683.91
562.492	37202.09
562.854	37140.39
563.217	37335.87
563.579	37447.96
563.941	37593.94
564.304	37741.73
564.666	38069.18
565.028	38114.38
565.39	38237.54
565.753	38512.56
566.115	38580.58
566.477	38752.1
566.839	38884.75
567.201	39200.45
567.563	39173.79
567.925	39592.53
568.287	39494.46
568.648	39761.79
569.01	40098.73
569.372	40191.39
569.734	40152.07
570.095	40388.22
570.457	40689.68
570.819	40757.02
571.18	40739.62
571.542	41075.66
571.903	41312.71
572.265	41536.66
572.626	41708.63
572.987	41726.71
573.349	41919.93
573.71	42289.64
574.071	42354.04
574.432	42524.88
574.794	42886.91
575.155	42857.53
575.516	43145.21
575.877	43288.03
576.238	43260.23
576.599	43502.26
576.96	43616.61
577.32	43839.43
577.681	44002.36
578.042	44135.69
578.403	44382.01
578.763	44405.51
579.124	44540.2
579.485	44944.93
579.845	45137.7
580.206	45094.76
580.566	45326.62
580.927	45578.14
581.287	45749.43
581.648	45760.05
582.008	46045.47
582.368	46291.11
582.728	46329.08
583.089	46622.63
583.449	46738.56
583.809	46846.13
584.169	47142.84
584.529	47182.16
584.889	47602.04
585.249	47600.91
585.609	47443.17
585.969	48005.42
586.329	48066.89
586.688	48320.21
587.048	48430.94
587.408	48662.58
587.768	48797.94
588.127	48992.29
588.487	49220.3
588.846	49638.37
589.206	49403.8
589.565	49652.61
589.925	50110
590.284	50058.7
590.643	50345.02
591.003	50541.17
591.362	50782.07
591.721	50835.4
592.08	51079.46
592.44	51293.47
592.799	51332.79
593.158	51485.1
593.517	51594.93
593.876	51938.42
594.235	51991.53
594.593	52214.57
594.952	52415.25
595.311	52372.08
595.67	52718.74
596.029	52936.59
596.387	53138.62
596.746	53275.34
597.104	53276.69
597.463	53375.67
597.822	53740.41
598.18	53746.96
598.538	53845.94
598.897	54135.65
599.255	54022.89
599.613	54644.57
599.972	54456.55
600.33	54652.02
600.688	54666.03
601.046	54904.67
601.404	55180.15
601.762	55215.4
602.12	55421.27
602.478	55505.56
602.836	55590.98
603.194	55539.91
603.552	55777.87
603.91	55674.37
604.268	56038.88
604.625	55992.1
604.983	56259.66
605.341	56203.17
605.698	56437.06
606.056	56669.6
606.413	56575.59
606.771	56956.6
607.128	56876.15
607.485	56897.61
607.843	57028.23
608.2	57137.16
608.557	57395.91
608.914	57346.64
609.272	57558.16
609.629	57653.07
609.986	57805.16
610.343	57840.87
610.7	58044.25
611.057	58093.29
611.414	57990.24
611.771	58228.43
612.127	58333.96
612.484	58408.53
612.841	58520.62
613.198	58508.19
613.554	58503.22
613.911	58739.37
614.267	58793.16
614.624	58834.51
614.98	59004.68
615.337	59136.43
615.693	59101.62
616.05	59144.11
616.406	59298.68
616.762	59321.28
617.118	59342.52
617.475	59373.03
617.831	59493.48
618.187	59586.13
618.543	59569.41
618.899	59789.97
619.255	59755.17
619.611	59743.87
619.967	59931.43
620.323	59984.76
620.678	59882.17
621.034	59922.85
621.39	59931.43
621.746	60024.31
622.101	60246.9
622.457	60039.23
622.812	60251.2
623.168	60363.51
623.523	60304.98
623.879	60331.42
624.234	60246.23
624.589	60391.76
624.945	60433.34
625.3	60443.06
625.655	60511.08
626.01	60547.24
626.365	60517.18
626.72	60473.57
627.075	60477.18
627.43	60523.73
627.785	60526.9
628.14	60521.93
628.495	60599.21
628.85	60631.3
629.205	60534.13
629.559	60703.84
629.914	60549.04
630.269	60545.2
630.623	60497.97
630.978	60507.91
631.332	60597.86
631.687	60636.05
632.041	60510.4
632.396	60549.5
632.75	60505.88
633.104	60560.12
633.459	60458.2
633.813	60498.88
634.167	60426.11
634.521	60491.19
634.875	60414.36
635.229	60458.42
635.583	60333
635.937	60357.86
636.291	60303.63
636.645	60331.65
636.999	60265.21
637.352	60343.63
637.706	60203.74
638.06	60306.56
638.413	60189.05
638.767	60138.66
639.121	60166
639.474	60082.84
639.828	60077.87
640.181	60094.82
640.534	60130.07
640.888	59989.96
641.241	59961.04
641.594	59949.96
641.947	60014.14
642.301	59908.61
642.654	59969.62
643.007	59882.17
643.36	59908.16
643.713	59890.08
644.066	59957.65
644.419	59800.59
644.771	59555.17
645.124	59304.56
645.477	59355.85
645.83	59140.94
646.182	59197.67
646.535	59140.27
646.888	59188.63
647.24	59088.74
647.593	59178.46
647.945	59053.26
648.298	58990.89
648.65	58877.45
649.002	58866.38
649.355	58774.4
649.707	58722.88
650.059	58747.51
650.411	59072.25
650.763	59214.84
651.115	59487.83
651.467	59350.43
651.819	59442.63
652.171	59287.61
652.523	59241.06
652.875	59305.23
653.227	59189.08
653.578	59336.65
653.93	59305.46
654.282	59144.79
654.633	59131
654.985	59159.25
655.337	59169.42
655.688	59119.7
656.039	59274.27
656.391	58953.15
656.742	59007.16
657.094	59032.25
657.445	59067.05
657.796	59034.06
658.147	58952.7
658.498	59015.3
658.849	59029.08
659.2	58942.53
659.551	58883.55
659.902	58968.97
660.253	58863.66
660.604	58887.62
660.955	58778.69
661.306	58853.95
661.656	58841.74
662.007	58772.82
662.358	58822.99
662.708	58793.38
663.059	58694.85
663.409	58665.25
663.76	58760.39
664.11	58754.97
664.461	58797.23
664.811	58720.17
665.161	58760.16
665.511	58646.49
665.862	58692.37
666.212	58691.24
666.562	58667.96
666.912	58627.96
667.262	58636.55
667.612	58612.37
667.962	58653.73
668.312	58563.11
668.662	58672.03
669.011	58640.62
669.361	58585.03
669.711	58599.26
670.06	58571.92
670.41	58540.96
670.76	58492.83
671.109	58583.45
671.459	58545.93
671.808	58446.5
672.157	58555.42
672.507	58401.76
672.856	58394.3
673.205	58399.27
673.554	58512.71
673.904	58379.84
674.253	58525.37
674.602	58448.99
674.951	58121.99
675.3	57980.98
675.649	58416.67
675.998	58384.35
676.346	58426.61
676.695	58412.15
677.044	58279.95
677.393	58353.4
677.741	58423
678.09	58336.9
678.438	58316.11
678.787	58363.11
679.135	58361.08
679.484	58133.51
679.832	58297.8
680.181	58137.81
680.529	58247.41
680.877	58082.44
681.225	58106.85
681.573	58268.88
681.922	57999.96
682.27	58050.58
682.618	58059.39
682.966	58016
683.314	58042.22
683.661	57979.39
684.009	57914.99
684.357	57825.05
684.705	57853.07
685.053	57854.88
685.4	57837.7
685.748	57768.1
686.095	57784.6
686.443	57620.08
686.79	57619.63
687.138	57642
687.485	57666.63
687.832	57582.79
688.18	57583.7
688.527	57526.98
688.874	57464.15
689.221	57451.95
689.568	57369.24
689.915	57292.86
690.262	57353.87
690.609	57234.55
690.956	57090.83
691.303	57093.77
691.65	57106.65
691.997	57094.45
692.344	56934
692.69	56898.07
693.037	56967.67
693.383	56696.04
693.73	56788.46
694.077	56673.21
694.423	56715.25
694.769	56599.54
695.116	56644.97
695.462	56478.87
695.808	56409.94
696.155	56407.68
696.501	56220.34
696.847	56362.71
697.193	56143.28
697.539	56189.38
697.885	55934.02
698.231	55957.98
698.577	55965.66
698.923	55881.37
699.269	55722.5
699.614	55750.53
699.96	55651.32
700.306	55606.12
700.651	55494.49
700.997	55442.96
701.342	55413.59
701.688	55327.71
702.033	55208.84
702.379	55221.73
702.724	55098.11
703.069	55167.04
703.415	54816.54
703.76	54836.65
704.105	54922.98
704.45	54828.74
704.795	54698.8
705.14	54523.67
705.485	54570.22
705.83	54495.42
706.175	54582.65
706.52	54492.93
706.865	54376.55
707.209	54224.24
707.554	54266.27
707.899	54199.15
708.243	53983.11
708.588	54013.62
708.932	53868.54
709.277	53930.91
709.621	53737.92
709.966	53599.4
710.31	53742.89
710.654	53476.46
710.998	53546.06
711.342	53576.8
711.687	53450.02
712.031	53338.39
712.375	53267.88
712.719	53237.37
713.063	53134.55
713.407	53255.68
713.75	53071.05
714.094	53045.06
714.438	52891.84
714.782	52890.49
715.125	52700.89
715.469	52894.33
715.812	52669.7
716.156	52586.32
716.499	52502.93
716.843	52581.57
717.186	52339.09
717.53	52560.78
717.873	52366.21
718.216	52325.76
718.559	52208.02
718.902	51947.91
719.246	51999.89
719.589	51945.2
719.932	51877.41
720.275	51877.41
720.617	51836.96
720.96	51796.28
721.303	51760.12
721.646	51893
721.989	51609.62
722.331	51749.05
722.674	51566
723.016	51524.87
723.359	51382.05
723.701	51440.81
724.044	51441.94
724.386	51232.23
724.729	51287.37
725.071	51262.06
725.413	51228.84
725.755	51136.18
726.097	51128.95
726.439	50954.04
726.782	50834.95
727.124	51038.56
727.465	50825.91
727.807	50809.64
728.149	50826.14
728.491	50681.05
728.833	50698.68
729.175	50679.02
729.516	50500.04
729.858	50345.7
730.199	50499.82
730.541	50409.88
730.882	50295.3
731.224	50411.46
731.565	50247.17
731.906	50190.22
732.248	50248.07
732.589	50030.9
732.93	50033.84
733.271	50049.21
733.612	50089.43
733.953	50050.34
734.294	49844.01
734.635	49752.49
734.976	49964.24
735.317	49659.84
735.658	49690.57
735.999	49612.61
736.339	49614.87
736.68	49641.99
737.021	49579.61
737.361	49580.29
737.702	49645.15
738.042	49485.15
738.383	49389.34
738.723	49481.99
739.063	49188.89
739.404	49467.08
739.744	49259.62
740.084	49172.85
740.424	49185.73
740.764	49134.2
741.104	49261.88
741.444	49005.17
741.784	48850.37
742.124	49000.65
742.464	48856.92
742.804	48840.65
743.143	48749.58
743.483	48874.77
743.823	48520.66
744.162	48618.28
744.502	48624.39
744.841	48534.67
745.181	48575.12
745.52	48517.72
745.86	48387.33
746.199	48441.34
746.538	48336.71
746.877	48425.97
747.216	48369.93
747.556	48164.51
747.895	48205.64
748.234	47989.15
748.573	48014.23
748.911	47915.03
749.25	47936.95
749.589	47813.56
749.928	47963.16
750.267	47836.38
750.605	47660.57
750.944	47686.78
751.283	47582.15
751.621	47505.54
751.96	47395.94
752.298	47328.6
752.636	47414.25
752.975	47202.95
753.313	47098.55
753.651	47451.99
753.989	47073.47
754.327	47198.66
754.666	46828.73
755.004	46946.24
