Data from 15-0543_FLMS001491_005.txt Node
Date: Thu Apr 19 15:41:57 BST 2018
User: hsy
Spectrometer: FLMS00149
Trigger mode: 0
Integration Time (sec): 1.000000E-2
Scans to average: 10
Electric dark correction enabled: true
Nonlinearity correction enabled: false
Boxcar width: 0
XAxis mode: Wavelengths
Number of Pixels in Spectrum: 2048
>>>>>Begin Spectral Data<<<<<
341.393	0.88
341.776	0.88
342.16	0.88
342.543	-41.38
342.927	-65.56
343.31	-60.37
343.693	-84.55
344.077	-58.78
344.46	-59.69
344.843	-54.04
345.226	-38.67
345.61	-29.41
345.993	-27.82
346.376	-7.49
346.759	13.98
347.142	28.67
347.525	40.42
347.908	32.51
348.291	72.06
348.674	105.05
349.057	128.1
349.44	144.83
349.823	148.44
350.206	159.52
350.588	223.92
350.971	248.1
351.354	274.99
351.737	259.63
352.119	278.38
352.502	283.13
352.884	324.93
353.267	335.33
353.65	323.58
354.032	354.54
354.414	334.65
354.797	356.35
355.179	372.17
355.562	364.03
355.944	369
356.326	389.34
356.709	378.49
357.091	383.92
357.473	388.21
357.855	385.27
358.238	385.72
358.62	401.77
359.002	403.8
359.384	381.43
359.766	403.58
360.148	393.86
360.53	393.41
360.912	391.6
361.294	383.69
361.676	383.46
362.057	381.43
362.439	381.88
362.821	379.17
363.203	371.94
363.584	382.11
363.966	384.37
364.348	388.44
364.729	378.49
365.111	362.67
365.493	361.32
365.874	385.05
366.256	376.23
366.637	380.75
367.019	376.69
367.4	365.84
367.781	371.94
368.163	396.12
368.544	383.01
368.925	381.43
369.306	397.25
369.688	357.02
370.069	371.26
370.45	370.13
370.831	366.29
371.212	376.46
371.593	375.78
371.974	395.44
372.355	384.14
372.736	374.65
373.117	387.53
373.498	405.16
373.879	373.97
374.26	360.19
374.641	389.34
375.021	416.46
375.402	405.84
375.783	411.49
376.163	413.97
376.544	409.23
376.925	397.93
377.305	402.9
377.686	392.73
378.066	412.62
378.447	409
378.827	397.48
379.208	427.98
379.588	402.22
379.968	406.74
380.349	421.66
380.729	418.27
381.109	431.15
381.489	432.05
381.87	424.82
382.25	411.71
382.63	425.72
383.01	418.72
383.39	444.03
383.77	402.45
384.15	440.86
384.53	455.1
384.91	443.8
385.29	453.52
385.67	442.45
386.049	455.55
386.429	429.79
386.809	457.81
387.189	475.44
387.568	474.31
387.948	488.77
388.328	459.62
388.707	462.56
389.087	461.88
389.466	483.35
389.846	480.19
390.225	492.16
390.605	492.39
390.984	493.29
391.363	479.51
391.743	496.68
392.122	495.78
392.501	501.43
392.881	506.17
393.26	521.54
393.639	520.86
394.018	535.32
394.397	530.81
394.776	544.14
395.155	538.49
395.534	529.9
395.913	530.58
396.292	539.62
396.671	537.13
397.05	549.34
397.429	554.08
397.808	554.08
398.186	564.25
398.565	553.4
398.944	547.08
399.323	588.2
399.701	554.76
400.08	564.48
400.458	570.8
400.837	572.61
401.215	583.69
401.594	565.61
401.972	600.41
402.351	598.37
402.729	576.68
403.107	589.79
403.486	599.05
403.864	609
404.242	621.2
404.62	624.59
404.999	621.2
405.377	619.16
405.755	637.47
406.133	649.9
406.511	644.25
406.889	631.37
407.267	651.71
407.645	671.37
408.023	673.63
408.401	689.22
408.779	684.7
409.156	672.5
409.534	704.59
409.912	691.48
410.29	729.44
410.667	735.32
411.045	719.5
411.422	730.35
411.8	717.24
412.178	739.84
412.555	754.3
412.933	736.68
413.31	755.43
413.687	769.22
414.065	766.51
414.442	803.11
414.819	799.05
415.197	792.72
415.574	759.95
415.951	831.81
416.328	801.76
416.705	824.58
417.082	831.59
417.46	834.75
417.837	844.47
418.214	840.4
418.591	837.24
418.967	854.86
419.344	848.09
419.721	857.58
420.098	852.15
420.475	857.58
420.852	890.57
421.228	891.02
421.605	876.78
421.982	886.95
422.358	877.01
422.735	924.24
423.111	924.92
423.488	928.53
423.864	940.96
424.241	936.9
424.617	969.21
424.994	934.86
425.37	973.51
425.746	954.75
426.123	969.66
426.499	983.45
426.875	993.39
427.251	1005.37
427.627	1035.2
428.003	1001.75
428.379	1034.75
428.756	1076.78
429.132	1046.95
429.507	1058.7
429.883	1067.97
430.259	1065.03
430.635	1124.24
431.011	1133.73
431.387	1131.47
431.763	1135.54
432.138	1127.85
432.514	1142.54
432.89	1164.91
433.265	1160.62
433.641	1177.57
434.016	1213.27
434.392	1206.04
434.767	1216.44
435.143	1234.29
435.518	1248.98
435.894	1258.24
436.269	1254.63
436.644	1288.75
437.02	1297.34
437.395	1298.24
437.77	1318.13
438.145	1357.22
438.52	1335.3
438.895	1359.26
439.271	1379.37
439.646	1360.61
440.021	1393.61
440.395	1361.97
440.77	1380.73
441.145	1420.73
441.52	1425.47
441.895	1413.27
442.27	1443.32
442.645	1436.77
443.019	1460.95
443.394	1448.97
443.769	1458.24
444.143	1467.05
444.518	1469.99
444.892	1474.51
445.267	1491.91
445.641	1486.03
446.016	1507.95
446.39	1525.36
446.764	1537.33
447.139	1518.35
447.513	1552.25
447.887	1578.91
448.262	1565.81
448.636	1580.04
449.01	1593.15
449.384	1593.83
449.758	1597.67
450.132	1633.15
450.506	1658.91
450.88	1661.62
451.254	1639.7
451.628	1698.46
452.002	1693.49
452.376	1727.38
452.75	1721.51
453.123	1747.04
453.497	1766.03
453.871	1766.7
454.244	1819.81
454.618	1817.55
454.992	1848.96
455.365	1867.27
455.739	1890.54
456.112	1896.19
456.486	1949.07
456.859	1948.85
457.232	1977.32
457.606	1999.69
457.979	2030.88
458.352	2027.04
458.725	2069.75
459.099	2100.71
459.472	2130.54
459.845	2151.78
460.218	2162.63
460.591	2209.86
460.964	2226.13
461.337	2244.88
461.71	2284.66
462.083	2312.45
462.456	2321.94
462.829	2315.62
463.201	2392.45
463.574	2378.44
463.947	2391.77
464.32	2445.11
464.692	2485.1
465.065	2507.7
465.438	2541.37
465.81	2561.03
466.183	2597.42
466.555	2606.23
466.928	2677.19
467.3	2667.02
467.672	2669.51
468.045	2748.37
468.417	2738.66
468.789	2761.48
469.161	2804.87
469.534	2835.83
469.906	2877.64
470.278	2926.22
470.65	2952.66
471.022	3024.07
471.394	3078.08
471.766	3072.21
472.138	3099.55
472.51	3157.85
472.882	3233.11
473.253	3264.97
473.625	3291.41
473.997	3352.43
474.369	3411.41
474.74	3432.2
475.112	3473.1
475.484	3557.62
475.855	3626.77
476.227	3653.66
476.598	3816.82
476.97	3812.75
477.341	3851.85
477.713	3944.95
478.084	3972.07
478.455	4074.89
478.827	4113.31
479.198	4211.16
479.569	4262.23
479.94	4376.35
480.311	4397.82
480.682	4544.49
481.053	4612.51
481.424	4667.65
481.795	4763.69
482.166	4846.17
482.537	4950.12
482.908	5067.41
483.279	5112.83
483.65	5254.97
484.021	5333.62
484.391	5439.38
484.762	5474.63
485.133	5601.18
485.503	5706.04
485.874	5786.94
486.244	5949.65
486.615	6035.07
486.985	6158
487.356	6322.29
487.726	6352.8
488.097	6569.52
488.467	6622.4
488.837	6804.76
489.207	6938.09
489.578	7024.19
489.948	7181.48
490.318	7340.57
490.688	7453.11
491.058	7654.23
491.428	7815.13
491.798	7883.61
492.168	8132.41
492.538	8269.13
492.908	8371.05
493.278	8546.87
493.648	8674.32
494.017	8912.96
494.387	9075.21
494.757	9262.78
495.126	9446.73
495.496	9543.22
495.866	9707.51
496.235	9935.53
496.605	10102.98
496.974	10286.48
497.344	10514.05
497.713	10668.84
498.082	10859.35
498.452	11036.97
498.821	11221.15
499.19	11423.17
499.559	11630.63
499.928	11845.99
500.298	12059.09
500.667	12330.49
501.036	12391.51
501.405	12633.09
501.774	12870.14
502.143	13085.05
502.512	13307.87
502.88	13612.95
503.249	13701.53
503.618	13952.15
503.987	14128.64
504.356	14396.43
504.724	14724.1
505.093	14778.11
505.462	15022.63
505.83	15200.7
506.199	15576.06
506.567	15891.31
506.936	16015.6
507.304	16352.08
507.672	16561.34
508.041	16702.81
508.409	17095.34
508.777	17224.83
509.145	17514.77
509.514	17631.82
509.882	17951.82
510.25	18116.56
510.618	18396.55
510.986	18552.7
511.354	18839.02
511.722	19039.47
512.09	19297.77
512.458	19429.97
512.826	19769.62
513.193	19911.09
513.561	20129.61
513.929	20234.02
514.297	20623.16
514.664	20706.09
515.032	20938.4
515.4	21108.8
515.767	21353.53
516.135	21600.31
516.502	21599.86
516.869	22027.64
517.237	22177.47
517.604	22132.5
517.972	22558.02
518.339	22589.21
518.706	22961.85
519.073	22986.94
519.44	23193.94
519.808	23625.57
520.175	23498.11
520.542	23880.02
520.909	24037.31
521.276	24265.32
521.643	24459.22
522.009	24616.73
522.376	24934.91
522.743	24974.68
523.11	25387.33
523.477	25629.58
523.843	25710.93
524.21	26137.59
524.577	26290.35
524.943	26417.81
525.31	26511.14
525.676	26948.42
526.043	27112.03
526.409	27269.54
526.776	27462.53
527.142	27585.91
527.508	27878.33
527.874	28088.72
528.241	28199.68
528.607	28257.08
528.973	28659.33
529.339	28682.16
529.705	28998.53
530.071	29139.77
530.437	29250.28
530.803	29550.83
531.169	29675.8
531.535	29762.58
531.901	29975.91
532.267	29979.97
532.632	30200.53
532.998	30322.11
533.364	30406.86
533.73	30573.41
534.095	30957.12
534.461	30762.78
534.826	30928.42
535.192	31148.08
535.557	31316.89
535.923	31238.47
536.288	31432.14
536.653	31605.24
537.019	31458.58
537.384	31593.27
537.749	31662.42
538.114	31851.11
538.479	31851.56
538.845	31864.67
539.21	31918.91
539.575	32061.5
539.94	32023.99
540.305	32261.95
540.67	32214.94
541.034	32284.55
541.399	32339.01
541.764	32445.9
542.129	32510.53
542.494	32583.97
542.858	32659.45
543.223	32634.59
543.587	32850.86
543.952	32788.04
544.316	32881.37
544.681	32792.1
545.045	33003.17
545.41	33152.55
545.774	33105.99
546.138	33137.18
546.503	33219.44
546.867	33279.1
547.231	33368.81
547.595	33504.63
547.959	33415.14
548.324	33390.05
548.688	33463.95
549.052	33496.04
549.416	33546.66
549.779	33663.95
550.143	33738.97
550.507	33882.24
550.871	33843.15
551.235	33860.78
551.599	34064.61
551.962	33985.97
552.326	34077.49
552.689	34299.86
553.053	34077.95
553.417	34076.59
553.78	34462.79
554.143	34431.61
554.507	34476.13
554.87	34592.28
555.234	34874.08
555.597	34771.71
555.96	34706.63
556.323	34917.7
556.686	34935.32
557.05	35052.38
557.413	35093.74
557.776	35174.19
558.139	35382.09
558.502	35287.63
558.865	35341.42
559.228	35751.8
559.59	35660.95
559.953	35554.52
560.316	36159.47
560.679	35897.78
561.041	36036.99
561.404	36260.04
561.767	36453.7
562.129	36269.75
562.492	36651.44
562.854	36473.14
563.217	36554.72
563.579	36747.71
563.941	36877.42
564.304	37056.17
564.666	37206
565.028	37280.57
565.39	37227.92
565.753	37392.89
566.115	37500.45
566.477	37811.18
566.839	37823.84
567.201	38081
567.563	38044.4
567.925	38234.45
568.287	38227.89
568.648	38229.25
569.01	38477.15
569.372	38800.76
569.734	38802.79
570.095	38994.88
570.457	39091.15
570.819	39103.8
571.18	39035.78
571.542	39437.8
571.903	39438.48
572.265	39584.47
572.626	39770
572.987	39778.13
573.349	39953.5
573.71	40095.64
574.071	40110.56
574.432	40238.01
574.794	40606.36
575.155	40456.31
575.516	40499.02
575.877	40731.1
576.238	40760.26
576.599	40915.28
576.96	41002.96
577.32	40967.03
577.681	41190.08
578.042	41387.36
578.403	41384.19
578.763	41442.27
579.124	41422.16
579.485	41764.07
579.845	41896.27
580.206	41829.15
580.566	41854.92
580.927	41870.06
581.287	41991.18
581.648	42003.84
582.008	42232.99
582.368	42278.18
582.728	42329.48
583.089	42264.85
583.449	42318.86
583.809	42386.88
584.169	42641.56
584.529	42488.57
584.889	42916.81
585.249	42793.42
585.609	42533.77
585.969	42853.53
586.329	42851.95
586.688	42976.24
587.048	42996.13
587.408	43062.79
587.768	43060.99
588.127	43163.58
588.487	43184.6
588.846	43469.79
589.206	43184.37
589.565	43329
589.925	43650.12
590.284	43492.39
590.643	43661.65
591.003	43625.94
591.362	43951.13
591.721	43944.35
592.08	43860.97
592.44	44030.45
592.799	43971.24
593.158	44083.56
593.517	44011.7
593.876	44246.27
594.235	44270.45
594.593	44402.65
594.952	44421.4
595.311	44481.06
595.67	44391.12
596.029	44754.95
596.387	44794.27
596.746	45004.44
597.104	44711.34
597.463	44899.13
597.822	44983.87
598.18	44956.53
598.538	44883.09
598.897	45287.37
599.255	44907.49
599.613	45623.18
599.972	45315.16
600.33	45444.65
600.688	45367.37
601.046	45486.23
601.404	45805.32
601.762	45747.92
602.12	45865.88
602.478	45888.71
602.836	46045.31
603.194	45715.15
603.552	46158.76
603.91	46056.39
604.268	46118.31
604.625	46077.63
604.983	46419.99
605.341	46224.97
605.698	46568.24
606.056	46848.01
606.413	46551.52
606.771	46773.43
607.128	46825.41
607.485	46798.29
607.843	46792.41
608.2	47019.75
608.557	47119.41
608.914	47073.54
609.272	47283.02
609.629	47492.28
609.986	47571.38
610.343	47278.73
610.7	47707.42
611.057	47586.97
611.414	47553.98
611.771	47741.09
612.127	47950.12
612.484	47774.08
612.841	47956.22
613.198	47882.78
613.554	47931.82
613.911	48296.33
614.267	48227.4
614.624	48117.8
614.98	48412.48
615.337	48546.72
615.693	48676.88
616.05	48542.2
616.406	48730.44
616.762	48655.64
617.118	48774.28
617.475	48614.51
617.831	48783.32
618.187	48879.14
618.543	48976.54
618.899	49110.54
619.255	49001.85
619.611	49040.94
619.967	49227.6
620.323	49324.1
620.678	49250.88
621.034	49031.22
621.39	49107.61
621.746	49199.13
622.101	49585.11
622.457	49285.46
622.812	49616.07
623.168	49484.32
623.523	49502.62
623.879	49623.75
624.234	49371.33
624.589	49447.94
624.945	49539.01
625.3	49665.11
625.655	49501.5
626.01	49605.67
626.365	49611.1
626.72	49631.44
627.075	49576.52
627.43	49516.41
627.785	49577.65
628.14	49626.92
628.495	49629.4
628.85	49612.68
629.205	49561.83
629.559	49543.53
629.914	49438.67
630.269	49525.45
630.623	49367.71
630.978	49354.83
631.332	49597.76
631.687	49540.14
632.041	49511.21
632.396	49385.57
632.75	49352.35
633.104	49513.47
633.459	49240.26
633.813	49314.38
634.167	49293.14
634.521	49111.9
634.875	49212.69
635.229	49141.28
635.583	49049.3
635.937	49009.3
636.291	48975.63
636.645	48871
636.999	48714.85
637.352	48766.37
637.706	48626.26
638.06	48847.05
638.413	48733.83
638.767	48589.43
639.121	48659.26
639.474	48511.24
639.828	48449.09
640.181	48414.52
640.534	48606.6
640.888	48351.47
641.241	48265.82
641.594	48255.65
641.947	48361.64
642.301	48228.08
642.654	48302.2
643.007	48169.33
643.36	48239.16
643.713	48231.7
644.066	48341.75
644.419	48102.66
644.771	47602.79
645.124	47293.42
645.477	47231.27
645.83	47154.89
646.182	47215.23
646.535	47101.56
646.888	47311.72
647.24	47195.57
647.593	47374.55
647.945	47134.1
648.298	46988.34
648.65	46867.67
649.002	46649.37
649.355	46620.21
649.707	46457.51
650.059	46530.73
650.411	47079.64
650.763	47268.79
651.115	47801.2
651.467	47614.31
651.819	47807.08
652.171	47601.66
652.523	47494.77
652.875	47578.83
653.227	47471.49
653.578	47778.83
653.93	47544.71
654.282	47471.49
654.633	47348.56
654.985	47506.07
655.337	47598.04
655.688	47387.88
656.039	47464.49
656.391	47125.96
656.742	47409.35
657.094	47436.01
657.445	47462.68
657.796	47388.1
658.147	47507.88
658.498	47509.46
658.849	47576.8
659.2	47524.82
659.551	47418.16
659.902	47631.71
660.253	47496.58
660.604	47561.89
660.955	47407.31
661.306	47669.23
661.656	47481.66
662.007	47526.18
662.358	47566.4
662.708	47630.36
663.059	47572.73
663.409	47482.34
663.76	47595.33
664.11	47606.86
664.461	47712.16
664.811	47668.55
665.161	47652.73
665.511	47519.85
665.862	47613.86
666.212	47677.36
666.562	47730.24
666.912	47759.17
667.262	47543.35
667.612	47504.26
667.962	47632.17
668.312	47490.02
668.662	47600.53
669.011	47720.07
669.361	47607.76
669.711	47691.6
670.06	47506.07
670.41	47408.67
670.76	47603.92
671.109	47634.65
671.459	47480.31
671.808	47518.72
672.157	47600.08
672.507	47348.56
672.856	47271.05
673.205	47309.91
673.554	47442.57
673.904	47183.36
674.253	47591.04
674.602	47249.8
674.951	46752.19
675.3	46550.39
675.649	47314.21
675.998	47242.8
676.346	47320.99
676.695	47264.27
677.044	47013.88
677.393	47182.91
677.741	47186.53
678.09	47040.09
678.438	46922.81
678.787	47062.69
679.135	46994.44
679.484	46749.93
679.832	46984.5
680.181	46675.35
680.529	46783.6
680.877	46514.23
681.225	46578.41
681.573	46847.78
681.922	46609.59
682.27	46400.56
682.618	46420.67
682.966	46237.4
683.314	46411.86
683.661	46227.46
684.009	46033.79
684.357	46007.35
684.705	45902.49
685.053	45885.32
685.4	45818.2
685.748	45702.5
686.095	45638.55
686.443	45399.23
686.79	45352.23
687.138	45554.03
687.485	45398.33
687.832	45224.77
688.18	45191.1
688.527	44974.61
688.874	44888.73
689.221	44921.05
689.568	44718.12
689.915	44591.79
690.262	44657.1
690.609	44509.08
690.956	44329.88
691.303	44349.54
691.65	43992.49
691.997	44055.08
692.344	43901.87
692.69	43590.69
693.037	43738.03
693.383	43449.22
693.73	43414.65
694.077	43117.71
694.423	43162.9
694.769	42978.5
695.116	43031.83
695.462	42732.63
695.808	42504.39
696.155	42548.91
696.501	42177.85
696.847	42323.83
697.193	41821.7
697.539	42058.75
697.885	41686.79
698.231	41561.82
698.577	41532.89
698.923	41478.2
699.269	41043.19
699.614	41104.2
699.96	40898.33
700.306	40691.11
700.651	40637.55
700.997	40625.8
701.342	40427.38
701.688	40176.99
702.033	40120.95
702.379	40050.22
702.724	39875.31
703.069	40027.62
703.415	39321.65
703.76	39447.07
704.105	39406.85
704.45	39208.43
704.795	39150.81
705.14	38941.77
705.485	39008.21
705.83	38602.12
706.175	38710.37
706.52	38444.61
706.865	38402.13
707.209	38303.6
707.554	38272.19
707.899	38176.37
708.243	38017.05
708.588	37936.83
708.932	37647.8
709.277	37700
709.621	37643.05
709.966	37573.22
710.31	37426.33
710.654	37155.15
710.998	37185.66
711.342	37335.94
711.687	37072.44
712.031	36918.32
712.375	36780.93
712.719	36834.03
713.063	36864.77
713.407	36832.68
713.75	36707.48
714.094	36610.76
714.438	36409.86
714.782	36576.41
715.125	36253.93
715.469	36550.88
715.812	36063.43
716.156	36089.19
716.499	36298.68
716.843	36225.01
717.186	35996.09
717.53	36222.07
717.873	36111.11
718.216	36085.35
718.559	35936.2
718.902	35775.98
719.246	35655.31
719.589	35499.15
719.932	35531.92
720.275	35501.41
720.617	35675.87
720.96	35478.36
721.303	35607.85
721.646	35445.14
721.989	35250.12
722.331	35483.56
722.674	35326.05
723.016	35325.82
723.359	35191.14
723.701	35293.51
724.044	35168.99
724.386	35073.85
724.729	35127.41
725.071	35166.96
725.413	35182.1
725.755	35050.8
726.097	35039.05
726.439	34992.5
726.782	34940.52
727.124	35062.78
727.465	34958.37
727.807	34833.86
728.149	34967.41
728.491	34809.45
728.833	34981.65
729.175	34874.99
729.516	34825.04
729.858	34893.74
730.199	34967.64
730.541	34877.25
730.882	34825.95
731.224	34839.96
731.565	34712.96
731.906	34907.98
732.248	34940.52
732.589	34782.79
732.93	34802.22
733.271	34797.7
733.612	34848.1
733.953	34908.88
734.294	34894.2
734.635	34871.82
734.976	35096.45
735.317	34853.97
735.658	34785.27
735.999	34817.59
736.339	34820.53
736.68	34950.01
737.021	34911.6
737.361	34878.6
737.702	35261.19
738.042	35189.1
738.383	35078.15
738.723	35265.49
739.063	35008.32
739.404	35280.85
739.744	35320.17
740.084	35063
740.424	35362.88
740.764	35372.83
741.104	35543.44
741.444	35411.24
741.784	35356.33
742.124	35551.58
742.464	35583.44
742.804	35549.09
743.143	35655.08
743.483	35750.22
743.823	35636.32
744.162	35785.25
744.502	36062.98
744.841	35943.43
745.181	36126.93
745.52	36039.93
745.86	36265.23
746.199	36363.76
746.538	36467.04
746.877	36655.73
747.216	36562.85
747.556	36744.09
747.895	36832.45
748.234	36766.91
748.573	36969.62
748.911	37049.62
749.25	37232.44
749.589	37063.63
749.928	37278.77
750.267	37583.62
750.605	37644.86
750.944	37718.98
751.283	37713.1
751.621	38038.52
751.96	37995.58
752.298	38202.81
752.636	38320.55
752.975	38363.93
753.313	38364.84
753.651	38779.74
753.989	38642.8
754.327	38909.01
754.666	38809.35
755.004	39085.72
