Data from 15-0543_FLMS001491_008.txt Node
Date: Thu Apr 19 15:42:05 BST 2018
User: hsy
Spectrometer: FLMS00149
Trigger mode: 0
Integration Time (sec): 1.000000E-2
Scans to average: 10
Electric dark correction enabled: true
Nonlinearity correction enabled: false
Boxcar width: 0
XAxis mode: Wavelengths
Number of Pixels in Spectrum: 2048
>>>>>Begin Spectral Data<<<<<
341.393	-2.22
341.776	-2.22
342.16	-2.22
342.543	-62.78
342.927	-54.42
343.31	-65.72
343.693	-77.24
344.077	-71.59
344.46	-52.84
344.843	-64.14
345.226	-34.76
345.61	-42.44
345.993	-5.83
346.376	-0.64
346.759	22.41
347.142	35.3
347.525	42.75
347.908	46.37
348.291	89.53
348.674	84.56
349.057	94.28
349.44	121.4
349.823	156.65
350.206	180.6
350.588	245.46
350.971	234.61
351.354	252.24
351.737	287.94
352.119	284.33
352.502	290.66
352.884	319.81
353.267	325.46
353.65	341.05
354.032	328.62
354.414	366.13
354.797	354.16
355.179	347.38
355.562	351.22
355.944	382.86
356.326	404.55
356.709	405.46
357.091	383.54
357.473	376.53
357.855	379.92
358.238	383.99
358.62	384.67
359.002	388.96
359.384	415.17
359.766	370.88
360.148	395.06
360.53	385.12
360.912	376.53
361.294	399.35
361.676	390.99
362.057	367.72
362.439	376.3
362.821	379.69
363.203	383.31
363.584	380.37
363.966	369.75
364.348	350.09
364.729	367.72
365.111	351.67
365.493	368.62
365.874	378.79
366.256	386.25
366.637	382.86
367.019	372.91
367.4	392.35
367.781	361.16
368.163	352.35
368.544	389.86
368.925	375.85
369.306	376.76
369.688	370.43
370.069	361.61
370.45	384.44
370.831	380.6
371.212	375.17
371.593	376.76
371.974	382.41
372.355	370.2
372.736	376.3
373.117	370.2
373.498	388.73
373.879	396.87
374.26	388.05
374.641	379.02
375.021	387.6
375.402	395.06
375.783	407.49
376.163	403.2
376.544	400.71
376.925	393.93
377.305	400.26
377.686	416.75
378.066	425.79
378.447	425.12
378.827	406.36
379.208	395.74
379.588	409.98
379.968	428.05
380.349	414.04
380.729	416.3
381.109	419.47
381.489	402.29
381.87	421.27
382.25	444.55
382.63	424.21
383.01	445.45
383.39	429.64
383.77	421.95
384.15	444.32
384.53	432.35
384.91	452.23
385.29	441.16
385.67	463.08
386.049	473.93
386.429	457.66
386.809	459.69
387.189	443.87
387.568	466.7
387.948	468.05
388.328	485
388.707	479.8
389.087	484.55
389.466	463.31
389.846	494.94
390.225	491.78
390.605	460.82
390.984	490.2
391.363	487.94
391.743	514.38
392.122	496.3
392.501	524.55
392.881	505.79
393.26	536.53
393.639	528.84
394.018	503.53
394.397	514.83
394.776	536.3
395.155	529.97
395.534	530.42
395.913	546.02
396.292	526.36
396.671	546.92
397.05	536.53
397.429	560.25
397.808	560.48
398.186	558.9
398.565	559.12
398.944	565.68
399.323	552.12
399.701	564.77
400.08	577.88
400.458	588.28
400.837	569.97
401.215	581.27
401.594	569.52
401.972	595.51
402.351	624.21
402.729	627.37
403.107	615.85
403.486	593.7
403.864	570.2
404.242	593.25
404.62	614.26
404.999	630.76
405.377	608.39
405.755	649.06
406.133	633.25
406.511	634.83
406.889	640.25
407.267	661.95
407.645	657.65
408.023	661.49
408.401	670.31
408.779	677.99
409.156	682.74
409.534	689.52
409.912	685.45
410.29	685.9
410.667	678.89
411.045	712.34
411.422	722.74
411.8	748.72
412.178	730.64
412.555	757.99
412.933	740.59
413.31	748.5
413.687	768.61
414.065	771.55
414.442	777.2
414.819	779
415.197	800.25
415.574	794.82
415.951	796.63
416.328	817.65
416.705	805.22
417.082	823.07
417.46	827.59
417.837	839.12
418.214	839.12
418.591	865.56
418.967	833.24
419.344	855.84
419.721	854.94
420.098	846.35
420.475	865.78
420.852	884.99
421.228	880.02
421.605	888.83
421.982	878.44
422.358	903.3
422.735	904.65
423.111	918.89
423.488	927.25
423.864	957.31
424.241	942.84
424.617	964.31
424.994	953.24
425.37	984.2
425.746	957.76
426.123	983.52
426.499	995.04
426.875	1011.54
427.251	1044.08
427.627	997.53
428.003	1057.42
428.379	1056.29
428.756	1062.16
429.132	1068.26
429.507	1068.71
429.883	1065.33
430.259	1094.48
430.635	1115.27
431.011	1109.62
431.387	1134.25
431.763	1147.13
432.138	1143.74
432.514	1176.06
432.89	1172.89
433.265	1175.6
433.641	1206.11
434.016	1194.36
434.392	1238.43
434.767	1274.13
435.143	1224.87
435.518	1265.09
435.894	1249.05
436.269	1273.46
436.644	1299.9
437.02	1310.29
437.395	1335.6
437.77	1317.75
438.145	1344.19
438.52	1345.09
438.895	1379.44
439.271	1383.51
439.646	1385.32
440.021	1424.86
440.395	1440.68
440.77	1418.54
441.145	1395.71
441.52	1418.08
441.895	1444.3
442.27	1444.75
442.645	1429.16
443.019	1461.02
443.394	1453.79
443.769	1478.42
444.143	1478.65
444.518	1472.32
444.892	1483.85
445.267	1513
445.641	1493.11
446.016	1524.75
446.39	1572.43
446.764	1560.23
447.139	1520.23
447.513	1585.54
447.887	1595.93
448.262	1596.61
448.636	1567.68
449.01	1597.97
449.384	1609.72
449.758	1635.25
450.132	1679.55
450.506	1644.52
450.88	1690.17
451.254	1675.03
451.628	1689.94
452.002	1705.76
452.376	1746.44
452.75	1739.66
453.123	1759.09
453.497	1781.69
453.871	1777.62
454.244	1835.7
454.618	1833.89
454.992	1848.81
455.365	1916.38
455.739	1922.25
456.112	1946.66
456.486	1930.84
456.859	1988.46
457.232	1991.18
457.606	2048.8
457.979	2057.62
458.352	2082.93
458.725	2106.2
459.099	2092.42
459.472	2136.48
459.845	2172.87
460.218	2210.38
460.591	2220.1
460.964	2248.12
461.337	2265.29
461.71	2319.08
462.083	2338.96
462.456	2372.18
462.829	2374.44
463.201	2395.23
463.574	2433.2
463.947	2457.6
464.32	2482.01
464.692	2475.46
465.065	2519.98
465.438	2566.98
465.81	2601.1
466.183	2600.2
466.555	2677.94
466.928	2651.27
467.3	2659.41
467.672	2731.04
468.045	2795.68
468.417	2793.64
468.789	2809.91
469.161	2884.26
469.534	2900.08
469.906	2913.41
470.278	2963.58
470.65	2991.38
471.022	3016.69
471.394	3094.88
471.766	3114.99
472.138	3147.98
472.51	3229.34
472.882	3277.47
473.253	3304.81
473.625	3337.81
473.997	3403.34
474.369	3407.18
474.74	3461.87
475.112	3534.41
475.484	3593.62
475.855	3678.36
476.227	3704.58
476.598	3807.4
476.97	3813.5
477.341	3930.33
477.713	3980.28
478.084	4013.04
478.455	4141.18
478.827	4178.92
479.198	4293.04
479.569	4313.83
479.94	4463.88
480.311	4493.71
480.682	4585.01
481.053	4660.48
481.424	4756.08
481.795	4836.53
482.166	4927.6
482.537	5002.62
482.908	5150.42
483.279	5214.82
483.65	5307.25
484.021	5457.98
484.391	5518.32
484.762	5586.79
485.133	5711.53
485.503	5756.95
485.874	5900.23
486.244	6054.35
486.615	6159.2
486.985	6265.87
487.356	6412.76
487.726	6430.16
488.097	6697.49
488.467	6704.95
488.837	6921.89
489.207	7015.9
489.578	7195.56
489.948	7330.7
490.318	7469.68
490.688	7559.39
491.058	7798.93
491.428	7910.12
491.798	7992.15
492.168	8233.27
492.538	8392.36
492.908	8517.56
493.278	8687.27
493.648	8775.4
494.017	9054.49
494.387	9162.97
494.757	9384.65
495.126	9554.59
495.496	9630.07
495.866	9830.07
496.235	10006.56
496.605	10206.1
496.974	10343.27
497.344	10581.23
497.713	10695.13
498.082	10944.16
498.452	11206.98
498.821	11397.71
499.19	11499.4
499.559	11763.12
499.928	11960.18
500.298	12072.49
500.667	12284.01
501.036	12467.29
501.405	12733.49
501.774	12949.53
502.143	13245.34
502.512	13453.93
502.88	13682.39
503.249	13749.51
503.618	14051.42
503.987	14233.57
504.356	14564.18
504.724	14669.26
505.093	15013.66
505.462	15189.93
505.83	15348.79
506.199	15678.5
506.567	15994.42
506.936	16113.74
507.304	16428.76
507.672	16587.4
508.041	16895.64
508.409	17156.2
508.777	17367.95
509.145	17708.05
509.514	17828.05
509.882	18017.42
510.25	18319.33
510.618	18586.22
510.986	18668.7
511.354	18991.41
511.722	19298.07
512.09	19490.38
512.458	19583.03
512.826	19890.14
513.193	20061.89
513.561	20167.87
513.929	20363.57
514.297	20786.39
514.664	20865.03
515.032	21097.57
515.4	21462.98
515.767	21541.17
516.135	21731.9
516.502	21751.11
516.869	22245.79
517.237	22450.75
517.604	22325.11
517.972	22805.77
518.339	22981.36
518.706	23057.29
519.073	23168.7
519.44	23470.61
519.808	23796.48
520.175	23843.03
520.542	24190.14
520.909	24321.66
521.276	24429.91
521.643	24703.12
522.009	24973.62
522.376	25107.63
522.743	25283.67
523.11	25610.22
523.477	25856.54
523.843	25998.45
524.21	26331.78
524.577	26533.81
524.943	26779.9
525.31	26831.65
525.676	27139.67
526.043	27392.32
526.409	27587.57
526.776	27890.83
527.142	27887.22
527.508	28076.37
527.874	28348.9
528.241	28388
528.607	28550.25
528.973	28957.93
529.339	28932.84
529.705	29323.57
530.071	29458.93
530.437	29532.6
530.803	29816.43
531.169	29896.43
531.535	29967.16
531.901	30082.64
532.267	30206.93
532.632	30455.51
532.998	30642.4
533.364	30824.54
533.73	30839.23
534.095	31107.47
534.461	31144.76
534.826	31306.34
535.192	31328.03
535.557	31534.35
535.923	31577.74
536.288	31833.33
536.653	31868.81
537.019	31824.52
537.384	32004.4
537.749	32081.01
538.114	32278.74
538.479	32302.47
538.845	32344.73
539.21	32206.65
539.575	32375.46
539.94	32595.8
540.305	32716.02
540.67	32540.43
541.034	32742.01
541.399	32871.27
541.764	32920.76
542.129	33027.42
542.494	33097.25
542.858	33099.96
543.223	33029.68
543.587	33278.72
543.952	33277.59
544.316	33291.37
544.681	33399.39
545.045	33494.3
545.41	33608.88
545.774	33430.35
546.138	33482.55
546.503	33633.73
546.867	33590.8
547.231	33800.96
547.595	33887.74
547.959	33835.76
548.324	33810.23
548.688	33790.79
549.052	33924.8
549.416	33942.43
549.779	33969.54
550.143	34065.81
550.507	34299.25
550.871	34359.14
551.235	34358.01
551.599	34504.22
551.962	34556.87
552.326	34591.68
552.689	34602.52
553.053	34514.16
553.417	34597.32
553.78	34917.32
554.143	34843.42
554.507	34887.71
554.87	34958.67
555.234	35224.65
555.597	35058.1
555.96	35194.15
556.323	35255.84
556.686	35367.47
557.05	35419.22
557.413	35522.95
557.776	35553.23
558.139	35697.63
558.502	35748.03
558.865	35740.57
559.228	36013.78
559.59	35868.25
559.953	36051.75
560.316	36442.93
560.679	36241.58
561.041	36484.28
561.404	36653.32
561.767	36893.31
562.129	36507.33
562.492	37087.65
562.854	37120.65
563.217	37183.02
563.579	37270.47
563.941	37296.24
564.304	37631.14
564.666	37749.78
565.028	37778.03
565.39	37717.02
565.753	37950.68
566.115	38107.97
566.477	38271.58
566.839	38414.63
567.201	38618.91
567.563	38574.85
567.925	38814.16
568.287	38752.24
568.648	38894.84
569.01	38993.82
569.372	39236.75
569.734	39173.7
570.095	39489.17
570.457	39596.74
570.819	39717.42
571.18	39713.35
571.542	39916.05
571.903	40042.61
572.265	40211.19
572.626	40286.67
572.987	40466.77
573.349	40582.03
573.71	40678.97
574.071	40830.61
574.432	40819.76
574.794	41110.15
575.155	41111.05
575.516	41183.14
575.877	41395.11
576.238	41376.58
576.599	41674.88
576.96	41726.63
577.32	41710.13
577.681	41896.34
578.042	41994.42
578.403	42036.68
578.763	42068.99
579.124	42078.94
579.485	42490.45
579.845	42527.96
580.206	42392.37
580.566	42487.06
580.927	42499.94
581.287	42690.67
581.648	42667.4
582.008	43073.71
582.368	42880.72
582.728	42923.66
583.089	42940.61
583.449	43133.82
583.809	43106.03
584.169	43330.2
584.529	43175.86
584.889	43549.41
585.249	43226.93
585.609	43179.47
585.969	43548.05
586.329	43219.92
586.688	43638.67
587.048	43669.85
587.408	43594.83
587.768	43574.72
588.127	43732
588.487	43849.06
588.846	44015.61
589.206	43715.5
589.565	43923.86
589.925	44109.84
590.284	44094.02
590.643	44141.25
591.003	44206.56
591.362	44395.26
591.721	44540.57
592.08	44298.09
592.44	44514.58
592.799	44526.78
593.158	44524.75
593.517	44496.5
593.876	44669.15
594.235	44781.01
594.593	44667.34
594.952	44907.56
595.311	44870.5
595.67	44923.83
596.029	45164.73
596.387	45270.94
596.746	45285.86
597.104	45091.06
597.463	45243.82
597.822	45612.63
598.18	45511.84
598.538	45472.75
598.897	45810.82
599.255	45356.82
599.613	45933.07
599.972	45733.3
600.33	45872.73
600.688	45797.48
601.046	45966.97
601.404	46263.68
601.762	46166.06
602.12	46373.06
602.478	46440.86
602.836	46440.18
603.194	46185.49
603.552	46456.9
603.91	46439.05
604.268	46571.93
604.625	46632.49
604.983	46794.74
605.341	46494.19
605.698	46996.32
606.056	47121.52
606.413	47060.73
606.771	47137.11
607.128	47186.6
607.485	47158.35
607.843	47241.51
608.2	47437.67
608.557	47597.89
608.914	47306.82
609.272	47705.91
609.629	47878.78
609.986	48049.17
610.343	47846.02
610.7	48138.21
611.057	48050.76
611.414	48069.06
611.771	48231.77
612.127	48208.94
612.484	48269.73
612.841	48414.59
613.198	48414.14
613.554	48414.14
613.911	48585.88
614.267	48740.68
614.624	48612.78
614.98	48789.72
615.337	49004.86
615.693	48902.71
616.05	48872.66
616.406	49172.76
616.762	49006.89
617.118	49158.75
617.475	49139.77
617.831	49402.36
618.187	49347.9
618.543	49441.91
618.899	49737.27
619.255	49596.7
619.611	49634.9
619.967	49805.74
620.323	49844.61
620.678	49660.43
621.034	49711.28
621.39	49708.34
621.746	49666.08
622.101	50130.02
622.457	49853.87
622.812	49873.08
623.168	49919.86
623.523	49882.8
623.879	50077.14
624.234	49788.34
624.589	50062.23
624.945	49967.99
625.3	50075.56
625.655	49952.63
626.01	50089.35
626.365	50025.17
626.72	50028.56
627.075	49914.89
627.43	49930.48
627.785	49990.82
628.14	49825.4
628.495	49980.42
628.85	49906.98
629.205	49939.29
629.559	50090.7
629.914	49940.2
630.269	50033.08
630.623	49798.96
630.978	49634.9
631.332	49833.76
631.687	49856.58
632.041	49759.64
632.396	49798.51
632.75	49689.81
633.104	49727.77
633.459	49603.94
633.813	49529.36
634.167	49549.7
634.521	49501.57
634.875	49559.42
635.229	49417.73
635.583	49259.99
635.937	49249.82
636.291	49238.75
636.645	49277.16
636.999	49107.45
637.352	49199.2
637.706	49022.26
638.06	49279.42
638.413	48984.29
638.767	48912.88
639.121	48993.1
639.474	48847.35
639.828	48818.19
640.181	48761.25
640.534	48895.03
640.888	48638.09
641.241	48492.55
641.594	48578.65
641.947	48739.1
642.301	48550.4
642.654	48605.09
643.007	48461.14
643.36	48520.12
643.713	48501.82
644.066	48703.39
644.419	48463.85
644.771	48011.89
645.124	47586.36
645.477	47694.61
645.83	47504.1
646.182	47517.21
646.535	47563.99
646.888	47588.62
647.24	47411.23
647.593	47730.09
647.945	47574.38
648.298	47311.57
648.65	47089.65
649.002	46987.96
649.355	46889.2
649.707	46820.73
650.059	46825.48
650.411	47252.36
650.763	47620.49
651.115	48194.48
651.467	48004.43
651.819	48083.3
652.171	47931.21
652.523	47768.28
652.875	47952
653.227	47746.13
653.578	48003.53
653.93	47950.42
654.282	47839.24
654.633	47600.6
654.985	47840.37
655.337	47803.76
655.688	47848.95
656.039	47997.65
656.391	47599.24
656.742	47787.94
657.094	47878.78
657.445	47818.9
657.796	47920.82
658.147	47773.48
658.498	47782.06
658.849	47932.34
659.2	47677.43
659.551	47742.52
659.902	47966.01
660.253	47796.53
660.604	47964.66
660.955	47723.76
661.306	47914.04
661.656	47773.48
662.007	47875.39
662.358	47806.02
662.708	47873.81
663.059	47786.13
663.409	47611.67
663.76	47902.96
664.11	47919.01
664.461	48049.4
664.811	48009.63
665.161	47850.99
665.511	47874.49
665.862	47931.89
666.212	48056.41
666.562	48030.19
666.912	47982.28
667.262	47787.94
667.612	47834.04
667.962	48014.37
668.312	47877.88
668.662	48096.4
669.011	47991.1
669.361	48007.37
669.711	47956.07
670.06	47894.83
670.41	47788.62
670.76	47791.1
671.109	47899.8
671.459	47771.67
671.808	47728.96
672.157	47912.68
672.507	47499.36
672.856	47469.3
673.205	47597.43
673.554	47661.16
673.904	47531.22
674.253	47896.86
674.602	47600.82
674.951	47145.47
675.3	47117
675.649	47751.1
675.998	47561.73
676.346	47641.05
676.695	47528.96
677.044	47363.09
677.393	47450.77
677.741	47493.93
678.09	47401.73
678.438	47319.93
678.787	47357.89
679.135	47283.09
679.484	47004.23
679.832	47269.53
680.181	46939.6
680.529	47011.91
680.877	46962.2
681.225	46820.51
681.573	47198.35
681.922	46903.89
682.27	46776.89
682.618	46766.04
682.966	46693.73
683.314	46695.09
683.661	46510.91
684.009	46402.66
684.357	46335.77
684.705	46264.81
685.053	46215.78
685.4	46052.84
685.748	45967.87
686.095	45911.83
686.443	45599.75
686.79	45731.04
687.138	45887.88
687.485	45610.37
687.832	45479.98
688.18	45478.62
688.527	45259.42
688.874	45255.58
689.221	45282.69
689.568	44957.5
689.915	44798.19
690.262	44856.04
690.609	44670.96
690.956	44812.88
691.303	44565.88
691.65	44314.81
691.997	44214.92
692.344	44000.92
692.69	43960.24
693.037	44068.49
693.383	43560.93
693.73	43719.34
694.077	43519.58
694.423	43449.3
694.769	43173.14
695.116	43179.25
695.462	42967.73
695.808	42860.16
696.155	42805.92
696.501	42546.49
696.847	42725.92
697.193	42281.42
697.539	42276.9
697.885	41988.54
698.231	41937.47
698.577	41878.49
698.923	41594.43
699.269	41412.29
699.614	41237.38
699.96	41339.07
700.306	41261.1
700.651	40924.62
700.997	40763.04
701.342	40779.99
701.688	40642.82
702.033	40528.69
702.379	40332.32
702.724	40242.6
703.069	40292.09
703.415	39816.17
703.76	39697.98
704.105	39745.44
704.45	39652.33
704.795	39432
705.14	39341.15
705.485	39356.07
705.83	39094.61
706.175	39101.16
706.52	39027.72
706.865	38751.11
707.209	38688.97
707.554	38638.12
707.899	38520.39
708.243	38382.76
708.588	38390.22
708.932	38100.51
709.277	38221.64
709.621	38106.39
709.966	37613.74
710.31	37827.97
710.654	37467.76
710.998	37607.19
711.342	37557.02
711.687	37543.69
712.031	37362.9
712.375	37179.86
712.719	37164.04
713.063	37019.86
713.407	37226.86
713.75	36966.3
714.094	37018.96
714.438	36760.21
714.782	36806.76
715.125	36553.66
715.469	36818.74
715.812	36486.54
716.156	36417.39
716.499	36488.57
716.843	36565.63
717.186	36384.17
717.53	36427.11
717.873	36460.1
718.216	36197.51
718.559	36293.1
718.902	35977.63
719.246	36012.2
719.589	36089.26
719.932	35819.44
720.275	35853.11
720.617	35920.45
720.96	35755.03
721.303	35817.18
721.646	35782.15
721.989	35699.22
722.331	35726.11
722.674	35691.08
723.016	35721.36
723.359	35392.78
723.701	35534.7
724.044	35442.5
724.386	35258.78
724.729	35579.9
725.071	35493.35
725.413	35386.91
725.755	35456.29
726.097	35396.4
726.439	35116.18
726.782	35277.31
727.124	35292.67
727.465	35191.89
727.807	35268.27
728.149	35186.69
728.491	35139.68
728.833	35304.2
729.175	35166.58
729.516	35078.22
729.858	35092.23
730.199	35374.71
730.541	35336.51
730.882	35223.3
731.224	35245.67
731.565	34950.08
731.906	35135.16
732.248	35260.13
732.589	34924.55
732.93	34958.45
733.271	35056.52
733.612	35088.61
733.953	35160.7
734.294	35008.84
734.635	34922.74
734.976	34925.45
735.317	35005.68
735.658	35079.12
735.999	34986.02
736.339	35152.34
736.68	35130.19
737.021	35087.48
737.361	35097.42
737.702	35337.19
738.042	35175.39
738.383	35095.62
738.723	35410.41
739.063	35157.08
739.404	35336.06
739.744	35420.58
740.084	35275.27
740.424	35418.32
740.764	35406.8
741.104	35647.47
741.444	35481.37
741.784	35654.92
742.124	35719.78
742.464	35769.72
742.804	35727.01
743.143	35804.3
743.483	35849.04
743.823	35801.81
744.162	35883.84
744.502	35997.06
744.841	36048.59
745.181	36202.03
745.52	36105.53
745.86	36348.01
746.199	36362.93
746.538	36518.18
746.877	36546.88
747.216	36791.17
747.556	36677.72
747.895	36858.28
748.234	36874.78
748.573	37002.23
748.911	37036.58
749.25	37254.66
749.589	37136.24
749.928	37432.28
750.267	37571.26
750.605	37611.26
750.944	37714.98
751.283	37714.53
751.621	38041.53
751.96	37942.77
752.298	38062.77
752.636	38267.06
752.975	38294.63
753.313	38324.68
753.651	38813.03
753.989	38601.06
754.327	38883.99
754.666	38731.45
755.004	39109.52
