Data from 15-0543_FLMS001491_006.txt Node
Date: Thu Apr 19 15:42:00 BST 2018
User: hsy
Spectrometer: FLMS00149
Trigger mode: 0
Integration Time (sec): 1.000000E-2
Scans to average: 10
Electric dark correction enabled: true
Nonlinearity correction enabled: false
Boxcar width: 0
XAxis mode: Wavelengths
Number of Pixels in Spectrum: 2048
>>>>>Begin Spectral Data<<<<<
341.393	2.18
341.776	2.18
342.16	2.18
342.543	-57.26
342.927	-66.75
343.31	-71.04
343.693	-61.1
344.077	-62.68
344.46	-71.04
344.843	-35.34
345.226	-32.85
345.61	-17.26
345.993	-13.64
346.376	-15.68
346.759	-13.64
347.142	27.03
347.525	39.24
347.908	81.95
348.291	64.55
348.674	82.17
349.057	99.35
349.44	135.96
349.823	152.91
350.206	177.31
350.588	236.07
350.971	259.34
351.354	264.77
351.737	276.29
352.119	272
352.502	317.42
352.884	327.36
353.267	319.68
353.65	344.54
354.032	356.29
354.414	352.67
354.797	347.7
355.179	363.07
355.562	371.66
355.944	368.27
356.326	379.57
356.709	376.63
357.091	382.5
357.473	368.72
357.855	382.5
358.238	386.8
358.62	400.81
359.002	393.13
359.384	388.61
359.766	386.35
360.148	376.63
360.53	389.28
360.912	400.36
361.294	379.79
361.676	375.5
362.057	370.3
362.439	399.68
362.821	398.32
363.203	373.46
363.584	374.82
363.966	369.85
364.348	382.28
364.729	371.43
365.111	388.38
365.493	387.7
365.874	386.57
366.256	385.22
366.637	378.21
367.019	369.4
367.4	363.3
367.781	377.53
368.163	375.72
368.544	387.25
368.925	383.63
369.306	391.09
369.688	391.54
370.069	385.89
370.45	366.01
370.831	375.72
371.212	399
371.593	387.02
371.974	374.82
372.355	389.74
372.736	419.34
373.117	396.74
373.498	391.54
373.879	394.26
374.26	370.08
374.641	392.45
375.021	401.94
375.402	399.23
375.783	405.78
376.163	419.79
376.544	394.26
376.925	405.1
377.305	404.88
377.686	409.17
378.066	398.1
378.447	432.67
378.827	399
379.208	414.59
379.588	406.91
379.968	415.72
380.349	426.8
380.729	422.95
381.109	423.86
381.489	454.14
381.87	431.32
382.25	434.25
382.63	439.45
383.01	432.22
383.39	436.29
383.77	447.36
384.15	440.13
384.53	446.91
384.91	440.81
385.29	439.68
385.67	478.77
386.049	454.82
386.429	464.08
386.809	458.21
387.189	468.6
387.568	483.97
387.948	493.24
388.328	485.1
388.707	496.4
389.087	461.82
389.466	495.5
389.846	475.38
390.225	489.39
390.605	495.5
390.984	488.94
391.363	501.37
391.743	505.66
392.122	526.91
392.501	534.14
392.881	522.84
393.26	522.84
393.639	517.19
394.018	513.8
394.397	533.46
394.776	542.05
395.155	538.21
395.534	535.04
395.913	530.75
396.292	554.48
396.671	549.51
397.05	547.7
397.429	540.47
397.808	558.77
398.186	557.19
398.565	574.14
398.944	568.26
399.323	593.57
399.701	582.5
400.08	563.97
400.458	575.95
400.837	613.68
401.215	590.41
401.594	594.02
401.972	608.71
402.351	600.8
402.729	612.78
403.107	620.24
403.486	599
403.864	620.92
404.242	617.53
404.62	644.64
404.999	641.48
405.377	655.27
405.755	627.92
406.133	673.34
406.511	646
406.889	658.88
407.267	648.26
407.645	664.76
408.023	685.55
408.401	685.55
408.779	705.21
409.156	703.4
409.534	700.01
409.912	724.19
410.29	717.41
410.667	708.37
411.045	735.72
411.422	741.14
411.8	743.17
412.178	745.43
412.555	763.06
412.933	754.92
413.31	772.32
413.687	799.44
414.065	795.6
414.442	775.94
414.819	794.47
415.197	792.21
415.574	795.83
415.951	819.78
416.328	829.05
416.705	832.89
417.082	842.38
417.46	844.64
417.837	848.48
418.214	872.43
418.591	901.81
418.967	856.39
419.344	870.4
419.721	873.11
420.098	889.16
420.475	892.55
420.852	885.32
421.228	908.14
421.605	899.78
421.982	907.91
422.358	924.41
422.735	931.19
423.111	937.52
423.488	955.82
423.864	937.97
424.241	953.34
424.617	971.19
424.994	982.71
425.37	983.62
425.746	987.01
426.123	990.17
426.499	995.14
426.875	1027.23
427.251	1043.96
427.627	1050.28
428.003	1061.13
428.379	1054.35
428.756	1075.82
429.132	1093.45
429.507	1097.97
429.883	1116.04
430.259	1116.95
430.635	1136.83
431.011	1128.47
431.387	1164.63
431.763	1168.25
432.138	1160.34
432.514	1172.99
432.89	1200.11
433.265	1239.43
433.641	1243.05
434.016	1261.58
434.392	1245.08
434.767	1263.61
435.143	1277.4
435.518	1262.93
435.894	1304.06
436.269	1305.42
436.644	1341.57
437.02	1338.64
437.395	1326.89
437.77	1375.7
438.145	1356.94
438.52	1346.55
438.895	1406.21
439.271	1383.38
439.646	1437.17
440.021	1429.03
440.395	1431.29
440.77	1452.53
441.145	1462.48
441.52	1474
441.895	1481.68
442.27	1464.96
442.645	1462.48
443.019	1496.37
443.394	1510.61
443.769	1513.55
444.143	1513.1
444.518	1555.35
444.892	1516.03
445.267	1520.78
445.641	1528.01
446.016	1567.78
446.39	1581.34
446.764	1595.81
447.139	1582.7
447.513	1605.3
447.887	1618.4
448.262	1631.96
448.636	1620.89
449.01	1638.52
449.384	1676.03
449.758	1675.8
450.132	1694.79
450.506	1690.27
450.88	1711.51
451.254	1721.9
451.628	1737.95
452.002	1750.15
452.376	1763.71
452.75	1799.87
453.123	1772.07
453.497	1827.89
453.871	1837.61
454.244	1912.18
454.618	1913.76
454.992	1936.81
455.365	1913.76
455.739	1960.32
456.112	1994.67
456.486	2016.81
456.859	2029.69
457.232	2093.87
457.606	2093.87
457.979	2097.49
458.352	2133.64
458.725	2147.66
459.099	2169.58
459.472	2199.41
459.845	2240.31
460.218	2265.17
460.591	2278.27
460.964	2319.63
461.337	2343.36
461.71	2359.85
462.083	2416.12
462.456	2434.43
462.829	2407.76
463.201	2495.67
463.574	2460.87
463.947	2492.73
464.32	2570.02
464.692	2570.47
465.065	2620.41
465.438	2632.61
465.81	2675.1
466.183	2683.01
466.555	2722.33
466.928	2758.03
467.3	2730.24
467.672	2802.55
468.045	2879.61
468.417	2864.02
468.789	2852.72
469.161	2906.96
469.534	2951.93
469.906	3026.73
470.278	3032.15
470.65	3094.98
471.022	3119.16
471.394	3203.67
471.766	3217.91
472.138	3236.21
472.51	3365.7
472.882	3377.45
473.253	3391.46
473.625	3416.77
473.997	3493.61
474.369	3530.67
474.74	3610.67
475.112	3655.41
475.484	3718.24
475.855	3782.41
476.227	3784.45
476.598	3911.9
476.97	3962.52
477.341	4024.22
477.713	4094.72
478.084	4114.84
478.455	4223.76
478.827	4254.72
479.198	4372.68
479.569	4456.75
479.94	4534.71
480.311	4628.72
480.682	4687.7
481.053	4803.18
481.424	4874.36
481.795	4941.93
482.166	5043.62
482.537	5137.18
482.908	5202.26
483.279	5367.23
483.65	5416.5
484.021	5575.14
484.391	5578.53
484.762	5721.8
485.133	5806.77
485.503	5901.68
485.874	6091.51
486.244	6088.57
486.615	6265.06
486.985	6380.99
487.356	6557.48
487.726	6636.58
488.097	6826.85
488.467	6872.95
488.837	7079.28
489.207	7208.54
489.578	7390.91
489.948	7515.65
490.318	7660.5
490.688	7710
491.058	7930.78
491.428	8121.06
491.798	8102.08
492.168	8396.3
492.538	8557.88
492.908	8725.56
493.278	8881.94
493.648	8990.19
494.017	9175.49
494.387	9320.35
494.757	9548.36
495.126	9761.01
495.496	9836.49
495.866	10105.64
496.235	10257.27
496.605	10563.93
496.974	10592.18
497.344	10780.2
497.713	10993.3
498.082	11177.02
498.452	11369.33
498.821	11582.66
499.19	11663.34
499.559	11993.5
499.928	12188.97
500.298	12403.88
500.667	12612.92
501.036	12760.26
501.405	13010.19
501.774	13144.43
502.143	13399.34
502.512	13673.91
502.88	13949.6
503.249	14042.03
503.618	14339.2
503.987	14461.68
504.356	14772.18
504.724	14997.49
505.093	15151.61
505.462	15435.67
505.83	15730.35
506.199	15990.23
506.567	16305.02
506.936	16380.73
507.304	16645.13
507.672	16901.39
508.041	17086.92
508.409	17438.55
508.777	17650.07
509.145	17897.07
509.514	17990.85
509.882	18344.07
510.25	18487.79
510.618	18777.73
510.986	18842.81
511.354	19224.49
511.722	19476.24
512.09	19717.59
512.458	19829.9
512.826	20110.12
513.193	20228.54
513.561	20533.39
513.929	20754.17
514.297	20972.02
514.664	21177.66
515.032	21322.52
515.4	21598.22
515.767	21684.77
516.135	21979.45
516.502	21939.68
516.869	22382.15
517.237	22605.87
517.604	22555.93
517.972	23096.71
518.339	23154.79
518.706	23382.58
519.073	23371.5
519.44	23772.17
519.808	23949.12
520.175	24121.77
520.542	24419.16
520.909	24523.56
521.276	24730.11
521.643	25031.12
522.009	25100.05
522.376	25433.6
522.743	25573.93
523.11	25809.86
523.477	26085.11
523.843	26210.53
524.21	26649.16
524.577	26781.58
524.943	26900.22
525.31	27011.41
525.676	27363.72
526.043	27598.96
526.409	27744.72
526.776	28073.98
527.142	28216.35
527.508	28348.32
527.874	28626.96
528.241	28728.43
528.607	28883.68
528.973	29311.01
529.339	29214.74
529.705	29592.58
530.071	29755.97
530.437	29989.18
530.803	30152.57
531.169	30255.39
531.535	30244.54
531.901	30387.82
532.267	30557.53
532.632	30856.73
532.998	30954.81
533.364	31165.65
533.73	31135.59
534.095	31475.47
534.461	31581.01
534.826	31696.71
535.192	31701.91
535.557	31863.48
535.923	31882.92
536.288	32052.63
536.653	32161.78
537.019	32196.13
537.384	32307.54
537.749	32368.33
538.114	32395
538.479	32460.53
538.845	32606.74
539.21	32539.4
539.575	32652.39
539.94	32714.99
540.305	33017.35
540.67	32993.4
541.034	33147.52
541.399	33138.93
541.764	33080.85
542.129	33042.89
542.494	33355.2
542.858	33467.51
543.223	33254.86
543.587	33460.5
543.952	33481.75
544.316	33582.08
544.681	33405.36
545.045	33884.45
545.41	33895.3
545.774	33740.27
546.138	33849.65
546.503	33858.46
546.867	34034.27
547.231	34128.28
547.595	34155.4
547.959	34228.62
548.324	34266.13
548.688	34154.95
549.052	34307.49
549.416	34292.12
549.779	34311.33
550.143	34335.28
550.507	34499.35
550.871	34582.96
551.235	34494.6
551.599	34824.99
551.962	34857.3
552.326	34864.31
552.689	34940.69
553.053	34765.78
553.417	34900.01
553.78	35178.43
554.143	35151.76
554.507	35243.73
554.87	35357.63
555.234	35593.56
555.597	35347.01
555.96	35624.52
556.323	35769.6
556.686	35780.9
557.05	35848.92
557.413	35855.24
557.776	35893.43
558.139	36135.46
558.502	36153.99
558.865	36085.97
559.228	36370.48
559.59	36390.37
559.953	36579.07
560.316	36760.76
560.679	36853.86
561.041	36986.06
561.404	37040.98
561.767	37228.99
562.129	37239.84
562.492	37395.99
562.854	37383.79
563.217	37523.45
563.579	37567.29
563.941	37761.18
564.304	38050.89
564.666	38246.37
565.028	38088.86
565.39	38295.41
565.753	38462.86
566.115	38399.13
566.477	38626.47
566.839	38838.44
567.201	38964.54
567.563	38955.5
567.925	39170.18
568.287	39226
568.648	39159.56
569.01	39534.69
569.372	39929.49
569.734	39738.31
570.095	40024.63
570.457	40097.39
570.819	40227.11
571.18	40113.66
571.542	40341.23
571.903	40549.58
572.265	40656.25
572.626	40801.1
572.987	40807.66
573.349	40872.29
573.71	41052.17
574.071	41363.35
574.432	41404.48
574.794	41603.12
575.155	41512.27
575.516	41571.93
575.877	41711.13
576.238	41743
576.599	41907.97
576.96	41816.22
577.32	41967.17
577.681	42125.81
578.042	42291.01
578.403	42376.2
578.763	42321.51
579.124	42344.79
579.485	42834.5
579.845	42822.29
580.206	42762.63
580.566	42763.99
580.927	42943.19
581.287	43148.84
581.648	42947.94
582.008	43203.3
582.368	43152.23
582.728	43363.07
583.089	43264.77
583.449	43375.05
583.809	43422.73
584.169	43531.88
584.529	43367.36
584.889	43780.01
585.249	43514.93
585.609	43598.09
585.969	43804.87
586.329	43735.49
586.688	43916.73
587.048	43932.55
587.408	43968.25
587.768	43835.82
588.127	43987.46
588.487	44023.39
588.846	44476.03
589.206	44056.61
589.565	44114.69
589.925	44413.21
590.284	44313.33
590.643	44388.35
591.003	44641.23
591.362	44760.55
591.721	44612.3
592.08	44778.62
592.44	44951.28
592.799	44937.04
593.158	44928.9
593.517	44876.93
593.876	45102.68
594.235	45225.17
594.593	45073.31
594.952	45258.84
595.311	45208.44
595.67	45374.32
596.029	45652.95
596.387	45696.11
596.746	45794.87
597.104	45554.65
597.463	45594.42
597.822	46080.74
598.18	45757.13
598.538	45928.65
598.897	45986.05
599.255	45985.6
599.613	46591.23
599.972	46153.5
600.33	46351.01
600.688	46284.35
601.046	46349.88
601.404	46719.59
601.762	46620.61
602.12	46755.75
602.478	46721.85
602.836	46908.51
603.194	46606.83
603.552	46875.74
603.91	46872.58
604.268	47152.35
604.625	47043.2
604.983	47253.36
605.341	47129.3
605.698	47367.71
606.056	47662.16
606.413	47468.5
606.771	47584.2
607.128	47665.55
607.485	47551.43
607.843	47669.62
608.2	47827.36
608.557	47892.22
608.914	47926.34
609.272	48032.1
609.629	48198.2
609.986	48276.39
610.343	48377.63
610.7	48509.6
611.057	48446.55
611.414	48414.01
611.771	48578.07
612.127	48727
612.484	48710.5
612.841	48874.56
613.198	48635.25
613.554	48705.75
613.911	48997.5
614.267	49070.72
614.624	48957.05
614.98	49111.84
615.337	49278.62
615.693	49240.43
616.05	49331.73
616.406	49476.35
616.762	49330.37
617.118	49505.28
617.475	49488.11
617.831	49596.35
618.187	49697.14
618.543	49732.17
618.899	49907.3
619.255	49943.46
619.611	49740.53
619.967	49863.46
620.323	50124.92
620.678	49926.96
621.034	50012.84
621.39	49882.45
621.746	49945.49
622.101	50428.87
622.457	49961.31
622.812	50271.81
623.168	50227.97
623.523	50263.68
623.879	50395.88
624.234	50261.19
624.589	50346.39
624.945	50296.67
625.3	50319.27
625.655	50396.78
626.01	50424.35
626.365	50392.94
626.72	50316.56
627.075	50275.43
627.43	50384.13
627.785	50234.3
628.14	50328.08
628.495	50318.59
628.85	50434.75
629.205	50210.57
629.559	50441.3
629.914	50280.18
630.269	50263.45
630.623	50271.36
630.978	50023.46
631.332	50257.8
631.687	50152.27
632.041	50121.99
632.396	50126.28
632.75	50029.79
633.104	50146.85
633.459	49920.86
633.813	50006.28
634.167	50038.15
634.521	50058.26
634.875	49953.4
635.229	49922.22
635.583	49691.49
635.937	49628.89
636.291	49682.45
636.645	49741.43
636.999	49488.56
637.352	49607.2
637.706	49459.18
638.06	49564.94
638.413	49440.2
638.767	49288.34
639.121	49474.32
639.474	49270.03
639.828	49190.71
640.181	49184.38
640.534	49268.9
640.888	49053.31
641.241	49009.7
641.594	49098.96
641.947	49201.33
642.301	48979.19
642.654	49061.9
643.007	48997.95
643.36	49052.18
643.713	48860.78
644.066	49105.52
644.419	48712.76
644.771	48302.83
645.124	47978.77
645.477	47945.77
645.83	47960.01
646.182	47801.14
646.535	47795.04
646.888	47909.16
647.24	47781.71
647.593	47997.52
647.945	47858.54
648.298	47755.5
648.65	47471.89
649.002	47368.61
649.355	47285.68
649.707	47248.39
650.059	47274.6
650.411	47721.37
650.763	47884.98
651.115	48504.85
651.467	48303.96
651.819	48294.01
652.171	48252.88
652.523	48301.92
652.875	48313
653.227	48077.97
653.578	48450.17
653.93	48327.46
654.282	48082.72
654.633	48114.36
654.985	48162.49
655.337	48290.4
655.688	48132.21
656.039	48327.46
656.391	48049.5
656.742	48049.95
657.094	48155.49
657.445	48204.75
657.796	48149.38
658.147	48179.67
658.498	48136.5
658.849	48159.78
659.2	48095.15
659.551	48000.24
659.902	48195.71
660.253	47990.52
660.604	48276.39
660.955	48002.49
661.306	48190.96
661.656	48132.66
662.007	48104.41
662.358	48193.68
662.708	48219.44
663.059	48063.74
663.409	47951.65
663.76	48181.47
664.11	48199.1
664.461	48279.55
664.811	48289.72
665.161	48280.23
665.511	48072.55
665.862	48211.53
666.212	48329.72
666.562	48407.46
666.912	48198.2
667.262	48128.82
667.612	48246.33
667.962	48230.51
668.312	48304.41
668.662	48385.99
669.011	48328.14
669.361	48145.77
669.711	48263.5
670.06	48157.07
670.41	48092.89
670.76	48172.43
671.109	48275.71
671.459	48068.48
671.808	48088.59
672.157	48298.31
672.507	48000.46
672.856	47978.77
673.205	48019.22
673.554	48153.45
673.904	47977.86
674.253	48306.22
674.602	48014.47
674.951	47592.79
675.3	47307.15
675.649	47934.02
675.998	47918.2
676.346	47965.89
676.695	47961.37
677.044	47802.27
677.393	47844.76
677.741	47901.03
678.09	47810.41
678.438	47635.72
678.787	47774.93
679.135	47719.11
679.484	47377.65
679.832	47570.87
680.181	47447.71
680.529	47512.11
680.877	47324.77
681.225	47161.61
681.573	47502.62
681.922	47163.19
682.27	47107.83
682.618	47133.82
682.966	47152.12
683.314	47179.47
683.661	46965.69
684.009	46848.4
684.357	46832.13
684.705	46618.8
685.053	46582.87
685.4	46452.03
685.748	46343.78
686.095	46327.74
686.443	46090.68
686.79	46048.65
687.138	46043.22
687.485	46206.61
687.832	45827.86
688.18	45936.33
688.527	45694.98
688.874	45634.2
689.221	45607.08
689.568	45372.28
689.915	45256.8
690.262	45430.36
690.609	45217.26
690.956	44951.95
691.303	45033.53
691.65	44685.07
691.997	44664.96
692.344	44520.33
692.69	44274.91
693.037	44304.96
693.383	44048.93
693.73	44174.12
694.077	43780.46
694.423	43775.26
694.769	43641.71
695.116	43582.95
695.462	43239.91
695.808	43125.11
696.155	43233.81
696.501	42943.87
696.847	43006.69
697.193	42722.63
697.539	42677.44
697.885	42353.38
698.231	42270.22
698.577	42315.19
698.923	42154.06
699.269	41849.66
699.614	41750.91
699.96	41431.59
700.306	41536.9
700.651	41390.01
700.997	41086.97
701.342	41067.54
701.688	40987.76
702.033	40685.4
702.379	40752.97
702.724	40586.64
703.069	40627.1
703.415	40156.37
703.76	40205.86
704.105	40013.1
704.45	39950.73
704.795	39796.16
705.14	39588.48
705.485	39603.39
705.83	39409.27
706.175	39571.3
706.52	39296.28
706.865	39102.62
707.209	39014.93
707.554	39078.21
707.899	39007.48
708.243	38820.14
708.588	38657.88
708.932	38623.98
709.277	38581.27
709.621	38374.5
709.966	38194.84
710.31	38234.39
710.654	38034.4
710.998	38062.42
711.342	38022.87
711.687	37835.3
712.031	37765.02
712.375	37638.25
712.719	37373.85
713.063	37336.33
713.407	37533.62
713.75	37357.8
714.094	37392.83
714.438	37185.83
714.782	37118.26
715.125	36960.75
715.469	37268.09
715.812	36979.51
716.156	36984.03
716.499	36851.38
716.843	36904.26
717.186	36776.12
717.53	36841.88
717.873	36779.06
718.216	36765.05
718.559	36660.42
718.902	36301.11
719.246	36375
719.589	36273.09
719.932	36195.8
720.275	36385.17
720.617	36220.43
720.96	36013.43
721.303	36064.05
721.646	36232.41
721.989	35949.7
722.331	36208
722.674	35930.04
723.016	35990.61
723.359	35899.31
723.701	35913.1
724.044	35773.66
724.386	35702.03
724.729	35942.7
725.071	35806.66
725.413	35845.07
725.755	35785.19
726.097	35543.84
726.439	35554.23
726.782	35527.34
727.124	35749.71
727.465	35640.33
727.807	35409.61
728.149	35564.18
728.491	35343.62
728.833	35541.58
729.175	35579.54
729.516	35364.64
729.858	35389.27
730.199	35597.85
730.541	35444.41
730.882	35445.08
731.224	35563.73
731.565	35484.41
731.906	35414.58
732.248	35540.22
732.589	35340.23
732.93	35332.32
733.271	35429.94
733.612	35496.84
733.953	35458.42
734.294	35355.37
734.635	35249.16
734.976	35462.03
735.317	35382.49
735.658	35420
735.999	35373
736.339	35368.7
736.68	35525.08
737.021	35474.24
737.361	35422.94
737.702	35626.55
738.042	35578.19
738.383	35698.86
738.723	35706.1
739.063	35573.67
739.404	35811.4
739.744	35713.55
740.084	35560.79
740.424	35666.55
740.764	35827
741.104	35972.3
741.444	35801.23
741.784	35763.27
742.124	36060.66
742.464	36048.01
742.804	36003.26
743.143	36029.93
743.483	36230.6
743.823	36130.94
744.162	36283.71
744.502	36353.54
744.841	36317.38
745.181	36499.75
745.52	36400.54
745.86	36638.05
746.199	36710.59
746.538	36797.82
746.877	36960.98
747.216	37020.41
747.556	37069.68
747.895	37179.05
748.234	37101.09
748.573	37311.02
748.911	37492.94
749.25	37553.05
749.589	37546.95
749.928	37599.6
750.267	37866.72
750.605	37830.11
750.944	37874.4
751.283	38059.93
751.621	38214.05
751.96	38134.28
752.298	38356.42
752.636	38475.06
752.975	38550.54
753.313	38583.76
753.651	39041.15
753.989	38765.22
754.327	39166.8
754.666	38894.26
755.004	39258.09
755.342	39382.38
755.679	39437.07
