Data from 15-0543_FLMS001491_007.txt Node
Date: Thu Apr 19 15:42:02 BST 2018
User: hsy
Spectrometer: FLMS00149
Trigger mode: 0
Integration Time (sec): 1.000000E-2
Scans to average: 10
Electric dark correction enabled: true
Nonlinearity correction enabled: false
Boxcar width: 0
XAxis mode: Wavelengths
Number of Pixels in Spectrum: 2048
>>>>>Begin Spectral Data<<<<<
341.393	-19.21
341.776	-19.21
342.16	-19.21
342.543	-43.61
342.927	-62.82
343.31	-76.61
343.693	-66.44
344.077	-60.79
344.46	-61.24
344.843	-58.3
345.226	-50.39
345.61	-41.81
345.993	-15.14
346.376	-8.81
346.759	23.95
347.142	18.76
347.525	34.8
347.908	71.64
348.291	98.08
348.674	96.27
349.057	96.04
349.44	138.08
349.823	137.85
350.206	173.33
350.588	237.28
350.971	249.48
351.354	264.85
351.737	278.18
352.119	287.22
352.502	301.69
352.884	315.92
353.267	312.31
353.65	351.18
354.032	342.14
354.414	361.8
354.797	353.89
355.179	340.56
355.562	361.12
355.944	400.67
356.326	381.23
356.709	375.81
357.091	408.12
357.473	390.95
357.855	403.38
358.238	366.09
358.62	405.41
359.002	397.96
359.384	401.35
359.766	402.02
360.148	411.51
360.53	389.37
360.912	398.86
361.294	364.06
361.676	397.96
362.057	375.36
362.439	371.52
362.821	373.1
363.203	381.01
363.584	393.44
363.966	388.01
364.348	382.59
364.729	368.35
365.111	384.85
365.493	392.08
365.874	393.89
366.256	390.95
366.637	390.5
367.019	385.98
367.4	392.31
367.781	377.84
368.163	377.62
368.544	384.17
368.925	392.98
369.306	379.2
369.688	383.27
370.069	375.13
370.45	379.65
370.831	399.31
371.212	376.94
371.593	359.54
371.974	384.4
372.355	397.73
372.736	383.49
373.117	388.46
373.498	370.61
373.879	392.31
374.26	382.14
374.641	402.93
375.021	400.22
375.402	407.9
375.783	425.3
376.163	387.33
376.544	403.83
376.925	406.77
377.305	403.83
377.686	402.93
378.066	431.18
378.447	445.41
378.827	423.94
379.208	423.72
379.588	420.33
379.968	435.47
380.349	411.74
380.729	429.37
381.109	422.59
381.489	428.01
381.87	436.15
382.25	444.51
382.63	444.73
383.01	425.53
383.39	468.91
383.77	443.83
384.15	442.25
384.53	448.58
384.91	461.46
385.29	461
385.67	453.55
386.049	475.92
386.429	463.26
386.809	463.26
387.189	456.71
387.568	473.43
387.948	481.12
388.328	480.21
388.707	493.77
389.087	496.26
389.466	494.68
389.846	497.16
390.225	480.44
390.605	509.59
390.984	512.53
391.363	506.43
391.743	519.31
392.122	490.83
392.501	522.47
392.881	503.49
393.26	512.08
393.639	520.44
394.018	538.74
394.397	549.59
394.776	537.39
395.155	524.51
395.534	543.94
395.913	558.86
396.292	534.45
396.671	557.27
397.05	562.7
397.429	563.38
397.808	545.07
398.186	561.57
398.565	573.09
398.944	550.95
399.323	569.48
399.701	580.55
400.08	586.88
400.458	589.36
400.837	600.89
401.215	588.01
401.594	597.05
401.972	618.06
402.351	602.92
402.729	602.47
403.107	611.74
403.486	609.93
403.864	618.97
404.242	631.62
404.62	621.45
404.999	633.43
405.377	631.62
405.755	652.64
406.133	669.36
406.511	659.19
406.889	651.96
407.267	658.06
407.645	654.22
408.023	665.52
408.401	706.2
408.779	703.71
409.156	711.39
409.534	711.17
409.912	715.46
410.29	743.94
410.667	714.56
411.045	740.77
411.422	720.89
411.8	752.75
412.178	760.43
412.555	764.27
412.933	764.95
413.31	748
413.687	794.1
414.065	789.58
414.442	781.22
414.819	816.25
415.197	809.24
415.574	827.55
415.951	814.44
416.328	835.23
416.705	848.11
417.082	833.65
417.46	835.01
417.837	841.56
418.214	867.77
418.591	860.99
418.967	876.14
419.344	865.51
419.721	891.28
420.098	898.73
420.475	896.02
420.852	920.65
421.228	913.87
421.605	899.64
421.982	942.35
422.358	932.63
422.735	937.6
423.111	963.59
423.488	930.37
423.864	972.4
424.241	985.74
424.617	962.01
424.994	992.29
425.37	986.41
425.746	986.87
426.123	1028.9
426.499	998.62
426.875	1037.03
427.251	1022.57
427.627	1061.67
428.003	1054.44
428.379	1067.54
428.756	1065.06
429.132	1086.53
429.507	1093.98
429.883	1130.37
430.259	1127.65
430.635	1149.57
431.011	1098.28
431.387	1165.62
431.763	1200.87
432.138	1187.77
432.514	1168.33
432.89	1218.95
433.265	1225.28
433.641	1265.28
434.016	1251.04
434.392	1260.08
434.767	1285.84
435.143	1276.8
435.518	1287.2
435.894	1332.62
436.269	1332.62
436.644	1364.71
437.02	1361.55
437.395	1357.7
437.77	1378.72
438.145	1404.03
438.52	1384.82
438.895	1413.3
439.271	1428.66
439.646	1422.79
440.021	1438.83
440.395	1430.02
440.77	1445.84
441.145	1430.02
441.52	1495.1
441.895	1490.81
442.27	1468.44
442.645	1483.35
443.019	1532.39
443.394	1535.33
443.769	1531.26
444.143	1524.25
444.518	1554.99
444.892	1564.03
445.267	1557.93
445.641	1589.79
446.016	1599.05
446.39	1577.81
446.764	1571.03
447.139	1629.56
447.513	1630.01
447.887	1632.05
448.262	1627.3
448.636	1670.92
449.01	1687.64
449.384	1713.63
449.758	1692.61
450.132	1699.16
450.506	1719.28
450.88	1730.58
451.254	1750.46
451.628	1754.98
452.002	1783.46
452.376	1811.93
452.75	1818.94
453.123	1820.29
453.497	1857.8
453.871	1869.33
454.244	1934.64
454.618	1942.1
454.992	1955.43
455.365	1976.67
455.739	1976.67
456.112	2023.9
456.486	2038.36
456.859	2064.8
457.232	2076.33
457.606	2099.38
457.979	2154.52
458.352	2197.68
458.725	2199.94
459.099	2175.76
459.472	2238.81
459.845	2276.1
460.218	2306.83
460.591	2333.95
460.964	2354.97
461.337	2364.01
461.71	2420.05
462.083	2428.64
462.456	2483.55
462.829	2477
463.201	2523.1
463.574	2524.23
463.947	2557.45
464.32	2587.73
464.692	2628.86
465.065	2627.28
465.438	2691.45
465.81	2706.82
466.183	2712.92
466.555	2762.19
466.928	2811
467.3	2779.14
467.672	2807.61
468.045	2949.3
468.417	2907.49
468.789	2923.99
469.161	3004.89
469.534	3030.2
469.906	3101.61
470.278	3102.29
470.65	3122.86
471.022	3192.68
471.394	3268.61
471.766	3257.77
472.138	3319.23
472.51	3390.65
472.882	3413.92
473.253	3442.4
473.625	3454.15
473.997	3581.15
474.369	3625.89
474.74	3633.58
475.112	3705.89
475.484	3797.19
475.855	3882.61
476.227	3866.57
476.598	4022.49
476.97	4010.52
477.341	4131.87
477.713	4186.78
478.084	4228.59
478.455	4373.9
478.827	4362.82
479.198	4530.28
479.569	4567.11
479.94	4655.47
480.311	4683.27
480.682	4849.14
481.053	4928.91
481.424	4990.83
481.795	5090.26
482.166	5196.25
482.537	5297.49
482.908	5445.73
483.279	5415.45
483.65	5566.86
484.021	5737.7
484.391	5772.28
484.762	5820.19
485.133	5943.8
485.503	6082.55
485.874	6239.61
486.244	6324.58
486.615	6467.85
486.985	6552.37
487.356	6761.63
487.726	6816.32
488.097	7004.79
488.467	7053.15
488.837	7279.81
489.207	7352.58
489.578	7588.28
489.948	7672.79
490.318	7834.14
490.688	7958.43
491.058	8128.37
491.428	8318.88
491.798	8479.78
492.168	8606.78
492.538	8782.82
492.908	8939.65
493.278	9152.3
493.648	9262.36
494.017	9488.56
494.387	9609.92
494.757	9809.69
495.126	9964.03
495.496	10127.64
495.866	10307.07
496.235	10544.36
496.605	10770.34
496.974	10851.47
497.344	11039.03
497.713	11301.85
498.082	11473.37
498.452	11658.22
498.821	11927.82
499.19	11963.98
499.559	12264.31
499.928	12492.55
500.298	12603.74
500.667	12863.16
501.036	12954.91
501.405	13310.84
501.774	13456.37
502.143	13745.4
502.512	13927.09
502.88	14185.84
503.249	14433.97
503.618	14686.39
503.987	14851.81
504.356	15014.29
504.724	15209.54
505.093	15444.79
505.462	15643.2
505.83	15920.03
506.199	16113.93
506.567	16456.97
506.936	16589.39
507.304	16887.47
507.672	17087.91
508.041	17316.83
508.409	17582.59
508.777	17872.52
509.145	18151.84
509.514	18340.08
509.882	18645.16
510.25	18669.34
510.618	18975.09
510.986	19086.5
511.354	19399.49
511.722	19662.31
512.09	19993.82
512.458	19999.47
512.826	20239.69
513.193	20482.17
513.561	20643.3
513.929	20869.51
514.297	21233.57
514.664	21324.41
515.032	21492.77
515.4	21855.02
515.767	21965.98
516.135	22226.08
516.502	22176.14
516.869	22609.57
517.237	22724.15
517.604	22725.73
517.972	23226.28
518.339	23326.84
518.706	23493.17
519.073	23672.82
519.44	23775.42
519.808	24139.7
520.175	24260.38
520.542	24617.88
520.909	24687.94
521.276	24829.86
521.643	25148.94
522.009	25270.97
522.376	25396.62
522.743	25673.45
523.11	25946.44
523.477	26206.32
523.843	26267.11
524.21	26686.98
524.577	26847.43
524.943	27122.45
525.31	27195.22
525.676	27501.2
526.043	27686.73
526.409	27870.23
526.776	28090.56
527.142	28271.35
527.508	28515.63
527.874	28797.66
528.241	28900.48
528.607	29006.24
528.973	29279.23
529.339	29272.45
529.705	29687.35
530.071	29784.08
530.437	29977.97
530.803	30086.21
531.169	30319.43
531.535	30272.88
531.901	30569.37
532.267	30629.03
532.632	30972.07
532.998	31033.08
533.364	31196.24
533.73	31283.92
534.095	31440.76
534.461	31569.11
534.826	31723.91
535.192	31810.46
535.557	31922.78
535.923	32076.22
536.288	32059.72
536.653	32278.7
537.019	32259.26
537.384	32323.67
537.749	32499.48
538.114	32443.89
538.479	32447.06
538.845	32641.63
539.21	32638.92
539.575	32751
539.94	32828.06
540.305	33064.89
540.67	32890.89
541.034	33000.71
541.399	33058.11
541.764	33230.31
542.129	33298.56
542.494	33225.79
542.858	33280.71
543.223	33426.92
543.587	33606.57
543.952	33413.58
544.316	33642.73
544.681	33584.43
545.045	33750.07
545.41	33863.06
545.774	33845.21
546.138	33800.47
546.503	33844.08
546.867	33958.66
547.231	34136.28
547.595	34174.24
547.959	34180.12
548.324	34198.2
548.688	34266.44
549.052	34328.59
549.416	34370.62
549.779	34310.51
550.143	34367.01
550.507	34440.22
550.871	34625.76
551.235	34520.22
551.599	34913.66
551.962	34851.06
552.326	34856.71
552.689	34819.88
553.053	34642.93
553.417	34886.54
553.78	35152.07
554.143	35196.14
554.507	35176.02
554.87	35242.01
555.234	35622.11
555.597	35485.39
555.96	35572.4
556.323	35628.44
556.686	35635.67
557.05	35627.76
557.413	35855.55
557.776	35752.05
558.139	36125.6
558.502	36052.84
558.865	36022.78
559.228	36227.75
559.59	36427.74
559.953	36337.35
560.316	36640.17
560.679	36574.18
561.041	36754.51
561.404	37010.55
561.767	37167.84
562.129	37116.76
562.492	37313.14
562.854	37394.27
563.217	37374.61
563.579	37482.63
563.941	37721.95
564.304	37861.15
564.666	38058.43
565.028	38011.88
565.39	38147.92
565.753	38329.61
566.115	38361.7
566.477	38446.67
566.839	38648.93
567.201	38849.15
567.563	38830.84
567.925	39131.63
568.287	39034.68
568.648	39334.56
569.01	39278.97
569.372	39652.97
569.734	39679.18
570.095	39741.1
570.457	40067.87
570.819	40097.48
571.18	40031.26
571.542	40356
571.903	40410.69
572.265	40379.73
572.626	40661.08
572.987	40612.04
573.349	40895.87
573.71	41007.74
574.071	41107.17
574.432	41273.04
574.794	41456.76
575.155	41436.88
575.516	41467.38
575.877	41654.95
576.238	41818.79
576.599	41750.99
576.96	41822.63
577.32	41883.64
577.681	42001.83
578.042	42306.46
578.403	42208.61
578.763	42279.34
579.124	42239.34
579.485	42645.43
579.845	42675.04
580.206	42582.38
580.566	42705.77
580.927	42703.28
581.287	42937.63
581.648	42868.48
582.008	43065.31
582.368	43195.47
582.728	43040
583.089	43182.37
583.449	43235.93
583.809	43223.04
584.169	43359.31
584.529	43179.2
584.889	43721.34
585.249	43385.3
585.609	43411.74
585.969	43684.05
586.329	43689.25
586.688	43902.57
587.048	43851.73
587.408	43854.44
587.768	43884.27
588.127	43861.9
588.487	44020.76
588.846	44268.89
589.206	44011.5
589.565	44030.03
589.925	44321.55
590.284	44206.97
590.643	44318.61
591.003	44469.79
591.362	44606.96
591.721	44697.13
592.08	44644.48
592.44	44793.17
592.799	44780.97
593.158	44856.45
593.517	44806.28
593.876	44959.04
594.235	44952.26
594.593	45120.62
594.952	45221.41
595.311	45105.93
595.67	45321.97
596.029	45552.02
596.387	45583.43
596.746	45681.96
597.104	45513.38
597.463	45606.26
597.822	45810.09
598.18	45713.83
598.538	45735.52
598.897	46081.05
599.255	45920.15
599.613	46460.02
599.972	46069.52
600.33	46265.9
600.688	46215.96
601.046	46326.92
601.404	46579.57
601.762	46523.52
602.12	46721.48
602.478	46758.32
602.836	46672.9
603.194	46550.64
603.552	46694.14
603.91	46798.09
604.268	46881.25
604.625	46935.94
604.983	47115.37
605.341	46963.51
605.698	47146.1
606.056	47332.77
606.413	47324.41
606.771	47605.75
607.128	47587.68
607.485	47451.86
607.843	47544.74
608.2	47708.58
608.557	47833.77
608.914	47817.73
609.272	47930.04
609.629	48207.32
609.986	48239.64
610.343	48230.37
610.7	48608.67
611.057	48443.92
611.414	48339.52
611.771	48480.53
612.127	48550.36
612.484	48743.13
612.841	48757.59
613.198	48634.65
613.554	48716.01
613.911	49047.75
614.267	48987.41
614.624	48977.24
614.98	49158.93
615.337	49335.65
615.693	49331.13
616.05	49312.83
616.406	49489.77
616.762	49363.67
617.118	49212.27
617.475	49338.14
617.831	49579.94
618.187	49588.53
618.543	49685.02
618.899	49908.29
619.255	49746.26
619.611	49663.55
619.967	49842.98
620.323	49981.96
620.678	49821.06
621.034	49943.77
621.39	49893.38
621.746	49932.25
622.101	50400.26
622.457	49959.36
622.812	50177.66
623.168	50107.84
623.523	50187.61
623.879	50310.77
624.234	49995.97
624.589	50182.64
624.945	50279.58
625.3	50398
625.655	50395.74
626.01	50322.52
626.365	50420.6
626.72	50226.7
627.075	50202.52
627.43	50204.1
627.785	50255.63
628.14	50205.46
628.495	50302.18
628.85	50254.05
629.205	50209.75
629.559	50346.25
629.914	50152.81
630.269	50097.67
630.623	49999.59
630.978	49951.23
631.332	50119.81
631.687	50115.97
632.041	50082.52
632.396	50071.9
632.75	49896.09
633.104	49977.22
633.459	49677.56
633.813	49920.5
634.167	49859.93
634.521	49888.41
634.875	49905.35
635.229	49726.15
635.583	49576.1
635.937	49661.75
636.291	49599.6
636.645	49603.89
636.999	49424.01
637.352	49552.82
637.706	49378.59
638.06	49511.01
638.413	49373.17
638.767	49200.51
639.121	49270.57
639.474	49237.35
639.828	49184.47
640.181	49138.14
640.534	49240.97
640.888	49031.48
641.241	48854.53
641.594	48896.79
641.947	48992.84
642.301	48926.85
642.654	48969.79
643.007	48823.57
643.36	48843.46
643.713	48750.36
644.066	49000.29
644.419	48589.68
644.771	48214.33
645.124	47810.04
645.477	47862.92
645.83	47721.91
646.182	47768.46
646.535	47591.07
646.888	47865.86
647.24	47658.63
647.593	48007.55
647.945	47767.78
648.298	47609.6
648.65	47451.18
649.002	47279.89
649.355	47163.28
649.707	47064.75
650.059	47071.3
650.411	47655.92
650.763	47874.67
651.115	48429.24
651.467	48306.75
651.819	48278.05
652.171	48205.96
652.523	48103.59
652.875	48128.23
653.227	48121.22
653.578	48459.06
653.93	48167.77
654.282	48089.81
654.633	47993.99
654.985	48128.45
655.337	48276.47
655.688	48152.41
656.039	48190.15
656.391	48017.27
656.742	48086.19
657.094	48066.31
657.445	48130.71
657.796	48098.4
658.147	47994.22
658.498	48088.23
658.849	48161.67
659.2	47979.3
659.551	47910.83
659.902	48175
660.253	47931.17
660.604	48263.36
660.955	47944.73
661.306	48144.04
661.656	48003.03
662.007	47997.16
662.358	48058.4
662.708	48154.67
663.059	48056.59
663.409	47997.16
663.76	48166.64
664.11	48139.53
664.461	48223.14
664.811	48328.67
665.161	48201.67
665.511	48156.02
665.862	48216.36
666.212	48316.47
666.562	48279.86
666.912	48203.93
667.262	48170.71
667.612	48098.4
667.962	48128.23
668.312	48160.54
668.662	48240.31
669.011	48234.66
669.361	48193.54
669.711	48164.61
670.06	48144.5
670.41	47911.28
670.76	48000.32
671.109	48083.48
671.459	47877.84
671.808	47959.19
672.157	48161.9
672.507	47789.25
672.856	47860.21
673.205	47899.53
673.554	47960.55
673.904	47855.92
674.253	48071.05
674.602	47847.56
674.951	47317.4
675.3	47151.53
675.649	47856.14
675.998	47866.99
676.346	47782.25
676.695	47882.36
677.044	47597.39
677.393	47720.55
677.741	47734.11
678.09	47629.26
678.438	47490.5
678.787	47625.41
679.135	47646.66
679.484	47334.8
679.832	47495.93
680.181	47421.58
680.529	47304.07
680.877	47283.05
681.225	47138.65
681.573	47408.24
681.922	47235.59
682.27	47065.43
682.618	47045.32
682.966	46935.49
683.314	46959.22
683.661	46832.21
684.009	46784.98
684.357	46541.6
684.705	46477.65
685.053	46617.76
685.4	46342.28
685.748	46246.24
686.095	46204.89
686.443	46024.33
686.79	46046.47
687.138	46147.71
687.485	45954.27
687.832	45780.04
688.18	45847.83
688.527	45610.1
688.874	45668.4
689.221	45437.22
689.568	45323.1
689.915	45240.84
690.262	45140.51
690.609	45030.68
690.956	44820.52
691.303	44854.19
691.65	44596.34
691.997	44622.1
692.344	44349.34
692.69	44334.65
693.037	44198.16
693.383	43908
693.73	44124.26
694.077	43797.49
694.423	43655.35
694.769	43454
695.116	43454.22
695.462	43256.04
695.808	43125.42
696.155	43224.4
696.501	42762.27
696.847	42984.41
697.193	42537.19
697.539	42571.54
697.885	42282.5
698.231	42276.85
698.577	42243.86
698.923	42212.9
699.269	41838.45
699.614	41598.45
699.96	41437.55
700.306	41442.53
700.651	41422.64
700.997	41083.44
701.342	41079.37
701.688	41024.23
702.033	40752.83
702.379	40771.36
702.724	40509.44
703.069	40742.66
703.415	40145.39
703.76	40146.97
704.105	40094.54
704.45	39918.05
704.795	39778.62
705.14	39575
705.485	39505.4
705.83	39286.2
706.175	39403.26
706.52	39267.22
706.865	39021.8
707.209	38894.34
707.554	38871.07
707.899	38814.35
708.243	38652.54
708.588	38554.24
708.932	38315.15
709.277	38454.81
709.621	38238.77
709.966	37871.32
710.31	38061.37
710.654	37870.42
710.998	37868.38
711.342	37967.36
711.687	37688.05
712.031	37577.32
712.375	37582.74
712.719	37434.27
713.063	37278.12
713.407	37446.02
713.75	37180.94
714.094	37231.11
714.438	37067.95
714.782	37164.67
715.125	36791.57
715.469	37089.19
715.812	36700.96
716.156	36672.48
716.499	36695.76
716.843	36775.76
717.186	36583.44
717.53	36648.53
717.873	36691.24
718.216	36603.78
718.559	36337.35
718.902	36138.26
719.246	36405.6
719.589	36268.88
719.932	36108.88
720.275	36186.85
720.617	36053.74
720.96	36016
721.303	36034.98
721.646	36193.85
721.989	35904.37
722.331	35933.97
722.674	35861.88
723.016	35852.62
723.359	35759.06
723.701	35970.35
724.044	35713.64
724.386	35622.79
724.729	35720.19
725.071	35737.59
725.413	35783.92
725.755	35715.22
726.097	35568.56
726.439	35524.26
726.782	35466.41
727.124	35706.41
727.465	35508.67
727.807	35340.54
728.149	35536.24
728.491	35338.51
728.833	35561.55
729.175	35402.46
729.516	35393.87
729.858	35375.57
730.199	35435.68
730.541	35471.38
730.882	35291.73
731.224	35407.88
731.565	35298.73
731.906	35348.9
732.248	35471.84
732.589	35333.76
732.93	35240.88
733.271	35163.82
733.612	35253.76
733.953	35477.26
734.294	35191.62
734.635	35265.06
734.976	35471.84
735.317	35384.61
735.658	35464.15
735.999	35235.91
736.339	35377.15
736.68	35521.33
737.021	35539.63
737.361	35279.3
737.702	35658.05
738.042	35453.31
738.383	35645.39
738.723	35547.77
739.063	35529.91
739.404	35735.33
739.744	35699.63
740.084	35593.41
740.424	35759.51
740.764	35702.34
741.104	35909.11
741.444	35811.49
741.784	35800.87
742.124	36033.85
742.464	36000.86
742.804	36024.82
743.143	35943.69
743.483	36198.82
743.823	36101.42
744.162	36231.59
744.502	36375.54
744.841	36333.28
745.181	36620.28
745.52	36478.14
745.86	36672.93
746.199	36661.63
746.538	36679.04
746.877	37082.41
747.216	37001.06
747.556	37154.05
747.895	37210.1
748.234	37235.18
748.573	37394.5
748.911	37461.61
749.25	37490.99
749.589	37466.59
749.928	37756.75
750.267	37886.24
750.605	37973.92
750.944	38027.93
751.283	38067.47
751.621	38262.04
751.96	38209.16
752.298	38431.53
752.636	38488.03
752.975	38614.58
753.313	38606.22
753.651	39075.81
753.989	38915.36
754.327	39114.45
754.666	39120.33
