Data from 15-0543_FLMS001491_002.txt Node
Date: Thu Apr 19 15:41:48 BST 2018
User: hsy
Spectrometer: FLMS00149
Trigger mode: 0
Integration Time (sec): 1.000000E-2
Scans to average: 10
Electric dark correction enabled: true
Nonlinearity correction enabled: false
Boxcar width: 0
XAxis mode: Wavelengths
Number of Pixels in Spectrum: 2048
>>>>>Begin Spectral Data<<<<<
341.393	-0.61
341.776	-0.61
342.16	-0.61
342.543	-47.16
342.927	-54.62
343.31	-60.94
343.693	-63.88
344.077	-72.7
344.46	-72.47
344.843	-51.45
345.226	-34.96
345.61	-41.28
345.993	-33.6
346.376	10.69
346.759	13.86
347.142	36.91
347.525	36.68
347.908	61.76
348.291	69
348.674	83.68
349.057	118.71
349.44	112.38
349.823	155.32
350.206	177.02
350.588	253.62
350.971	246.62
351.354	284.36
351.737	301.76
352.119	290.01
352.502	309.89
352.884	292.49
353.267	316.45
353.65	343.11
354.032	352.38
354.414	347.63
354.797	352.38
355.179	370.46
355.562	373.17
355.944	378.37
356.326	378.14
356.709	356.9
357.091	401.64
357.473	391.25
357.855	389.89
358.238	398.25
358.62	409.78
359.002	383.34
359.384	377.69
359.766	411.36
360.148	392.38
360.53	385.82
360.912	389.21
361.294	393.73
361.676	383.34
362.057	390.57
362.439	400.06
362.821	385.37
363.203	384.69
363.584	391.7
363.966	389.66
364.348	394.18
364.729	387.63
365.111	384.02
365.493	390.12
365.874	398.93
366.256	384.02
366.637	387.41
367.019	365.03
367.4	373.85
367.781	366.16
368.163	370.68
368.544	405.71
368.925	396.22
369.306	382.21
369.688	394.86
370.069	378.82
370.45	383.56
370.831	389.44
371.212	386.05
371.593	378.59
371.974	381.08
372.355	375.65
372.736	388.08
373.117	383.11
373.498	395.99
373.879	395.31
374.26	390.79
374.641	388.08
375.021	398.93
375.402	406.16
375.783	402.32
376.163	412.04
376.544	412.26
376.925	407.74
377.305	410.46
377.686	409.55
378.066	394.41
378.447	412.26
378.827	430.12
379.208	419.72
379.588	408.42
379.968	416.56
380.349	428.99
380.729	434.18
381.109	449.1
381.489	429.44
381.87	412.04
382.25	439.16
382.63	447.29
383.01	432.6
383.39	435.99
383.77	441.41
384.15	449.78
384.53	445.03
384.91	457.46
385.29	443.67
385.67	457.46
386.049	463.56
386.429	487.29
386.809	448.65
387.189	468.76
387.568	473.05
387.948	485.93
388.328	475.31
388.707	494.52
389.087	480.74
389.466	496.55
389.846	496.1
390.225	493.39
390.605	514.18
390.984	515.31
391.363	491.36
391.743	504.24
392.122	512.37
392.501	508.31
392.881	510.57
393.26	517.57
393.639	524.8
394.018	532.49
394.397	553.28
394.776	537.91
395.155	546.04
395.534	551.47
395.913	536.55
396.292	546.5
396.671	558.25
397.05	557.8
397.429	565.03
397.808	563.45
398.186	545.14
398.565	557.12
398.944	543.56
399.323	562.77
399.701	586.27
400.08	578.81
400.458	558.25
400.837	570
401.215	569.77
401.594	577.68
401.972	579.94
402.351	598.47
402.729	616.33
403.107	598.25
403.486	614.97
403.864	615.42
404.242	624.46
404.62	630.79
404.999	650.67
405.377	626.27
405.755	619.49
406.133	630.11
406.511	658.81
406.889	655.87
407.267	647.96
407.645	663.78
408.023	665.82
408.401	678.24
408.779	690.45
409.156	676.44
409.534	701.75
409.912	671.92
410.29	696.78
410.667	728.19
411.045	724.57
411.422	751.24
411.8	731.35
412.178	758.69
412.555	755.53
412.933	751.01
413.31	779.49
413.687	776.77
414.065	781.74
414.442	787.39
414.819	798.92
415.197	814.96
415.574	813.16
415.951	833.72
416.328	821.52
416.705	818.35
417.082	810.67
417.46	841.18
417.837	847.28
418.214	859.94
418.591	848.64
418.967	866.04
419.344	883.21
419.721	857
420.098	860.84
420.475	866.94
420.852	873.27
421.228	912.14
421.605	915.98
421.982	923.66
422.358	935.87
422.735	940.16
423.111	966.6
423.488	944.23
423.864	966.15
424.241	929.99
424.617	961.85
424.994	955.07
425.37	977.9
425.746	1007.5
426.123	992.36
426.499	997.33
426.875	1002.98
427.251	1001.63
427.627	1032.36
428.003	1038.24
428.379	1052.7
428.756	1054.73
429.132	1060.16
429.507	1090.21
429.883	1108.74
430.259	1103.77
430.635	1117.33
431.011	1140.38
431.387	1141.06
431.763	1143.09
432.138	1145.8
432.514	1187.16
432.89	1179.47
433.265	1220.83
433.641	1220.6
434.016	1238.23
434.392	1213.6
434.767	1273.03
435.143	1262.18
435.518	1269.64
435.894	1274.16
436.269	1273.03
436.644	1327.27
437.02	1371.33
437.395	1313.48
437.77	1353.48
438.145	1367.72
438.52	1393.93
438.895	1381.96
439.271	1397.77
439.646	1402.97
440.021	1425.34
440.395	1420.82
440.77	1428.51
441.145	1446.36
441.52	1444.78
441.895	1435.29
442.27	1465.57
442.645	1494.49
443.019	1479.58
443.394	1480.48
443.769	1477.32
444.143	1503.76
444.518	1524.78
444.892	1522.74
445.267	1527.04
445.641	1536.3
446.016	1513.48
446.39	1558.67
446.764	1573.14
447.139	1578.56
447.513	1577.43
447.887	1596.19
448.262	1614.72
448.636	1616.07
449.01	1633.02
449.384	1630.76
449.758	1641.38
450.132	1642.29
450.506	1666.92
450.88	1692
451.254	1685.68
451.628	1739.46
452.002	1756.63
452.376	1777.65
452.75	1808.61
453.123	1792.57
453.497	1832.34
453.871	1823.3
454.244	1850.42
454.618	1881.38
454.992	1901.49
455.365	1935.61
455.739	1964.76
456.112	1974.03
456.486	1988.94
456.859	1981.04
457.232	2056.06
457.606	2082.28
457.979	2072.11
458.352	2144.65
458.725	2139
459.099	2171.99
459.472	2186
459.845	2224.64
460.218	2234.36
460.591	2273.91
460.964	2268.71
461.337	2329.95
461.71	2373.12
462.083	2398.65
462.456	2394.81
462.829	2394.13
463.201	2457.18
463.574	2436.16
463.947	2501.7
464.32	2553.22
464.692	2573.34
465.065	2572.43
465.438	2595.26
465.81	2607.91
466.183	2668.48
466.555	2727.91
466.928	2755.7
467.3	2733.33
467.672	2756.16
468.045	2810.84
468.417	2853.55
468.789	2825.76
469.161	2894.91
469.534	2943.72
469.906	2969.03
470.278	3021.91
470.65	3086.09
471.022	3110.95
471.394	3162.02
471.766	3169.7
472.138	3198.4
472.51	3296.26
472.882	3309.81
473.253	3364.05
473.625	3401.79
473.997	3484.27
474.369	3524.05
474.74	3544.84
475.112	3683.36
475.484	3696.24
475.855	3776.69
476.227	3765.62
476.598	3889.01
476.97	3922.91
477.341	3986.18
477.713	4064.14
478.084	4108.66
478.455	4227.53
478.827	4251.03
479.198	4350.46
479.569	4365.83
479.94	4558.37
480.311	4571.7
480.682	4683.11
481.053	4780.74
481.424	4887.63
481.795	4928.3
482.166	5019.37
482.537	5131.01
482.908	5221.63
483.279	5298.01
483.65	5437.89
484.021	5504.78
484.391	5625.46
484.762	5695.74
485.133	5798.79
485.503	5890.31
485.874	6048.73
486.244	6073.81
486.615	6299.79
486.985	6367.81
487.356	6537.98
487.726	6637.41
488.097	6810.96
488.467	6877.63
488.837	7070.85
489.207	7183.38
489.578	7288.69
489.948	7465.64
490.318	7628.57
490.688	7722.81
491.058	7904.72
491.428	8064.04
491.798	8178.61
492.168	8421.09
492.538	8520.52
492.908	8739.28
493.278	8911.02
493.648	8977.24
494.017	9267.85
494.387	9440.27
494.757	9546.71
495.126	9746.93
495.496	9961.62
495.866	10079.13
496.235	10271.44
496.605	10497.42
496.974	10623.75
497.344	10875.49
497.713	11032.1
498.082	11216.95
498.452	11473.89
498.821	11581.69
499.19	11833.88
499.559	12091.96
499.928	12265.96
500.298	12451.72
500.667	12702.79
501.036	12857.13
501.405	13199.95
501.774	13371.92
502.143	13599.71
502.512	13793.38
502.88	14040.61
503.249	14145.91
503.618	14498.67
503.987	14620.03
504.356	14918.55
504.724	15127.36
505.093	15380.68
505.462	15572.09
505.83	15825.42
506.199	16191.74
506.567	16450.94
506.936	16613.19
507.304	16980.19
507.672	17152.61
508.041	17345.38
508.409	17665.37
508.777	17916.44
509.145	18264.22
509.514	18340.38
509.882	18592.58
510.25	18783.08
510.618	19002.73
510.986	19176.06
511.354	19614.92
511.722	19832.32
512.09	19967.68
512.458	20205.19
512.826	20483.83
513.193	20608.12
513.561	20870.26
513.929	21123.13
514.297	21288.55
514.664	21530.35
515.032	21831.14
515.4	21952.04
515.767	22227.73
516.135	22418.24
516.502	22303.89
516.869	22813.71
517.237	22975.51
517.604	22934.16
517.972	23413.01
518.339	23389.51
518.706	23713.8
519.073	23938.2
519.44	24156.72
519.808	24453.66
520.175	24518.3
520.542	24885.97
520.909	24988.79
521.276	25083.48
521.643	25414.54
522.009	25584.03
522.376	25843.46
522.743	26033.74
523.11	26414.29
523.477	26624.68
523.843	26844.79
524.21	27107.83
524.577	27371.1
524.943	27383.76
525.31	27585.56
525.676	27932.9
526.043	28178.99
526.409	28274.36
526.776	28485.42
527.142	28586.21
527.508	28837.73
527.874	29077.5
528.241	29227.32
528.607	29343.93
528.973	29674.54
529.339	29770.59
529.705	30152.95
530.071	30500.29
530.437	30382.55
530.803	30691.47
531.169	30761.07
531.535	30816.44
531.901	30884.23
532.267	31043.32
532.632	31279.25
532.998	31414.39
533.364	31665.9
533.73	31708.39
534.095	31957.2
534.461	31972.34
534.826	32178.21
535.192	32309.5
535.557	32430.86
535.923	32431.53
536.288	32723.28
536.653	32747.91
537.019	32828.81
537.384	32874.46
537.749	33026.77
538.114	33097.28
538.479	33122.59
538.845	33103.83
539.21	33261.79
539.575	33402.81
539.94	33522.8
540.305	33669.24
540.67	33593.54
541.034	33735.91
541.399	33694.1
541.764	33775
542.129	33918.5
542.494	33989.91
542.858	34041.21
543.223	34119.85
543.587	34228.32
543.952	34203.47
544.316	34329.56
544.681	34147.87
545.045	34563.46
545.41	34509.45
545.774	34388.54
546.138	34533.17
546.503	34577.01
546.867	34725.49
547.231	34814.75
547.595	34836.89
547.959	34864.46
548.324	34974.07
548.688	34927.29
549.052	34995.76
549.416	34942.2
549.779	35002.99
550.143	35207.51
550.507	35297.67
550.871	35320.95
551.235	35202.31
551.599	35567.95
551.962	35535.18
552.326	35661.28
552.689	35779.69
553.053	35559.36
553.417	35665.35
553.78	35988.28
554.143	35995.28
554.507	35962.06
554.87	36065.56
555.234	36280.47
555.597	36219.01
555.96	36200.25
556.323	36405.44
556.686	36344.2
557.05	36607.02
557.413	36643.17
557.776	36630.97
558.139	36865.99
558.502	36825.32
558.865	36902.15
559.228	37176.49
559.59	37154.12
559.953	37128.36
560.316	37636.6
560.679	37415.13
561.041	37724.73
561.404	37832.07
561.767	38119.29
562.129	37925.4
562.492	38332.17
562.854	38378.5
563.217	38262.34
563.579	38421.21
563.941	38589.11
564.304	38758.83
564.666	39026.62
565.028	38973.28
565.39	39102.55
565.753	39398.36
566.115	39326.27
566.477	39479.94
566.839	39564
567.201	40019.58
567.563	39824.11
567.925	40040.6
568.287	40114.95
568.648	40154.5
569.01	40462.28
569.372	40737.98
569.734	40653.24
570.095	40839.45
570.457	41118.54
570.819	41053
571.18	41084.19
571.542	41261.58
571.903	41350.62
572.265	41499.09
572.626	41597.62
572.987	41730.27
573.349	41931.62
573.71	41981.79
574.071	42054.33
574.432	42304.27
574.794	42479.86
575.155	42468.78
575.516	42507.43
575.877	42619.51
576.238	42732.28
576.599	42856.12
576.96	42885.04
577.32	42961.65
577.681	43183.12
578.042	43311.47
578.403	43239.39
578.763	43277.58
579.124	43362.55
579.485	43727.28
579.845	43768.86
580.206	43675.98
580.566	43686.15
580.927	43691.35
581.287	43870.78
581.648	43859.48
582.008	44072.36
582.368	44148.97
582.728	43986.94
583.089	44192.58
583.449	44304.89
583.809	44396.87
584.169	44528.84
584.529	44407.94
584.889	44853.58
585.249	44684.55
585.609	44506.92
585.969	44837.31
586.329	44713.02
586.688	44911.21
587.048	44883.64
587.408	44880.25
587.768	44842.96
588.127	44975.61
588.487	44864.65
588.846	45475.03
589.206	45044.08
589.565	45144.19
589.925	45532.21
590.284	45374.7
590.643	45471.19
591.003	45505.09
591.362	45750.05
591.721	45754.12
592.08	45712.09
592.44	45989.6
592.799	45810.39
593.158	45877.28
593.517	45830.96
593.876	46154.11
594.235	46085.41
594.593	46026.88
594.952	46276.37
595.311	46193.43
595.67	46415.35
596.029	46658.28
596.387	46618.51
596.746	46805.62
597.104	46660.99
597.463	46700.76
597.822	46919.06
598.18	46830.48
598.538	46924.03
598.897	47159.73
599.255	47016.69
599.613	47489.22
599.972	47148.89
600.33	47340.52
600.688	47361.54
601.046	47463.68
601.404	47844.46
601.762	47626.84
602.12	47946.83
602.478	47775.09
602.836	47826.16
603.194	47779.38
603.552	47884.91
603.91	47885.59
604.268	48075.64
604.625	48080.16
604.983	48249.88
605.341	48084
605.698	48366.03
606.056	48426.14
606.413	48261.63
606.771	48613.93
607.128	48554.05
607.485	48486.03
607.843	48618.68
608.2	48698
608.557	48925.79
608.914	48806.47
609.272	49040.82
609.629	49137.99
609.986	49251.43
610.343	49226.8
610.7	49634.25
611.057	49440.13
611.414	49396.06
611.771	49598.31
612.127	49638.54
612.484	49693
612.841	49808.7
613.198	49619.1
613.554	49758.76
613.911	50023.39
614.267	49911.3
614.624	49954.46
614.98	50074.91
615.337	50271.29
615.693	50161.01
616.05	50350.84
616.406	50368.24
616.762	50152.88
617.118	50362.59
617.475	50353.55
617.831	50426.77
618.187	50484.62
618.543	50620.43
618.899	50722.35
619.255	50656.37
619.611	50630.15
619.967	50751.05
620.323	51013.64
620.678	50666.76
621.034	50752.86
621.39	50802.8
621.746	50832.86
622.101	51163.47
622.457	50979.3
622.812	51113.08
623.168	51146.75
623.523	51145.17
623.879	51139.97
624.234	51025.62
624.589	51255.9
624.945	51241.89
625.3	51182
625.655	51184.49
626.01	51287.54
626.365	51318.95
626.72	51318.72
627.075	51166.41
627.43	51157.14
627.785	51248.44
628.14	51192.85
628.495	51195.79
628.85	51280.76
629.205	51174.32
629.559	51342
629.914	51192.4
630.269	51173.41
630.623	51064.72
630.978	51053.42
631.332	51205.73
631.687	51165.28
632.041	51075.56
632.396	51037.6
632.75	50992.63
633.104	51111.72
633.459	50874.89
633.813	50886.19
634.167	50835.57
634.521	50846.87
634.875	50881.67
635.229	50821.56
635.583	50706.08
635.937	50641
636.291	50685.29
636.645	50658.63
636.999	50573.43
637.352	50510.83
637.706	50291.63
638.06	50490.72
638.413	50523.04
638.767	50272.2
639.121	50494.56
639.474	50145.19
639.828	50227.22
640.181	50192.88
640.534	50219.99
640.888	50152.65
641.241	49928.93
641.594	49962.6
641.947	50052.31
642.301	49902.26
642.654	49945.2
643.007	49923.05
643.36	49867.69
643.713	49859.1
644.066	49955.82
644.419	49686.22
644.771	49340.69
645.124	49043.98
645.477	48903.42
645.83	48839.24
646.182	48822.97
646.535	48723.08
646.888	48873.81
647.24	48634.05
647.593	48990.87
647.945	48723.31
648.298	48607.61
648.65	48546.36
649.002	48376.88
649.355	48196.32
649.707	47975.53
650.059	48005.81
650.411	48593.6
650.763	48860.03
651.115	49373.24
651.467	49310.86
651.819	49253.92
652.171	49294.14
652.523	49096.41
652.875	49175.73
653.227	48982.96
653.578	49309.06
653.93	49282.16
654.282	49051.21
654.633	49049.63
654.985	49086.01
655.337	49084.43
655.688	49061.15
656.039	49141.38
656.391	48881.05
656.742	48990.87
657.094	49063.87
657.445	49014.6
657.796	48944.55
658.147	49044.43
658.498	49063.87
658.849	49110.19
659.2	49010.08
659.551	48928.05
659.902	49261.83
660.253	49008.5
660.604	49159.68
660.955	48939.8
661.306	49183.86
661.656	49042.4
662.007	48984.32
662.358	49051.66
662.708	49153.35
663.059	48963.3
663.409	48934.83
663.76	49235.39
664.11	49051.21
664.461	49220.02
664.811	49100.25
665.161	49075.39
665.511	49059.12
665.862	49191.77
666.212	49302.96
666.562	49196.52
666.912	49152.45
667.262	49103.86
667.612	49206.91
667.962	49155.39
668.312	49172.56
668.662	49255.72
669.011	49260.92
669.361	49270.19
669.711	49234.48
670.06	49143.19
670.41	49173.01
670.76	49057.31
671.109	49369.62
671.459	49179.79
671.808	49210.98
672.157	49209.4
672.507	48950.87
672.856	48916.3
673.205	49078.78
673.554	49085.79
673.904	49042.85
674.253	49268.61
674.602	48956.75
674.951	48571.45
675.3	48412.13
675.649	48985.45
675.998	48947.71
676.346	48966.24
676.695	49049.18
677.044	48693.71
677.393	48779.13
677.741	48892.8
678.09	48768.73
678.438	48744.78
678.787	48658.45
679.135	48678.34
679.484	48380.95
679.832	48500.94
680.181	48439.47
680.529	48512.92
680.877	48318.12
681.225	48357.67
681.573	48524.22
681.922	48246.26
682.27	48123.55
682.618	48018.47
682.966	47939.83
683.314	48055.76
683.661	47896.21
684.009	47807.4
684.357	47730.12
684.705	47583.68
685.053	47693.05
685.4	47433.63
685.748	47398.82
686.095	47324.7
686.443	46999.51
686.79	47108.21
687.138	47154.31
687.485	47016.24
687.832	46791.61
688.18	46883.13
688.527	46820.53
688.874	46700.09
689.221	46571.28
689.568	46395.01
689.915	46192.53
690.262	46272.07
690.609	46169.03
690.956	46010.39
691.303	45834.8
691.65	45659.66
691.997	45658.98
692.344	45527.01
692.69	45328.37
693.037	45444.98
693.383	44982.62
693.73	45169.73
694.077	44924.09
694.423	44811.77
694.769	44714.6
695.116	44555.51
695.462	44475.74
695.808	44249.98
696.155	44222.86
696.501	43986.71
696.847	44116.65
697.193	43724.12
697.539	43715.76
697.885	43442.77
698.231	43307.63
698.577	43166.17
698.923	43131.59
699.269	42880.53
699.614	42797.59
699.96	42681.66
700.306	42531.61
700.651	42380.88
700.997	42346.53
701.342	42226.08
701.688	42068.12
702.033	41851.4
702.379	41898.4
702.724	41681.23
703.069	41771.18
703.415	41340.68
703.76	41272.88
704.105	41284.63
704.45	41117.86
704.795	40952.21
705.14	40845.1
705.485	40870.63
705.83	40488.5
706.175	40716.51
706.52	40275.62
706.865	40219.8
707.209	40184.78
707.554	39984.56
707.899	40039.47
708.243	39755.18
708.588	39704.34
708.932	39523.33
709.277	39571.23
709.621	39433.16
709.966	39296.89
710.31	39152.26
710.654	38881.31
710.998	39032.94
711.342	39078.37
711.687	38841.08
712.031	38678.15
712.375	38570.81
712.719	38490.36
713.063	38534.42
713.407	38609.45
713.75	38226.86
714.094	38429.34
714.438	38148.67
714.782	38091.27
715.125	37940.99
715.469	38207.65
715.812	37835.46
716.156	37991.16
716.499	37781.45
716.843	37908
717.186	37574.9
717.53	37719.98
717.873	37621.45
718.216	37566.77
718.559	37477.73
718.902	37193.67
719.246	37276.15
719.589	37264.4
719.932	37045.65
720.275	37169.49
720.617	37134.24
720.96	37129.04
721.303	37155.48
721.646	37170.62
721.989	36824.41
722.331	36996.39
722.674	36846.11
723.016	36834.36
723.359	36784.41
723.701	36933.56
724.044	36817.41
724.386	36572.67
724.729	36819.22
725.071	36867.58
725.413	36672.33
725.755	36471.65
726.097	36554.82
726.439	36370.19
726.782	36549.39
727.124	36719.78
727.465	36420.36
727.807	36387.14
728.149	36468.04
728.491	36425.33
728.833	36523.18
729.175	36379.23
729.516	36345.1
729.858	36334.26
730.199	36478.89
730.541	36332.45
730.882	36239.34
731.224	36304.2
731.565	36295.61
731.906	36256.29
732.248	36471.65
732.589	36141.27
732.93	36249.06
733.271	36332.9
733.612	36311.66
733.953	36441.6
734.294	36307.59
734.635	36250.19
734.976	36541.71
735.317	36300.81
735.658	36313.92
735.999	36327.03
736.339	36287.7
736.68	36491.31
737.021	36376.97
737.361	36301.71
737.702	36619.67
738.042	36473.01
738.383	36552.1
738.723	36573.57
739.063	36449.28
739.404	36503.52
739.744	36668.03
740.084	36427.59
740.424	36712.55
740.764	36649.73
741.104	36964.3
741.444	36783.96
741.784	36640.24
742.124	36932.66
742.464	36952.77
742.804	36841.36
743.143	36916.39
743.483	37172.65
743.823	37120.68
744.162	37204.52
744.502	37392.08
744.841	37296.94
745.181	37478.63
745.52	37472.98
745.86	37480.89
746.199	37624.17
746.538	37665.97
746.877	37999.07
747.216	37904.38
747.556	37990.26
747.895	38118.39
748.234	38052.86
748.573	38218.73
748.911	38225.28
749.25	38495.1
749.589	38488.32
749.928	38504.37
750.267	38776.68
750.605	38945.71
750.944	39010.57
751.283	38999.5
751.621	39229.77
751.96	39144.35
752.298	39248.08
752.636	39390.67
752.975	39467.73
753.313	39536.43
753.651	39994.73
753.989	39869.98
754.327	40003.09
754.666	39908.4
755.004	40149.52
