Data from 15-0543_FLMS001491_003.txt Node
Date: Thu Apr 19 15:41:51 BST 2018
User: hsy
Spectrometer: FLMS00149
Trigger mode: 0
Integration Time (sec): 1.000000E-2
Scans to average: 10
Electric dark correction enabled: true
Nonlinearity correction enabled: false
Boxcar width: 0
XAxis mode: Wavelengths
Number of Pixels in Spectrum: 2048
>>>>>Begin Spectral Data<<<<<
341.393	-16.96
341.776	-16.96
342.16	-16.96
342.543	-57.64
342.927	-57.41
343.31	-75.94
343.693	-56.28
344.077	-75.94
344.46	-73.68
344.843	-49.73
345.226	-42.95
345.61	-20.8
345.993	-18.32
346.376	-14.93
346.759	13.77
347.142	48.57
347.525	27.56
347.908	71.62
348.291	80.44
348.674	88.8
349.057	97.84
349.44	121.34
349.823	142.36
350.206	163.82
350.588	240.66
350.971	245.63
351.354	273.2
351.737	271.17
352.119	273.65
352.502	306.64
352.884	310.71
353.267	319.53
353.65	342.8
354.032	338.28
354.414	349.81
354.797	353.65
355.179	352.97
355.562	387.09
355.944	378.51
356.326	373.54
356.709	393.2
357.091	372.86
357.473	380.77
357.855	376.93
358.238	378.28
358.62	378.96
359.002	392.07
359.384	401.78
359.766	392.52
360.148	396.36
360.53	407.43
360.912	383.93
361.294	388.68
361.676	390.48
362.057	383.93
362.439	401.56
362.821	396.13
363.203	382.57
363.584	366.53
363.966	380.54
364.348	363.14
364.729	384.16
365.111	380.99
365.493	384.61
365.874	367.21
366.256	364.5
366.637	373.99
367.019	383.93
367.4	379.64
367.781	375.34
368.163	370.82
368.544	372.41
368.925	362.91
369.306	377.6
369.688	392.97
370.069	379.64
370.45	373.99
370.831	389.58
371.212	390.94
371.593	396.13
371.974	360.65
372.355	377.38
372.736	392.97
373.117	406.98
373.498	392.07
373.879	390.94
374.26	380.99
374.641	376.47
375.021	380.09
375.402	414.21
375.783	372.86
376.163	414.66
376.544	404.27
376.925	395.23
377.305	401.33
377.686	434.1
378.066	404.95
378.447	424.61
378.827	395.23
379.208	415.34
379.588	399.75
379.968	409.69
380.349	429.58
380.729	433.19
381.109	418.73
381.489	443.82
381.87	429.35
382.25	438.39
382.63	409.92
383.01	438.84
383.39	447.66
383.77	458.73
384.15	442.23
384.53	461.89
384.91	463.02
385.29	468.22
385.67	454.21
386.049	482.91
386.429	468.67
386.809	495.79
387.189	486.98
387.568	464.83
387.948	465.28
388.328	487.88
388.707	492.63
389.087	477.49
389.466	453.08
389.846	496.24
390.225	466.87
390.605	486.75
390.984	524.94
391.363	515.9
391.743	517.94
392.122	505.06
392.501	512.97
392.881	529.69
393.26	525.17
393.639	511.61
394.018	530.82
394.397	533.08
394.776	507.77
395.155	524.04
395.534	551.61
395.913	547.32
396.292	575.34
396.671	569.69
397.05	549.58
397.429	552.97
397.808	560.2
398.186	566.98
398.565	575.79
398.944	544.6
399.323	566.75
399.701	566.75
400.08	585.51
400.458	582.34
400.837	595.68
401.215	597.71
401.594	593.87
401.972	618.05
402.351	601.1
402.729	602.91
403.107	620.53
403.486	633.87
403.864	619.86
404.242	610.59
404.62	625.51
404.999	640.65
405.377	620.31
405.755	633.19
406.133	661.89
406.511	668.44
406.889	640.87
407.267	675.22
407.645	672.06
408.023	681.78
408.401	713.19
408.779	706.86
409.156	701.21
409.534	703.47
409.912	733.98
410.29	745.28
410.667	733.07
411.045	756.35
411.422	760.19
411.8	759.74
412.178	747.54
412.555	769.01
412.933	767.88
413.31	807.42
413.687	784.6
414.065	806.52
414.442	800.64
414.819	842.45
415.197	825.05
415.574	812.62
415.951	832.73
416.328	858.72
416.705	836.35
417.082	854.43
417.46	856.23
417.837	870.02
418.214	872.51
418.591	879.51
418.967	874.09
419.344	889.91
419.721	850.81
420.098	898.72
420.475	892.17
420.852	913.86
421.228	900.08
421.605	914.76
421.982	926.06
422.358	940.98
422.735	954.31
423.111	962.9
423.488	932.16
423.864	964.48
424.241	997.93
424.617	978.94
424.994	974.88
425.37	990.02
425.746	997.02
426.123	1018.26
426.499	1016.23
426.875	1018.72
427.251	1058.26
427.627	1058.04
428.003	1063.01
428.379	1065.27
428.756	1085.83
429.132	1117.7
429.507	1098.94
429.883	1163.57
430.259	1137.81
430.635	1159.28
431.011	1172.84
431.387	1167.86
431.763	1197.24
432.138	1199.5
432.514	1212.61
432.89	1237.02
433.265	1242.67
433.641	1269.11
434.016	1260.74
434.392	1264.36
434.767	1305.49
435.143	1329.89
435.518	1317.47
435.894	1321.08
436.269	1364.24
436.644	1385.26
437.02	1362.66
437.395	1372.38
437.77	1393.85
438.145	1404.02
438.52	1411.02
438.895	1448.99
439.271	1430.91
439.646	1459.83
440.021	1468.2
440.395	1464.58
440.77	1470
441.145	1487.63
441.52	1495.99
441.895	1508.42
442.27	1501.87
442.645	1510.23
443.019	1548.87
443.394	1519.72
443.769	1525.37
444.143	1538.02
444.518	1570.34
444.892	1551.36
445.267	1620.96
445.641	1600.17
446.016	1610.56
446.39	1633.39
446.764	1648.3
447.139	1643.56
447.513	1633.39
447.887	1686.95
448.262	1637.46
448.636	1694.86
449.01	1703.9
449.384	1712.71
449.758	1705.7
450.132	1718.13
450.506	1756.32
450.88	1800.16
451.254	1753.61
451.628	1799.71
452.002	1832.25
452.376	1839.26
452.75	1853.27
453.123	1817.34
453.497	1871.58
453.871	1919.71
454.244	1926.04
454.618	1934.85
454.992	1993.61
455.365	2003.32
455.739	2052.59
456.112	2027.05
456.486	2050.1
456.859	2116.77
457.232	2156.77
457.606	2138.23
457.979	2175.07
458.352	2172.13
458.725	2219.14
459.099	2210.78
459.472	2262.53
459.845	2312.92
460.218	2292.58
460.591	2337.1
460.964	2333.94
461.337	2424.1
461.71	2466.81
462.083	2440.83
462.456	2495.29
462.829	2520.37
463.201	2520.6
463.574	2534.83
463.947	2560.82
464.32	2596.75
464.692	2635.4
465.065	2646.92
465.438	2718.33
465.81	2755.39
466.183	2739.57
466.555	2796.52
466.928	2842.62
467.3	2860.7
467.672	2847.14
468.045	2960.36
468.417	2961.49
468.789	2993.58
469.161	2989.74
469.534	3036.06
469.906	3139.56
470.278	3141.15
470.65	3118.55
471.022	3244.19
471.394	3274.02
471.766	3340.91
472.138	3389.73
472.51	3441.25
472.882	3477.86
473.253	3500.91
473.625	3589.72
473.997	3636.95
474.369	3657.97
474.74	3727.57
475.112	3720.79
475.484	3843.27
475.855	3930.96
476.227	3950.16
476.598	4050.27
476.97	4103.61
477.341	4203.94
477.713	4276.26
478.084	4281.68
478.455	4406.42
478.827	4406.2
479.198	4515.12
479.569	4585.85
479.94	4696.59
480.311	4733.19
480.682	4872.85
481.053	4990.82
481.424	5116.46
481.795	5128.89
482.166	5227.19
482.537	5317.36
482.908	5453.63
483.279	5504.47
483.65	5622.66
484.021	5756.44
484.391	5851.13
484.762	5900.62
485.133	6036.66
485.503	6185.59
485.874	6334.96
486.244	6400.04
486.615	6544.67
486.985	6667.83
487.356	6776.76
487.726	6888.17
488.097	7058.78
488.467	7129.74
488.837	7264.2
489.207	7476.17
489.578	7558.43
489.948	7693.34
490.318	7895.15
490.688	8030.06
491.058	8208.58
491.428	8348.69
491.798	8498.29
492.168	8720.89
492.538	8870.94
492.908	9029.58
493.278	9243.36
493.648	9288.56
494.017	9553.41
494.387	9736
494.757	9812.61
495.126	10039.04
495.496	10235.65
495.866	10359.71
496.235	10614.62
496.605	10766.03
496.974	10948.62
497.344	11196.08
497.713	11371.89
498.082	11577.53
498.452	11830.86
498.821	11949.5
499.19	12176.61
499.559	12443.5
499.928	12566.66
500.298	12759.42
500.667	13069.02
501.036	13148.11
501.405	13449.8
501.774	13643.24
502.143	13916.23
502.512	14088.43
502.88	14467.85
503.249	14512.6
503.618	14795.98
503.987	15025.58
504.356	15223.54
504.724	15541.27
505.093	15751.66
505.462	15929.06
505.83	16122.95
506.199	16347.58
506.567	16783.27
506.936	16891.07
507.304	17250.61
507.672	17499.19
508.041	17719.29
508.409	18037.93
508.777	18246.06
509.145	18465.49
509.514	18598.37
509.882	18848.3
510.25	19034.97
510.618	19347.5
510.986	19500.49
511.354	19807.37
511.722	20123.3
512.09	20345.89
512.458	20403.74
512.826	20829.49
513.193	20927.35
513.561	21172.08
513.929	21398.52
514.297	21590.83
514.664	21893.42
515.032	21995.34
515.4	22339.51
515.767	22496.8
516.135	22686.85
516.502	22715.55
516.869	23201.64
517.237	23341.07
517.604	23294.06
517.972	23711.9
518.339	23825.57
518.706	24069.41
519.073	24185.79
519.44	24362.96
519.808	24650.19
520.175	24738.77
520.542	25210.17
520.909	25301.92
521.276	25305.54
521.643	25693.55
522.009	25817.39
522.376	26051.96
522.743	26357.94
523.11	26604.48
523.477	26778.04
523.843	26935.55
524.21	27431.81
524.577	27508.64
524.943	27757
525.31	27924.68
525.676	28234.05
526.043	28556.3
526.409	28653.47
526.776	28907.25
527.142	28924.88
527.508	29217.07
527.874	29414.58
528.241	29550.85
528.607	29758.75
528.973	30106.54
529.339	30103.83
529.705	30433.54
530.071	30772.96
530.437	30941.09
530.803	30978.83
531.169	31091.6
531.535	31181.99
531.901	31272.16
532.267	31633.5
532.632	31722.09
532.998	31845.48
533.364	32007.28
533.73	32173.83
534.095	32483.2
534.461	32400.49
534.826	32528.85
535.192	32674.83
535.557	32824.66
535.923	32828.05
536.288	32961.61
536.653	33254.25
537.019	33083.64
537.384	33255.16
537.749	33347.13
538.114	33536.73
538.479	33291.31
538.845	33542.15
539.21	33495.83
539.575	33713.68
539.94	33739.44
540.305	33898.08
540.67	33917.96
541.034	34021.69
541.399	34044.06
541.764	34125.64
542.129	34258.29
542.494	34248.35
542.858	34409.02
543.223	34209.03
543.587	34538.74
543.952	34500.55
544.316	34564.5
544.681	34471.4
545.045	34727.21
545.41	34747.55
545.774	34683.82
546.138	34828.45
546.503	34759.98
546.867	34915.23
547.231	35138.5
547.595	34998.39
547.959	35194.09
548.324	35249.91
548.688	35209.23
549.052	35345.05
549.416	35237.25
549.779	35447.19
550.143	35520.86
550.507	35608.32
550.871	35676.56
551.235	35694.64
551.599	35848.53
551.962	35892.83
552.326	35947.97
552.689	36045.37
553.053	35970.57
553.417	36062.54
553.78	36401.51
554.143	36239.26
554.507	36251.69
554.87	36463.43
555.234	36711.11
555.597	36424.34
555.96	36533.94
556.323	36751.56
556.686	36833.82
557.05	37055.96
557.413	36991.78
557.776	36935.06
558.139	37217.76
558.502	37298.67
558.865	37261.38
559.228	37504.99
559.59	37473.8
559.953	37608.49
560.316	38045.54
560.679	38079.44
561.041	38180.45
561.404	38275.14
561.767	38558.29
562.129	38299.54
562.492	38634.9
562.854	38672.19
563.217	38636.03
563.579	38737.72
563.941	38936.14
564.304	38979.75
564.666	39545.84
565.028	39525.95
565.39	39415.9
565.753	39642.56
566.115	39658.38
566.477	39981.08
566.839	39907.86
567.201	40290.45
567.563	40296.78
567.925	40529.77
568.287	40451.13
568.648	40581.74
569.01	40683.66
569.372	41042.75
569.734	41015.4
570.095	41290.65
570.457	41289.07
570.819	41480.7
571.18	41289.3
571.542	41714.14
571.903	41634.82
572.265	41931.09
572.626	42009.95
572.987	41996.85
573.349	42195.26
573.71	42263.06
574.071	42574.01
574.432	42762.7
574.794	42870.05
575.155	42835.92
575.516	42813.78
575.877	42887.22
576.238	43041.57
576.599	43166.31
576.96	43246.31
577.32	43366.76
577.681	43298.28
578.042	43582.79
578.403	43633.41
578.763	43649.46
579.124	43778.5
579.485	43994.76
579.845	44237.24
580.206	43974.2
580.566	44148.88
580.927	44126.96
581.287	44309.78
581.648	44197.47
582.008	44643.11
582.368	44456.22
582.728	44651.69
583.089	44547.97
583.449	44467.74
583.809	44726.72
584.169	44889.88
584.529	44744.35
584.889	45114.73
585.249	44918.13
585.609	44752.03
585.969	45205.12
586.329	44989.76
586.688	45202.64
587.048	45259.59
587.408	45246.25
587.768	45207.84
588.127	45406.48
588.487	45377.1
588.846	45777.99
589.206	45364.67
589.565	45434.27
589.925	45906.35
590.284	45861.6
590.643	45719.24
591.003	45822.51
591.362	46081.03
591.721	46105.21
592.08	46064.31
592.44	46335.26
592.799	46168.72
593.158	46315.6
593.517	46284.19
593.876	46472.66
594.235	46404.64
594.593	46535.94
594.952	46649.15
595.311	46410.07
595.67	46751.75
596.029	46886.21
596.387	47064.96
596.746	47081.23
597.104	46956.49
597.463	47001.69
597.822	47140.22
598.18	47061.8
598.538	47095.24
598.897	47480.32
599.255	47240.33
599.613	47719.18
599.972	47497.72
600.33	47580.66
600.688	47698.17
601.046	47842.57
601.404	48070.36
601.762	47923.25
602.12	48098.38
602.478	48066.29
602.836	48271.26
603.194	48036.91
603.552	48197.14
603.91	48164.6
604.268	48248.89
604.625	48283.24
604.983	48536.56
605.341	48243.01
605.698	48686.16
606.056	48862.2
606.413	48680.97
606.771	48814.97
607.128	48971.58
607.485	48729.1
607.843	48846.61
608.2	49148.75
608.557	49190.1
608.914	49169.54
609.272	49275.53
609.629	49601.62
609.986	49549.64
610.343	49554.62
610.7	49922.06
611.057	49715.06
611.414	49720.26
611.771	49819.92
612.127	49901.72
612.484	49912.8
612.841	50182.85
613.198	49961.84
613.554	50010.42
613.911	50239.12
614.267	50191.43
614.624	50266.01
614.98	50370.86
615.337	50626
615.693	50637.07
616.05	50547.13
616.406	50847.24
616.762	50721.82
617.118	50817.63
617.475	50710.97
617.831	50841.36
618.187	50931.53
618.543	50974.69
618.899	51219.66
619.255	51174.69
619.611	51233.67
619.967	51251.29
620.323	51332.65
620.678	51292.87
621.034	51218.75
621.39	51189.37
621.746	51225.31
622.101	51628.68
622.457	51290.39
622.812	51501
623.168	51607.22
623.523	51360.22
623.879	51579.42
624.234	51397.96
624.589	51482.02
624.945	51520.89
625.3	51597.27
625.655	51575.13
626.01	51578.06
626.365	51660.55
626.72	51566.77
627.075	51521.57
627.43	51602.47
627.785	51611.51
628.14	51574.22
628.495	51597.05
628.85	51594.79
629.205	51512.98
629.559	51774.44
629.914	51560.44
630.269	51595.92
630.623	51383.27
630.978	51418.75
631.332	51564.28
631.687	51490.16
632.041	51314.57
632.396	51354.57
632.75	51357.28
633.104	51379.2
633.459	51216.94
633.813	51178.3
634.167	51161.8
634.521	51141.24
634.875	51237.73
635.229	51041.81
635.583	50931.75
635.937	50979.89
636.291	50970.17
636.645	50920.45
636.999	50903.96
637.352	50922.94
637.706	50661.03
638.06	50786.45
638.413	50818.99
638.767	50569.5
639.121	50587.36
639.474	50465.1
639.828	50536.06
640.181	50496.51
640.534	50530.41
640.888	50372.22
641.241	50269.4
641.594	50285.44
641.947	50432.33
642.301	50332.22
642.654	50236.86
643.007	50166.35
643.36	50325.89
643.713	50233.69
644.066	50300.58
644.419	50059.46
644.771	49610.66
645.124	49227.17
645.477	49361.63
645.83	49240.05
646.182	49236.88
646.535	49185.59
646.888	49318.01
647.24	49128.41
647.593	49398.69
647.945	49163.66
648.298	49124.12
648.65	48847.52
649.002	48608.43
649.355	48677.35
649.707	48500.63
650.059	48608.65
650.411	49053.16
650.763	49128.19
651.115	49717.32
651.467	49611.56
651.819	49581.28
652.171	49586.93
652.523	49631.68
652.875	49546.03
653.227	49379.7
653.578	49650.43
653.93	49575.18
654.282	49402.98
654.633	49468.97
654.985	49510.32
655.337	49581.06
655.688	49528.63
656.039	49580.6
656.391	49256.09
656.742	49405.69
657.094	49482.07
657.445	49391.68
657.796	49470.78
658.147	49415.64
658.498	49403.43
658.849	49608.85
659.2	49372.7
659.551	49337.9
659.902	49590.09
660.253	49503.32
660.604	49598.46
660.955	49332.47
661.306	49637.55
661.656	49476.2
662.007	49493.83
662.358	49541.28
662.708	49560.26
663.059	49592.58
663.409	49264.91
663.76	49629.87
664.11	49601.62
664.461	49649.08
664.811	49676.19
665.161	49556.42
665.511	49530.66
665.862	49515.29
666.212	49610.21
666.562	49767.26
666.912	49512.58
667.262	49497.67
667.612	49681.84
667.962	49561.39
668.312	49497.44
668.662	49795.96
669.011	49628.74
669.361	49641.62
669.711	49724.55
670.06	49485.46
670.41	49395.98
670.76	49415.64
671.109	49580.6
671.459	49473.71
671.808	49487.27
672.157	49655.4
672.507	49302.19
672.856	49233.72
673.205	49342.19
673.554	49351.23
673.904	49325.02
674.253	49558.91
674.602	49203.89
674.951	48854.52
675.3	48596.9
675.649	49226.49
675.998	49273.27
676.346	49302.19
676.695	49241.85
677.044	49049.77
677.393	49238.24
677.741	49349.42
678.09	49188.3
678.438	49016.1
678.787	49162.08
679.135	49100.39
679.484	48788.31
679.832	49131.8
680.181	48865.14
680.529	48906.95
680.877	48720.74
681.225	48673.06
681.573	49010
681.922	48753.96
682.27	48541.31
682.618	48531.37
682.966	48427.64
683.314	48351.48
683.661	48429.9
684.009	48273.52
684.357	48138.16
684.705	48117.14
685.053	48123.92
685.4	47990.36
685.748	47770.48
686.095	47746.08
686.443	47608.68
686.79	47540.88
687.138	47527.55
687.485	47599.86
687.832	47337.5
688.18	47326.65
688.527	47212.3
688.874	47123.49
689.221	47117.17
689.568	46845.31
689.915	46791.07
690.262	46760.11
690.609	46709.94
690.956	46453.68
691.303	46427.24
691.65	46233.57
691.997	46080.36
692.344	45945.67
692.69	45841.72
693.037	45780.7
693.383	45498.22
693.73	45712.91
694.077	45476.3
694.423	45281.28
694.769	45170.32
695.116	45126.03
695.462	44946.37
695.808	44782.54
696.155	44753.16
696.501	44396.56
696.847	44551.13
697.193	44046.51
697.539	44136.23
697.885	43806.52
698.231	43723.58
698.577	43737.59
698.923	43760.64
699.269	43346.87
699.614	43102.36
699.96	42991.4
700.306	43029.14
700.651	42793.21
700.997	42591.63
701.342	42537.4
701.688	42437.74
702.033	42231.87
702.379	42241.59
702.724	42018.99
703.069	42287.91
703.415	41811.09
703.76	41614.48
704.105	41587.59
704.45	41439.57
704.795	41309.18
705.14	41138.11
705.485	41021.73
705.83	40771.8
706.175	40973.6
706.52	40689.54
706.865	40558.02
707.209	40408.87
707.554	40286.61
707.899	40289.77
708.243	40153.73
708.588	40109.67
708.932	39773.18
709.277	39931.59
709.621	39614.99
709.966	39457.93
710.31	39561.43
710.654	39243.47
710.998	39297.94
711.342	39285.51
711.687	38944.05
712.031	38919.41
712.375	38828.34
712.719	38754.67
713.063	38714.45
713.407	38894.56
713.75	38702.47
714.094	38649.14
714.438	38362.59
714.782	38464.06
715.125	38213.22
715.469	38581.57
715.812	38119.21
716.156	37960.12
716.499	38076.5
716.843	38041.47
717.186	37832.21
717.53	37970.96
717.873	38003.28
718.216	37817.52
718.559	37705.89
718.902	37618.88
719.246	37467.02
719.589	37436.74
719.932	37465.22
720.275	37509.28
720.617	37441.71
720.96	37351.77
721.303	37477.87
721.646	37514.48
721.989	37126.02
722.331	37325.56
722.674	37117.65
723.016	37222.96
723.359	37045.57
723.701	37183.41
724.044	37036.3
724.386	36938
724.729	37059.12
725.071	36958.11
725.413	36921.95
725.755	36854.61
726.097	36839.24
726.439	36732.58
726.782	36799.02
727.124	36869.98
727.465	36801.5
727.807	36618.68
728.149	36857.55
728.491	36739.58
728.833	36913.82
729.175	36723.31
729.516	36654.39
729.858	36633.37
730.199	36720.15
730.541	36771.9
730.882	36483.55
731.224	36569.87
731.565	36529.87
731.906	36640.6
732.248	36663.65
732.589	36471.57
732.93	36347.5
733.271	36518.8
733.612	36529.87
733.953	36692.13
734.294	36690.32
734.635	36578.23
734.976	36714.05
735.317	36686.7
735.658	36564.9
735.999	36660.49
736.339	36612.13
736.68	36766.25
737.021	36721.28
737.361	36515.18
737.702	36783.43
738.042	36740.04
738.383	36905.23
738.723	36983.87
739.063	36772.35
739.404	37036.3
739.744	36973.03
740.084	36850.32
740.424	37044.44
740.764	37025.45
741.104	37252.57
741.444	37096.86
741.784	37156.07
742.124	37270.64
742.464	37305.67
742.804	37289.63
743.143	37361.72
743.483	37408.72
743.823	37577.08
744.162	37406.91
744.502	37617.53
744.841	37463.41
745.181	37779.11
745.52	37786.56
745.86	37908.37
746.199	37824.53
746.538	38036.05
746.877	38206.66
747.216	38265.87
747.556	38350.16
747.895	38462.93
748.234	38490.05
748.573	38558.29
748.911	38566.43
749.25	38803.71
749.589	38780.66
749.928	38961.45
750.267	39119.86
750.605	39170.48
750.944	39291.38
751.283	39284.6
751.621	39574.76
751.96	39451.83
752.298	39532.96
752.636	39866.96
752.975	39954.42
753.313	39900.86
753.651	40394.86
753.989	40207.52
754.327	40381.97
