Data from 15-1247_FLMS001491_006.txt Node
Date: Thu Apr 19 16:10:33 BST 2018
User: hsy
Spectrometer: FLMS00149
Trigger mode: 0
Integration Time (sec): 1.000000E-2
Scans to average: 10
Electric dark correction enabled: true
Nonlinearity correction enabled: false
Boxcar width: 0
XAxis mode: Wavelengths
Number of Pixels in Spectrum: 2048
>>>>>Begin Spectral Data<<<<<
341.393	-6.88
341.776	-6.88
342.16	-6.88
342.543	-50.04
342.927	-68.57
343.31	-63.83
343.693	-75.35
344.077	-68.35
344.46	-55.92
344.843	-58.85
345.226	-49.36
345.61	-23.83
345.993	-25.41
346.376	-13.88
346.759	14.82
347.142	31.99
347.525	54.36
347.908	50.75
348.291	77.64
348.674	97.98
349.057	107.24
349.44	127.36
349.823	127.81
350.206	166.68
350.588	200.35
350.971	243.51
351.354	270.63
351.737	278.76
352.119	295.26
352.502	313.57
352.884	311.76
353.267	311.76
353.65	341.36
354.032	353.11
354.414	341.36
354.797	361.93
355.179	344.75
355.562	352.66
355.944	373.45
356.326	380.46
356.709	368.03
357.091	395.82
357.473	385.65
357.855	376.16
358.238	380.23
358.62	384.98
359.002	397.18
359.384	416.84
359.766	396.5
360.148	398.99
360.53	390.85
360.912	378.42
361.294	391.53
361.676	398.08
362.057	373.22
362.439	375.03
362.821	385.88
363.203	378.2
363.584	378.65
363.966	371.64
364.348	373.22
364.729	373.9
365.111	364.86
365.493	380.46
365.874	384.52
366.256	379.78
366.637	407.12
367.019	363.28
367.4	366.9
367.781	362.15
368.163	357.41
368.544	370.74
368.925	374.13
369.306	368.48
369.688	383.17
370.069	367.12
370.45	378.65
370.831	375.48
371.212	368.93
371.593	370.74
371.974	362.15
372.355	388.59
372.736	381.13
373.117	402.15
373.498	375.71
373.879	388.37
374.26	383.17
374.641	372.09
375.021	372.55
375.402	417.74
375.783	401.7
376.163	397.18
376.544	389.27
376.925	377.74
377.305	413
377.686	403.05
378.066	405.31
378.447	386.78
378.827	416.16
379.208	438.53
379.588	426.78
379.968	426.56
380.349	415.26
380.729	421.58
381.109	435.82
381.489	409.83
381.87	418.87
382.25	441.25
382.63	418.65
383.01	429.04
383.39	424.52
383.77	412.55
384.15	413.9
384.53	431.53
384.91	450.28
385.29	439.44
385.67	442.6
386.049	449.61
386.429	467.46
386.809	456.16
387.189	456.16
387.568	439.66
387.948	442.83
388.328	464.75
388.707	454.13
389.087	460.91
389.466	485.76
389.846	469.72
390.225	467.91
390.605	468.82
390.984	474.01
391.363	459.1
391.743	497.74
392.122	503.39
392.501	523.73
392.881	483.05
393.26	497.97
393.639	502.49
394.018	513.79
394.397	510.17
394.776	500.45
395.155	509.49
395.534	495.26
395.913	520.11
396.292	525.54
396.671	522.6
397.05	523.96
397.429	536.61
397.808	537.74
398.186	565.76
398.565	555.82
398.944	542.71
399.323	541.81
399.701	549.49
400.08	560.11
400.458	578.64
400.837	548.81
401.215	565.31
401.594	556.95
401.972	579.09
402.351	581.35
402.729	598.08
403.107	586.1
403.486	550.4
403.864	568.7
404.242	590.62
404.62	594.69
404.999	595.14
405.377	627.23
405.755	603.28
406.133	628.13
406.511	647.57
406.889	622.71
407.267	651.41
407.645	659.09
408.023	627.91
408.401	646.66
408.779	672.43
409.156	686.89
409.534	678.75
409.912	669.49
410.29	698.41
410.667	698.19
411.045	694.35
411.422	702.71
411.8	708.13
412.178	729.15
412.555	745.42
412.933	754.91
413.31	744.29
413.687	756.72
414.065	742.25
414.442	772.08
414.819	751.75
415.197	770.28
415.574	777.73
415.951	781.35
416.328	772.76
416.705	781.8
417.082	808.02
417.46	788.58
417.837	832.65
418.214	841.91
418.591	836.49
418.967	834.91
419.344	821.8
419.721	828.81
420.098	852.99
420.475	845.3
420.852	867.67
421.228	892.53
421.605	878.07
421.982	897.73
422.358	916.26
422.735	921.01
423.111	897.28
423.488	933.89
423.864	928.24
424.241	936.37
424.617	935.47
424.994	930.27
425.37	948.35
425.746	955.58
426.123	968.46
426.499	979.99
426.875	975.47
427.251	1003.49
427.627	996.03
428.003	1003.94
428.379	1026.54
428.756	1030.61
429.132	1059.53
429.507	1050.72
429.883	1065.18
430.259	1071.06
430.635	1075.13
431.011	1103.37
431.387	1123.71
431.763	1124.62
432.138	1138.18
432.514	1147.89
432.89	1150.15
433.265	1185.86
433.641	1193.99
434.016	1197.61
434.392	1243.26
434.767	1233.54
435.143	1262.47
435.518	1248.23
435.894	1237.83
436.269	1276.93
436.644	1288.68
437.02	1318.74
437.395	1320.77
437.77	1327.78
438.145	1322.35
438.52	1327.32
438.895	1360.54
439.271	1366.64
439.646	1377.94
440.021	1388.34
440.395	1390.83
440.77	1385.18
441.145	1396.47
441.52	1412.75
441.895	1411.16
442.27	1431.05
442.645	1405.74
443.019	1447.55
443.394	1461.11
443.769	1491.61
444.143	1448.9
444.518	1469.92
444.892	1447.09
445.267	1488
445.641	1478.51
446.016	1500.88
446.39	1503.82
446.764	1525.28
447.139	1531.16
447.513	1528.22
447.887	1523.25
448.262	1527.09
448.636	1537.94
449.01	1591.5
449.384	1575.23
449.758	1611.16
450.132	1627.88
450.506	1611.61
450.88	1631.04
451.254	1655.45
451.628	1631.04
452.002	1678.73
452.376	1698.16
452.75	1725.51
453.123	1724.15
453.497	1731.38
453.871	1752.4
454.244	1807.09
454.618	1794.88
454.992	1812.28
455.365	1822
455.739	1889.79
456.112	1888.21
456.486	1895.67
456.859	1920.3
457.232	1937.7
457.606	1987.19
457.979	1988.32
458.352	2047.76
458.725	2026.97
459.099	2037.14
459.472	2102.67
459.845	2107.64
460.218	2120.07
460.591	2168.43
460.964	2127.53
461.337	2163.46
461.71	2252.95
462.083	2237.58
462.456	2226.28
462.829	2267.41
463.201	2311.7
463.574	2297.92
463.947	2353.96
464.32	2376.56
464.692	2420.4
465.065	2442.32
465.438	2460.4
465.81	2478.93
466.183	2513.28
466.555	2543.11
466.928	2565.48
467.3	2575.43
467.672	2600.96
468.045	2658.36
468.417	2640.28
468.789	2664.69
469.161	2735.42
469.534	2739.04
469.906	2811.8
470.278	2806.61
470.65	2831.69
471.022	2881.41
471.394	2951.46
471.766	2990.1
472.138	2993.27
472.51	3012.25
472.882	3067.62
473.253	3062.87
473.625	3144.23
473.997	3209.31
474.369	3168.41
474.74	3256.99
475.112	3347.61
475.484	3378.8
475.855	3458.57
476.227	3479.58
476.598	3522.52
476.97	3582.41
477.341	3674.38
477.713	3720.03
478.084	3751.21
478.455	3805.9
478.827	3859.46
479.198	3991.43
479.569	3986.24
479.94	4051.32
480.311	4143.97
480.682	4198.66
481.053	4324.76
481.424	4350.3
481.795	4449.28
482.166	4512.78
482.537	4590.06
482.908	4708.48
483.279	4711.42
483.65	4846.78
484.021	4922.94
484.391	4971.3
484.762	5096.49
485.133	5115.02
485.503	5239.31
485.874	5342.81
486.244	5422.58
486.615	5503.71
486.985	5577.61
487.356	5702.8
487.726	5759.98
488.097	5946.86
488.467	5993.87
488.837	6105.73
489.207	6207.87
489.578	6320.64
489.948	6444.48
490.318	6543.23
490.688	6593.63
491.058	6720.18
491.428	6792.94
491.798	6930.57
492.168	7108.41
492.538	7144.35
492.908	7290.56
493.278	7417.79
493.648	7400.16
494.017	7593.6
494.387	7696.87
494.757	7825.91
495.126	7946.36
495.496	8045.57
495.866	8157.65
496.235	8300.02
496.605	8416.18
496.974	8478.1
497.344	8627.47
497.713	8734.81
498.082	8851.65
498.452	8921.93
498.821	8987.91
499.19	9119.89
499.559	9314.91
499.928	9376.83
500.298	9490.05
500.667	9645.75
501.036	9698.63
501.405	9810.72
501.774	9926.19
502.143	10015.46
502.512	10151.5
502.88	10320.76
503.249	10364.37
503.618	10524.82
503.987	10498.38
504.356	10732.73
504.724	10820.63
505.093	10923.23
505.462	10990.8
505.83	11104.02
506.199	11253.84
506.567	11509.65
506.936	11488.64
507.304	11624.91
507.672	11780.83
508.041	11856.31
508.409	11940.15
508.777	12080.26
509.145	12266.47
509.514	12258.11
509.882	12404.09
510.25	12569.74
510.618	12672.79
510.986	12723.41
511.354	12779.9
511.722	12964.76
512.09	13117.52
512.458	13146
512.826	13305.31
513.193	13328.14
513.561	13428.02
513.929	13583.95
514.297	13731.97
514.664	13778.3
515.032	13975.35
515.4	14060.32
515.767	14116.82
516.135	14192.97
516.502	14214.22
516.869	14455.57
517.237	14652.17
517.604	14524.72
517.972	14833.41
518.339	14844.03
518.706	14980.75
519.073	15133.97
519.44	15105.72
519.808	15424.81
520.175	15398.59
520.542	15623.67
520.909	15638.81
521.276	15733.5
521.643	15948.63
522.009	16131.45
522.376	16207.38
522.743	16264.11
523.11	16566.92
523.477	16676.07
523.843	16722.4
524.21	16960.36
524.577	17057.53
524.943	17219.79
525.31	17333.91
525.676	17493
526.043	17740.68
526.409	17762.6
526.776	17977.51
527.142	18003.27
527.508	18123.49
527.874	18361
528.241	18426.08
528.607	18447.1
528.973	18844.6
529.339	18796.92
529.705	18998.05
530.071	19120.53
530.437	19213.86
530.803	19371.37
531.169	19475.55
531.535	19598.26
531.901	19662.89
532.267	19695.2
532.632	19957.12
532.998	20067.17
533.364	20094.74
533.73	20253.38
534.095	20480.72
534.461	20456.76
534.826	20514.39
535.192	20589.87
535.557	20780.82
535.923	20753.25
536.288	20946.69
536.653	20989.86
537.019	21071.21
537.384	21199.8
537.749	21239.79
538.114	21370.19
538.479	21348.94
538.845	21579.22
539.21	21596.17
539.575	21666.22
539.94	21668.26
540.305	21922.71
540.67	21885.65
541.034	21917.06
541.399	22002.71
541.764	22163.84
542.129	22191.63
542.494	22168.58
542.858	22383.49
543.223	22222.59
543.587	22515.69
543.952	22394.34
544.316	22642.47
544.681	22468.01
545.045	22750.49
545.41	22904.84
545.774	22800.43
546.138	22845.85
546.503	22911.16
546.867	23015.12
547.231	23198.61
547.595	23303.92
547.959	23280.42
548.324	23333.98
548.688	23318.16
549.052	23517.02
549.416	23377.59
549.779	23587.53
550.143	23599.28
550.507	23622.1
550.871	23752.27
551.235	23740.29
551.599	24038.37
551.962	24068.19
552.326	23979.61
552.689	24164.24
553.053	23996.33
553.417	24156.1
553.78	24481.97
554.143	24414.85
554.507	24619.59
554.87	24570.33
555.234	24838.57
555.597	24768.74
555.96	24721.74
556.323	24806.03
556.686	24980.49
557.05	25088.51
557.413	25205.11
557.776	25276.75
558.139	25353.13
558.502	25449.4
558.865	25643.97
559.228	25692.11
559.59	25793.35
559.953	25827.7
560.316	26092.32
560.679	26050.74
561.041	26239.89
561.404	26322.82
561.767	26514.23
562.129	26449.6
562.492	26815.92
562.854	26781.12
563.217	26798.29
563.579	26891.17
563.941	27001
564.304	27167.32
564.666	27526.41
565.028	27445.96
565.39	27510.36
565.753	27716.69
566.115	27775.89
566.477	27923.69
566.839	27994.65
567.201	28168.88
567.563	28226.28
567.925	28465.14
568.287	28314.18
568.648	28617.45
569.01	28786.71
569.372	29081.85
569.734	29026.93
570.095	29255.86
570.457	29380.6
570.819	29619.91
571.18	29511.44
571.542	29965.21
571.903	29896.06
572.265	30033.01
572.626	30277.98
572.987	30339.44
573.349	30529.49
573.71	30659.66
574.071	30822.37
574.432	31118.63
574.794	31248.57
575.155	31270.04
575.516	31397.49
575.877	31594.32
576.238	31656.92
576.599	31942.56
576.96	31947.08
577.32	32201.09
577.681	32447.64
578.042	32627.97
578.403	32704.35
578.763	32930.79
579.124	33052.14
579.485	33312.47
579.845	33569.41
580.206	33649.86
580.566	33750.2
580.927	33942.74
581.287	34174.82
581.648	34370.52
582.008	34476.28
582.368	34731.64
582.728	34967.34
583.089	35149.26
583.449	35476.26
583.809	35619.98
584.169	35821.56
584.529	36010.48
584.889	36593.74
585.249	36509
585.609	36581.09
585.969	37110.79
586.329	37203.89
586.688	37693.15
587.048	37944.21
587.408	38228.5
587.768	38186.69
588.127	38882.95
588.487	39040.23
588.846	39659.2
589.206	39643.6
589.565	40039.07
589.925	40497.37
590.284	40769.68
590.643	41077.24
591.003	41494.18
591.362	41981.17
591.721	42115.18
592.08	42564.66
592.44	43170.97
592.799	43271.98
593.158	43647.34
593.517	43948.12
593.876	44309.02
594.235	44760.31
594.593	45096.12
594.952	45439.38
595.311	45776.1
595.67	46211.34
596.029	46636.19
596.387	46855.39
596.746	47380.12
597.104	47471.42
597.463	47919.32
597.822	48380.55
598.18	48553.65
598.538	48734.21
598.897	49223.92
599.255	49212.17
599.613	50086.27
599.972	49975.08
600.33	50381.4
600.688	50446.94
601.046	50848.28
601.404	51349.51
601.762	51511.32
602.12	51821.82
602.478	52030.85
602.836	52235.59
603.194	52278.75
603.552	52629.03
603.91	52678.52
604.268	53018.85
604.625	53194.66
604.983	53500.64
605.341	53416.12
605.698	53902.66
606.056	54153.96
606.413	54180.85
606.771	54516.21
607.128	54657.67
607.485	54703.55
607.843	54956.87
608.2	55271.89
608.557	55350.54
608.914	55469.86
609.272	55670.08
609.629	55908.71
609.986	56156.84
610.343	56128.59
610.7	56416.95
611.057	56474.12
611.414	56569.71
611.771	56845.64
612.127	56964.28
612.484	57062.36
612.841	57196.36
613.198	57156.59
613.554	57278.85
613.911	57566.3
614.267	57707.99
614.624	57709.57
614.98	57865.95
615.337	58056.23
615.693	58080.86
616.05	58202.89
616.406	58364.92
616.762	58403.11
617.118	58517.01
617.475	58483.11
617.831	58727.62
618.187	58821.41
618.543	58922.65
618.899	59108.18
619.255	59081.06
619.611	59115.18
619.967	59281.96
620.323	59469.75
620.678	59361.73
621.034	59439.24
621.39	59426.36
621.746	59567.15
622.101	59881.94
622.457	59629.75
622.812	59796.52
623.168	59883.07
623.523	59889.4
623.879	60038.1
624.234	59902.73
624.589	60060.47
624.945	60091.2
625.3	60132.56
625.655	60229.05
626.01	60249.16
626.365	60328.71
626.72	60242.16
627.075	60255.49
627.43	60298.65
627.785	60329.61
628.14	60341.14
628.495	60424.98
628.85	60369.16
629.205	60363.74
629.559	60521.7
629.914	60420.91
630.269	60432.89
630.623	60349.5
630.978	60369.39
631.332	60526.67
631.687	60480.12
632.041	60480.57
632.396	60457.07
632.75	60433.57
633.104	60521.25
633.459	60411.65
633.813	60467.46
634.167	60343.4
634.521	60393.12
634.875	60421.59
635.229	60373
635.583	60278.54
635.937	60326.9
636.291	60281.25
636.645	60318.77
636.999	60229.96
637.352	60295.94
637.706	60159.68
638.06	60265.21
638.413	60202.39
638.767	60115.61
639.121	60203.52
639.474	60075.84
639.828	60109.73
640.181	60088.04
640.534	60203.29
640.888	60064.99
641.241	59968.95
641.594	60036.06
641.947	60018.66
642.301	59980.02
642.654	59951.32
643.007	59857.31
643.36	60000.13
643.713	59915.16
644.066	59989.06
644.419	59860.7
644.771	59604.21
645.124	59351.11
645.477	59330.54
645.83	59265.46
646.182	59241.96
646.535	59238.57
646.888	59238.57
647.24	59144.79
647.593	59295.29
647.945	59168.06
648.298	59117.22
648.65	58916.54
649.002	58945.7
649.355	58984.79
649.707	58816.89
650.059	58830.9
650.411	59221.39
650.763	59286.7
651.115	59610.54
651.467	59452.12
651.819	59509.3
652.171	59436.08
652.523	59308.4
652.875	59329.87
653.227	59307.49
653.578	59390.88
653.93	59328.96
654.282	59206.48
654.633	59195.63
654.985	59236.08
655.337	59257.55
655.688	59191.34
656.039	59282.64
656.391	59013.26
656.742	59077.9
657.094	59047.61
657.445	59127.39
657.796	59070.66
658.147	59035.19
658.498	59049.2
658.849	59134.39
659.2	59039.25
659.551	58980.5
659.902	59044
660.253	58954.96
660.604	59022.76
660.955	58969.65
661.306	59018.91
661.656	58859.14
662.007	58866.15
662.358	58995.64
662.708	58945.7
663.059	58987.5
663.409	58766.72
663.76	58890.78
664.11	58907.73
664.461	58842.42
664.811	58846.94
665.161	58845.36
665.511	58720.39
665.862	58791.58
666.212	58849.2
666.562	58872.7
666.912	58813.04
667.262	58728.53
667.612	58681.52
667.962	58766.27
668.312	58702.54
668.662	58827.73
669.011	58793.84
669.361	58716.78
669.711	58770.11
670.06	58664.57
670.41	58706.61
670.76	58607.17
671.109	58735.08
671.459	58642.88
671.808	58697.11
672.157	58747.73
672.507	58561.3
672.856	58592.03
673.205	58603.78
673.554	58678.58
673.904	58524.92
674.253	58817.11
674.602	58581.41
674.951	58249.89
675.3	58168.54
675.649	58602.65
675.998	58617.12
676.346	58590.9
676.695	58582.09
677.044	58440.85
677.393	58442.66
677.741	58585.25
678.09	58445.37
678.438	58339.16
678.787	58502.54
679.135	58442.88
679.484	58291.93
679.832	58456.44
680.181	58377.12
680.529	58411.02
680.877	58330.57
681.225	58244.25
681.573	58413.28
681.922	58269.78
682.27	58233.62
682.618	58218.48
682.966	58189.33
683.314	58187.98
683.661	58163.8
684.009	58100.52
684.357	57998.38
684.705	58009.9
685.053	58020.75
685.4	57910.92
685.748	57878.83
686.095	57856.68
686.443	57759.51
686.79	57695.11
687.138	57800.42
687.485	57772.62
687.832	57686.52
688.18	57730.36
688.527	57597.48
688.874	57587.31
689.221	57583.25
689.568	57549.12
689.915	57427.09
690.262	57464.83
690.609	57398.39
690.956	57295.8
691.303	57279.07
691.65	57183.48
691.997	57208.79
692.344	57085.86
692.69	57005.41
693.037	57108
693.383	56835.24
693.73	56941
694.077	56757.05
694.423	56825.53
694.769	56716.15
695.116	56722.25
695.462	56651.74
695.808	56571.3
696.155	56619.88
696.501	56365.42
696.847	56462.15
697.193	56322.26
697.539	56338.76
697.885	56193.9
698.231	56065.77
698.577	56086.56
698.923	55964.31
699.269	55796.4
699.614	55818.09
699.96	55763.41
700.306	55724.31
700.651	55659.68
700.997	55591.66
701.342	55581.72
701.688	55433.47
702.033	55325.45
702.379	55417.65
702.724	55251.1
703.069	55369.74
703.415	54965.24
703.76	55012.69
704.105	55065.12
704.45	54871.68
704.795	54874.39
705.14	54723.66
705.485	54776.31
705.83	54579.71
706.175	54697.45
706.52	54548.75
706.865	54440.73
707.209	54318.7
707.554	54296.78
707.899	54285.48
708.243	54160.28
708.588	54121.64
708.932	53944.7
709.277	54088.87
709.621	53898.82
709.966	53750.13
710.31	53761.65
710.654	53600.53
710.998	53651.6
711.342	53683.46
711.687	53509.68
712.031	53556.69
712.375	53312.17
712.719	53233.3
713.063	53226.3
713.407	53311.27
713.75	53261.1
714.094	53235.11
714.438	53093.19
714.782	53056.36
715.125	52856.82
715.469	53062.91
715.812	52720.32
716.156	52735.24
716.499	52652.3
716.843	52786.08
717.186	52569.59
717.53	52731.17
717.873	52679.42
718.216	52538.41
718.559	52384.29
718.902	52126.67
719.246	52203.95
719.589	52220.22
719.932	52055.93
720.275	52111.53
720.617	52039.44
720.96	51900.23
721.303	52012.09
721.646	52072.2
721.989	51744.98
722.331	51863.17
722.674	51720.35
723.016	51745.66
723.359	51575.49
723.701	51695.04
724.044	51555.61
724.386	51378.89
724.729	51514.93
725.071	51461.15
725.413	51399.91
725.755	51319.91
726.097	51171.44
726.439	51201.49
726.782	51044.66
727.124	51250.3
727.465	51000.59
727.807	51034.04
728.149	50913.14
728.491	50827.49
728.833	50901.39
729.175	50818
729.516	50753.37
729.858	50695.52
730.199	50799.02
730.541	50727.15
730.882	50565.8
731.224	50601.28
731.565	50496.2
731.906	50583.66
732.248	50446.48
732.589	50269.09
732.93	50229.54
733.271	50329.43
733.612	50248.3
733.953	50381.63
734.294	50158.81
734.635	49930.34
734.976	50271.12
735.317	50080.84
735.658	49937.8
735.999	49966.72
736.339	49930.79
736.68	49906.84
737.021	49840.62
737.361	49650.57
737.702	50006.95
738.042	49705.49
738.383	49701.42
738.723	49860.29
739.063	49648.99
739.404	49642.89
739.744	49463.91
740.084	49527.19
740.424	49617.13
740.764	49393.18
741.104	49376.91
741.444	49231.6
741.784	49098.72
742.124	49332.84
742.464	49252.84
742.804	49069.8
743.143	49066.18
743.483	49026.86
743.823	48825.06
744.162	48836.58
744.502	48882.01
744.841	48664.61
745.181	48831.16
745.52	48657.83
745.86	48862.8
746.199	48681.11
746.538	48621.22
746.877	48728.56
747.216	48464.84
747.556	48392.3
747.895	48537.16
748.234	48275.24
748.573	48354.34
748.911	48267.78
749.25	48202.02
749.589	47900.56
749.928	47994.35
750.267	48028.69
750.605	47998.87
750.944	47839.32
751.283	47690.85
751.621	47918.42
751.96	47686.78
752.298	47674.81
752.636	47631.87
752.975	47485.43
753.313	47399.78
753.651	47564.53
753.989	47213.8
754.327	47393.68
754.666	46991.66
755.004	47153.01
755.342	47109.17
