Data from 15-1247_FLMS001491_008.txt Node
Date: Thu Apr 19 16:10:38 BST 2018
User: hsy
Spectrometer: FLMS00149
Trigger mode: 0
Integration Time (sec): 1.000000E-2
Scans to average: 10
Electric dark correction enabled: true
Nonlinearity correction enabled: false
Boxcar width: 0
XAxis mode: Wavelengths
Number of Pixels in Spectrum: 2048
>>>>>Begin Spectral Data<<<<<
341.393	-5.72
341.776	-5.72
342.16	-5.72
342.543	-29.9
342.927	-52.5
343.31	-69.45
343.693	-59.05
344.077	-79.62
344.46	-63.12
344.843	-37.58
345.226	-38.04
345.61	-36
345.993	-3.23
346.376	-10.01
346.759	3.09
347.142	25.92
347.525	28.18
347.908	56.43
348.291	60.72
348.674	104.33
349.057	117.44
349.44	135.07
349.823	131
350.206	174.61
350.588	245.35
350.971	246.93
351.354	272.92
351.737	276.08
352.119	300.26
352.502	302.29
352.884	323.99
353.267	322.41
353.65	337.55
354.032	332.12
354.414	352.46
354.797	370.54
355.179	353.14
355.562	369.86
355.944	371.22
356.326	395.4
356.709	376.87
357.091	390.2
357.473	382.29
357.855	379.81
358.238	370.99
358.62	406.92
359.002	392.69
359.384	394.27
359.766	399.24
360.148	396.76
360.53	380.48
360.912	391.78
361.294	381.39
361.676	403.08
362.057	389.52
362.439	392.69
362.821	379.35
363.203	372.8
363.584	389.3
363.966	377.09
364.348	384.33
364.729	393.82
365.111	373.93
365.493	376.42
365.874	399.47
366.256	368.96
366.637	361.73
367.019	376.19
367.4	387.04
367.781	373.93
368.163	364.67
368.544	363.76
368.925	385.68
369.306	374.38
369.688	375.51
370.069	354.72
370.45	388.17
370.831	412.12
371.212	362.63
371.593	390.88
371.974	394.27
372.355	403.99
372.736	374.38
373.117	412.12
373.498	397.66
373.879	382.07
374.26	386.13
374.641	370.99
375.021	394.27
375.402	397.43
375.783	386.81
376.163	440.14
376.544	430.43
376.925	415.06
377.305	430.2
377.686	427.71
378.066	402.63
378.447	422.29
378.827	434.04
379.208	409.41
379.588	422.74
379.968	401.73
380.349	434.95
380.729	429.52
381.109	420.94
381.489	409.18
381.87	423.42
382.25	420.26
382.63	418.22
383.01	443.31
383.39	444.21
383.77	425.68
384.15	450.54
384.53	464.32
384.91	441.5
385.29	451.67
385.67	463.65
386.049	455.96
386.429	476.08
386.809	470.2
387.189	461.39
387.568	478.56
387.948	507.03
388.328	474.72
388.707	486.92
389.087	472.69
389.466	497.32
389.846	502.52
390.225	492.8
390.605	476.98
390.984	509.75
391.363	493.93
391.743	508.84
392.122	503.19
392.501	494.38
392.881	531.21
393.26	530.99
393.639	504.1
394.018	517.2
394.397	522.4
394.776	497.09
395.155	550.2
395.534	544.55
395.913	553.36
396.292	547.94
396.671	561.04
397.05	550.65
397.429	541.38
397.808	541.84
398.186	554.72
398.565	570.54
398.944	554.04
399.323	559.46
399.701	574.6
400.08	570.99
400.458	577.32
400.837	554.49
401.215	585
401.594	586.81
401.972	609.86
402.351	596.52
402.729	595.62
403.107	600.37
403.486	613.25
403.864	609.18
404.242	630.65
404.62	631.78
404.999	629.74
405.377	661.61
405.755	645.56
406.133	643.3
406.511	658.9
406.889	650.08
407.267	689.63
407.645	681.27
408.023	659.8
408.401	680.82
408.779	673.13
409.156	700.25
409.534	680.59
409.912	695.96
410.29	729.63
410.667	715.16
411.045	739.12
411.422	734.83
411.8	722.17
412.178	752.45
412.555	743.41
412.933	769.17
413.31	774.37
413.687	765.33
414.065	783.86
414.442	785.9
414.819	802.62
415.197	827.48
415.574	813.24
415.951	814.15
416.328	854.82
416.705	829.06
417.082	841.04
417.46	838.55
417.837	843.52
418.214	875.16
418.591	838.33
418.967	837.65
419.344	890.98
419.721	867.03
420.098	892.34
420.475	881.49
420.852	890.3
421.228	904.76
421.605	933.92
421.982	939.79
422.358	941.15
422.735	948.38
423.111	955.61
423.488	952.9
423.864	951.99
424.241	977.3
424.617	989.51
424.994	973.92
425.37	1005.78
425.746	1004.2
426.123	978.43
426.499	997.64
426.875	1025.67
427.251	1033.57
427.627	1074.7
428.003	1055.95
428.379	1070.18
428.756	1072.44
429.132	1104.31
429.507	1102.95
429.883	1132.55
430.259	1128.71
430.635	1133.23
431.011	1123.97
431.387	1168.71
431.763	1194.47
432.138	1191.76
432.514	1216.62
432.89	1207.13
433.265	1250.29
433.641	1244.19
434.016	1260.69
434.392	1289.39
434.767	1277.64
435.143	1294.58
435.518	1313.79
435.894	1315.83
436.269	1335.04
436.644	1344.98
437.02	1360.8
437.395	1348.59
437.77	1359.22
438.145	1387.46
438.52	1363.51
438.895	1431.3
439.271	1415.49
439.646	1459.1
440.021	1433.34
440.395	1440.8
440.77	1434.47
441.145	1448.03
441.52	1476.27
441.895	1482.83
442.27	1483.05
442.645	1504.3
443.019	1545.65
443.394	1530.74
443.769	1528.48
444.143	1533.67
444.518	1549.49
444.892	1539.32
445.267	1571.19
445.641	1567.35
446.016	1603.28
446.39	1614.35
446.764	1574.13
447.139	1601.92
447.513	1627.46
447.887	1620.9
448.262	1644.41
448.636	1641.47
449.01	1671.98
449.384	1690.05
449.758	1692.31
450.132	1704.74
450.506	1748.36
450.88	1721.92
451.254	1710.62
451.628	1754.23
452.002	1781.35
452.376	1776.38
452.75	1792.65
453.123	1803.72
453.497	1843.5
453.871	1851.41
454.244	1890.28
454.618	1902.03
454.992	1917.62
455.365	1927.11
455.739	1980.44
456.112	2013.21
456.486	2006.66
456.859	2015.24
457.232	2082.13
457.606	2058.18
457.979	2073.77
458.352	2148.8
458.725	2141.79
459.099	2180.44
459.472	2207.78
459.845	2218.18
460.218	2278.97
460.591	2258.63
460.964	2285.97
461.337	2334.11
461.71	2378.4
462.083	2379.98
462.456	2404.16
462.829	2385.63
463.201	2504.5
463.574	2432.63
463.947	2453.42
464.32	2507.21
464.692	2556.7
465.065	2603.7
465.438	2604.83
465.81	2631.72
466.183	2660.42
466.555	2691.16
466.928	2706.3
467.3	2740.2
467.672	2713.3
468.045	2813.41
468.417	2801.66
468.789	2806.86
469.161	2898.38
469.534	2873.98
469.906	2958.95
470.278	2964.37
470.65	3007.31
471.022	3061.09
471.394	3113.29
471.766	3129.79
472.138	3102.67
472.51	3234.19
472.882	3282.78
473.253	3262.89
473.625	3326.85
473.997	3374.76
474.369	3413.4
474.74	3478.26
475.112	3537.01
475.484	3611.36
475.855	3619.72
476.227	3696.1
476.598	3780.17
476.97	3830.34
477.341	3900.84
477.713	3938.81
478.084	4018.58
478.455	4078.01
478.827	4049.09
479.198	4217.22
479.569	4200.27
479.94	4391.23
480.311	4402.98
480.682	4483.2
481.053	4608.85
481.424	4661.73
481.795	4710.77
482.166	4829.41
482.537	4866.69
482.908	4997.76
483.279	5007.26
483.65	5108.04
484.021	5265.78
484.391	5320.47
484.762	5394.82
485.133	5483.18
485.503	5526.11
485.874	5710.51
486.244	5709.38
486.615	5843.39
486.985	5958.64
487.356	6094.46
487.726	6127
488.097	6261.46
488.467	6344.17
488.837	6462.13
489.207	6550.49
489.578	6678.4
489.948	6795.91
490.318	6928.56
490.688	6947.77
491.058	7122.45
491.428	7265.5
491.798	7304.14
492.168	7473.63
492.538	7659.84
492.908	7725.15
493.278	7858.25
493.648	7912.04
494.017	8076.78
494.387	8159.04
494.757	8297.11
495.126	8426.83
495.496	8481.51
495.866	8653.49
496.235	8751.34
496.605	8855.06
496.974	8907.94
497.344	9049.41
497.713	9137.54
498.082	9336.41
498.452	9432.68
498.821	9512.45
499.19	9609.85
499.559	9796.06
499.928	9819.56
500.298	9937.3
500.667	10077.18
501.036	10179.77
501.405	10234.69
501.774	10345.87
502.143	10589.03
502.512	10614.57
502.88	10784.28
503.249	10822.92
503.618	11036.25
503.987	11049.81
504.356	11207.32
504.724	11368.9
505.093	11446.41
505.462	11520.76
505.83	11614.54
506.199	11707.19
506.567	11936.34
506.936	11910.8
507.304	12226.95
507.672	12275.31
508.041	12234.86
508.409	12493.39
508.777	12715.08
509.145	12713.27
509.514	12762.08
509.882	12867.61
510.25	12953.94
510.618	13067.83
510.986	13190.99
511.354	13368.84
511.722	13532.68
512.09	13688.38
512.458	13612.9
512.826	13839.11
513.193	13872.78
513.561	13983.52
513.929	14129.5
514.297	14283.85
514.664	14401.13
515.032	14430.06
515.4	14609.71
515.767	14716.38
516.135	14821.23
516.502	14718.41
516.869	14991.17
517.237	15141
517.604	15108.46
517.972	15370.15
518.339	15454.21
518.706	15531.05
519.073	15542.8
519.44	15726.97
519.808	15821.21
520.175	15977.59
520.542	16133.29
520.909	16239.5
521.276	16396.79
521.643	16496.22
522.009	16656.89
522.376	16738.7
522.743	16944.12
523.11	17221.62
523.477	17308.4
523.843	17341.17
524.21	17594.27
524.577	17771.89
524.943	17833.58
525.31	17930.98
525.676	18134.59
526.043	18241.48
526.409	18449.61
526.776	18563.51
527.142	18698.65
527.508	18743.17
527.874	19010.05
528.241	19004.18
528.607	19240.1
528.973	19464.05
529.339	19390.83
529.705	19574.1
530.071	19845.51
530.437	19935.45
530.803	20200.08
531.169	20135.67
531.535	20250.92
531.901	20361.65
532.267	20481.88
532.632	20622.44
532.998	20706.96
533.364	20847.29
533.73	20861.53
534.095	21069.43
534.461	21139.49
534.826	21269.88
535.192	21428.74
535.557	21659.25
535.923	21621.51
536.288	21838.9
536.653	21869.41
537.019	21913.7
537.384	22000.03
537.749	21998
538.114	22159.8
538.479	22161.15
538.845	22244.32
539.21	22246.58
539.575	22473.01
539.94	22436.63
540.305	22567.92
540.67	22654.25
541.034	22821.02
541.399	22787.35
541.764	22938.54
542.129	23004.97
542.494	23041.36
542.858	23228.47
543.223	23114.8
543.587	23305.98
543.952	23251.75
544.316	23407
544.681	23218.3
545.045	23450.39
545.41	23637.5
545.774	23637.05
546.138	23635.69
546.503	23788.46
546.867	23782.81
547.231	24094.21
547.595	24023.25
547.959	24080.43
548.324	24104.61
548.688	24184.6
549.052	24314.54
549.416	24208.78
549.779	24287.2
550.143	24471.15
550.507	24477.48
550.871	24642.22
551.235	24702.56
551.599	24822.55
551.962	24961.76
552.326	24976.67
552.689	24995.88
553.053	24888.54
553.417	25135.09
553.78	25332.37
554.143	25327.17
554.507	25427.96
554.87	25533.04
555.234	25728.29
555.597	25564.23
555.96	25839.48
556.323	25769.65
556.686	25835.18
557.05	26044.44
557.413	26132.8
557.776	26116.3
558.139	26481.72
558.502	26369.18
558.865	26337.54
559.228	26781.6
559.59	26734.37
559.953	26830.41
560.316	27231.08
560.679	27099.56
561.041	27335.26
561.404	27385.2
561.767	27534.8
562.129	27487.79
562.492	27724.85
562.854	27752.42
563.217	27940.66
563.579	28033.77
563.941	28107.66
564.304	28235.8
564.666	28502.91
565.028	28544.04
565.39	28729.8
565.753	28791.49
566.115	28917.81
566.477	29045.49
566.839	29241.87
567.201	29521.19
567.563	29421.98
567.925	29805.02
568.287	29792.82
568.648	29928.18
569.01	30048.4
569.372	30401.39
569.734	30273.48
570.095	30689.07
570.457	30833.69
570.819	30800.25
571.18	30838.89
571.542	31141.48
571.903	31182.39
572.265	31361.36
572.626	31637.52
572.987	31535.6
573.349	31945.76
573.71	32092.87
574.071	32278.85
574.432	32447.66
574.794	32722.46
575.155	32724.94
575.516	32813.53
575.877	33073.41
576.238	33158.38
576.599	33335.55
576.96	33466.39
577.32	33705.94
577.681	33886.04
578.042	34010.56
578.403	34090.11
578.763	34360.83
579.124	34419.59
579.485	34831.56
579.845	34996.3
580.206	35082.4
580.566	35327.59
580.927	35372.33
581.287	35801.93
581.648	35777.29
582.008	36128.47
582.368	36450.72
582.728	36457.28
583.089	36809.81
583.449	36967.32
583.809	37075.34
584.169	37542.45
584.529	37559.17
584.889	38080.06
585.249	38058.82
585.609	38174.29
585.969	38731.11
586.329	38756.88
586.688	39322.96
587.048	39517.99
587.408	39689.06
587.768	40033.23
588.127	40324.97
588.487	40553.21
588.846	41166.3
589.206	41255.79
589.565	41558.16
589.925	42035.43
590.284	42284.69
590.643	42631.8
591.003	43127.61
591.362	43600.59
591.721	43792.9
592.08	44022.73
592.44	44702.71
592.799	44795.59
593.158	45148.8
593.517	45464.04
593.876	45999.4
594.235	46228.09
594.593	46537.24
594.952	47022.87
595.311	47132.48
595.67	47596.64
596.029	48055.39
596.387	48357.08
596.746	48895.37
597.104	48988.7
597.463	49244.51
597.822	49732.41
598.18	49859.18
598.538	50060.31
598.897	50651.93
599.255	50512.73
599.613	51266.38
599.972	51300.05
600.33	51639.93
600.688	51713.15
601.046	52123.98
601.404	52472.45
601.762	52579.11
602.12	53002.83
602.478	53165.76
602.836	53383.16
603.194	53340.9
603.552	53755.35
603.91	53828.8
604.268	54156.92
604.625	54269.46
604.983	54666.06
605.341	54593.97
605.698	54862.67
606.056	55173.62
606.413	55157.35
606.771	55583.78
607.128	55627.39
607.485	55671.01
607.843	55918.91
608.2	56104.67
608.557	56374.27
608.914	56425.11
609.272	56607.25
609.629	56933.12
609.986	57019.67
610.343	57147.35
610.7	57437.06
611.057	57428.02
611.414	57590.96
611.771	57806.77
612.127	57903.27
612.484	58034.34
612.841	58166.31
613.198	58232.52
613.554	58269.36
613.911	58515.45
614.267	58660.31
614.624	58649.01
614.98	58825.95
615.337	59047.64
615.693	59072.05
616.05	59154.98
616.406	59356.56
616.762	59380.97
617.118	59442.89
617.475	59469.78
617.831	59662.77
618.187	59736.66
618.543	59802.2
618.899	59986.83
619.255	60045.58
619.611	60045.81
619.967	60228.63
620.323	60290.77
620.678	60251.23
621.034	60302.3
621.39	60338.68
621.746	60429.75
622.101	60664.32
622.457	60533.03
622.812	60745
623.168	60741.84
623.523	60741.84
623.879	60919.01
624.234	60822.51
624.589	60901.6
624.945	60921.72
625.3	60992
625.655	60969.85
626.01	61045.1
626.365	61133.46
626.72	61083.97
627.075	61142.05
627.43	61162.16
627.785	61182.5
628.14	61158.77
628.495	61250.52
628.85	61281.48
629.205	61188.83
629.559	61382.27
629.914	61239.45
630.269	61342.05
630.623	61235.16
630.978	61174.14
631.332	61364.19
631.687	61404.87
632.041	61326.45
632.396	61341.37
632.75	61289.17
633.104	61371.88
633.459	61272.89
633.813	61287.81
634.167	61255.27
634.521	61301.14
634.875	61271.76
635.229	61240.58
635.583	61151.32
635.937	61158.1
636.291	61180.02
636.645	61156.29
636.999	61053.92
637.352	61189.96
637.706	61049.62
638.06	61154.03
638.413	61038.1
638.767	61039
639.121	60995.39
639.474	60925.56
639.828	60929.4
640.181	60965.78
640.534	60973.69
640.888	60846.92
641.241	60821.16
641.594	60741.38
641.947	60900.93
642.301	60816.18
642.654	60888.5
643.007	60752.91
643.36	60851.44
643.713	60744.32
644.066	60857.09
644.419	60622.06
644.771	60436.98
645.124	60169.65
645.477	60208.97
645.83	60087.16
646.182	60029.09
646.535	59989.09
646.888	60062.98
647.24	59939.14
647.593	60102.98
647.945	59985.92
648.298	59865.7
648.65	59850.33
649.002	59746.61
649.355	59741.18
649.707	59638.36
650.059	59660.28
650.411	59943.44
650.763	60059.59
651.115	60413.71
651.467	60271.79
651.819	60282.86
652.171	60217.33
652.523	60169.65
652.875	60207.16
653.227	60079.25
653.578	60208.52
653.93	60149.76
654.282	60002.19
654.633	60020.27
654.985	60058.46
655.337	60026.37
655.688	60062.76
656.039	60066.37
656.391	59860.05
656.742	59956.54
657.094	59928.98
657.445	59924.68
657.796	59989.31
658.147	59864.34
658.498	59895.3
658.849	59935.08
659.2	59835.87
659.551	59817.11
659.902	59985.92
660.253	59798.13
660.604	59846.27
660.955	59724.69
661.306	59870.45
661.656	59790.9
662.007	59757.23
662.358	59786.61
662.708	59748.87
663.059	59678.13
663.409	59588.87
663.76	59715.2
664.11	59706.38
664.461	59714.07
664.811	59725.82
665.161	59706.83
665.511	59652.37
665.862	59680.62
666.212	59711.81
666.562	59779.6
666.912	59641.3
667.262	59614.63
667.612	59614.41
667.962	59628.42
668.312	59521.3
668.662	59722.65
669.011	59669.77
669.361	59548.87
669.711	59596.55
670.06	59569.66
670.41	59528.76
670.76	59514.3
671.109	59576.44
671.459	59533.05
671.808	59478.37
672.157	59575.31
672.507	59448.54
672.856	59376.9
673.205	59493.28
673.554	59496.22
673.904	59418.93
674.253	59601.75
674.602	59394.07
674.951	59131.93
675.3	58990.24
675.649	59447.63
675.998	59501.87
676.346	59488.31
676.695	59481.08
677.044	59357.92
677.393	59361.53
677.741	59381.19
678.09	59328.76
678.438	59254.42
678.787	59322.66
679.135	59331.48
679.484	59152.95
679.832	59291.25
680.181	59230.46
680.529	59224.81
680.877	59119.5
681.225	59155.21
681.573	59305.94
681.922	59186.17
682.27	59105.27
682.618	59142.33
682.966	59064.59
683.314	59048.55
683.661	58973.07
684.009	58962.9
684.357	58920.41
684.705	58861.43
685.053	58960.86
685.4	58834.99
685.748	58772.4
686.095	58790.25
686.443	58679.74
686.79	58685.84
687.138	58672.51
687.485	58770.14
687.832	58623.7
688.18	58577.37
688.527	58567.88
688.874	58501.22
689.221	58495.79
689.568	58376.93
689.915	58329.92
690.262	58365.85
690.609	58289.47
690.956	58258.06
691.303	58265.74
691.65	58080.66
691.997	58103.03
692.344	58001.57
692.69	57913.21
693.037	58021
693.383	57778.75
693.73	57891.51
694.077	57740.56
694.423	57695.36
694.769	57710.28
695.116	57719.54
695.462	57550.28
695.808	57408.36
696.155	57519.55
696.501	57278.88
696.847	57427.8
697.193	57201.82
697.539	57297.41
697.885	57047.24
698.231	57016.96
698.577	56975.61
698.923	56950.07
699.269	56843.18
699.614	56725.22
699.96	56734.93
700.306	56811.32
700.651	56598.44
700.997	56523.19
701.342	56506.47
701.688	56426.69
702.033	56302.4
702.379	56261.05
702.724	56275.29
703.069	56331.56
703.415	55979.47
703.76	56040.72
704.105	56047.95
704.45	55906.26
704.795	55849.31
705.14	55803.21
705.485	55729.09
705.83	55619.26
706.175	55692.48
706.52	55604.8
706.865	55493.39
707.209	55355.76
707.554	55395.53
707.899	55341.98
708.243	55252.94
708.588	55189.21
708.932	55041.87
709.277	55075.09
709.621	54946.96
709.966	54844.14
710.31	54850.01
710.654	54652.73
710.998	54712.16
711.342	54771.37
711.687	54581.77
712.031	54567.53
712.375	54423.13
712.719	54471.94
713.063	54296.35
713.407	54553.98
713.75	54255.68
714.094	54296.35
714.438	54163.25
714.782	54083.03
715.125	53971.39
715.469	54108.34
715.812	53878.51
716.156	53831.96
716.499	53772.53
716.843	53810.72
717.186	53647.33
717.53	53750.61
717.873	53633.32
718.216	53643.26
718.559	53483.72
718.902	53231.52
719.246	53373.44
719.589	53269.94
719.932	53232.2
720.275	53172.32
720.617	53231.98
720.96	53057.74
721.303	53015.26
721.646	53156.05
721.989	52965.99
722.331	52963.51
722.674	52876.28
723.016	52865.66
723.359	52743.63
723.701	52791.54
724.044	52682.39
724.386	52457.31
724.729	52614.37
725.071	52564.65
725.413	52487.81
725.755	52453.69
726.097	52426.8
726.439	52205.11
726.782	52242.17
727.124	52339.34
727.465	52229.74
727.807	52146.81
728.149	52195.17
728.491	51990.88
728.833	52086.02
729.175	52027.04
729.516	51967.38
729.858	51855.97
730.199	51978.68
730.541	51856.19
730.882	51728.06
731.224	51802.18
731.565	51639.02
731.906	51684.22
732.248	51735.97
732.589	51451.01
732.93	51436.09
733.271	51508.86
733.612	51446.26
733.953	51403.55
734.294	51368.52
734.635	51205.14
734.976	51412.59
735.317	51217.11
735.658	51157
735.999	51167.62
736.339	51094.41
736.68	51124.01
737.021	51004.24
737.361	50908.87
737.702	51181.41
738.042	50912.94
738.383	50964.01
738.723	50955.65
739.063	50791.59
739.404	51026.84
739.744	50815.09
740.084	50656.68
740.424	50778.26
740.764	50645.6
741.104	50741.42
741.444	50578.49
741.784	50384.37
742.124	50518.6
742.464	50421.2
742.804	50256.69
743.143	50184.6
743.483	50319.51
743.823	50196.35
744.162	50213.3
744.502	50232.05
744.841	49995.22
745.181	50139.18
745.52	49995.9
745.86	50091.72
746.199	50101.44
746.538	49968.56
746.877	49971.95
747.216	50004.94
747.556	49834.33
747.895	49850.82
748.234	49750.94
748.573	49657.61
748.911	49571.96
749.25	49676.36
749.589	49469.36
749.928	49538.06
750.267	49619.64
750.605	49298.07
750.944	49344.62
751.283	49235.47
751.621	49396.37
751.96	49063.27
752.298	49000.22
752.636	49102.82
752.975	48892.88
753.313	48774.92
753.651	48941.69
753.989	48689.04
754.327	48636.39
754.666	48217.64
755.004	48533.34
755.342	48509.84
