Data from 15-1247_FLMS001491_005.txt Node
Date: Thu Apr 19 16:10:31 BST 2018
User: hsy
Spectrometer: FLMS00149
Trigger mode: 0
Integration Time (sec): 1.000000E-2
Scans to average: 10
Electric dark correction enabled: true
Nonlinearity correction enabled: false
Boxcar width: 0
XAxis mode: Wavelengths
Number of Pixels in Spectrum: 2048
>>>>>Begin Spectral Data<<<<<
341.393	-17.71
341.776	-17.71
342.16	-17.71
342.543	-42.8
342.927	-61.78
343.31	-46.19
343.693	-68.78
344.077	-71.04
344.46	-44.15
344.843	-78.5
345.226	-38.73
345.61	-37.15
345.993	-31.27
346.376	5.34
346.759	2.18
347.142	25
347.525	37.88
347.908	53.47
348.291	76.75
348.674	89.86
349.057	125.34
349.44	122.62
349.823	126.92
350.206	163.75
350.588	217.99
350.971	262.96
351.354	260.25
351.737	255.28
352.119	290.08
352.502	277.87
352.884	305.9
353.267	317.2
353.65	335.27
354.032	328.49
354.414	320.36
354.797	363.75
355.179	353.13
355.562	384.54
355.944	373.01
356.326	365.56
356.709	383.18
357.091	381.6
357.473	388.38
357.855	372.33
358.238	365.33
358.62	405.1
359.002	362.62
359.384	396.97
359.766	389.51
360.148	404.88
360.53	403.75
360.912	378.89
361.294	392.45
361.676	396.51
362.057	377.53
362.439	375.72
362.821	390.64
363.203	384.76
363.584	384.09
363.966	385.67
364.348	416.18
364.729	361.49
365.111	379.34
365.493	381.6
365.874	364.2
366.256	377.98
366.637	386.12
367.019	374.82
367.4	370.08
367.781	369.85
368.163	374.14
368.544	361.49
368.925	355.39
369.306	371.43
369.688	364.65
370.069	373.92
370.45	393.35
370.831	374.37
371.212	406.01
371.593	367.59
371.974	366.01
372.355	349.06
372.736	392.22
373.117	393.8
373.498	382.96
373.879	397.19
374.26	382.96
374.641	373.92
375.021	393.8
375.402	409.4
375.783	384.54
376.163	409.62
376.544	379.57
376.925	391.09
377.305	391.09
377.686	399.68
378.066	391.54
378.447	414.59
378.827	402.16
379.208	395.84
379.588	396.97
379.968	415.05
380.349	416.18
380.729	424.54
381.109	442.84
381.489	417.98
381.87	429.96
382.25	427.25
382.63	425.89
383.01	439.9
383.39	422.05
383.77	435.61
384.15	435.61
384.53	451.65
384.91	438.55
385.29	440.13
385.67	417.76
386.049	452.78
386.429	429.51
386.809	457.53
387.189	440.58
387.568	459.11
387.948	451.65
388.328	473.12
388.707	464.31
389.087	465.67
389.466	482.61
389.846	453.01
390.225	495.5
390.605	485.33
390.984	473.58
391.363	486.46
391.743	479
392.122	478.55
392.501	482.61
392.881	484.42
393.26	494.37
393.639	495.95
394.018	517.19
394.397	510.64
394.776	504.31
395.155	495.5
395.534	531.2
395.913	523.74
396.292	537.98
396.671	525.33
397.05	516.06
397.429	531.2
397.808	548.83
398.186	551.99
398.565	530.75
398.944	563.29
399.323	549.51
399.701	544.31
400.08	544.76
400.458	560.58
400.837	558.54
401.215	546.57
401.594	563.74
401.972	549.96
402.351	562.16
402.729	583.18
403.107	570.3
403.486	577.75
403.864	600.58
404.242	584.53
404.62	600.35
404.999	584.08
405.377	631.99
405.755	597.19
406.133	615.72
406.511	633.57
406.889	618.43
407.267	633.8
407.645	645.32
408.023	633.8
408.401	647.81
408.779	664.76
409.156	645.77
409.534	657.3
409.912	672.21
410.29	678.09
410.667	670.63
411.045	672.21
411.422	709.73
411.8	703.63
412.178	707.24
412.555	739.33
412.933	707.47
413.31	734.81
413.687	740.01
414.065	740.01
414.442	758.54
414.819	760.12
415.197	774.81
415.574	782.04
415.951	798.76
416.328	797.86
416.705	807.8
417.082	800.57
417.46	817.52
417.837	789.72
418.214	808.03
418.591	839.22
418.967	828.82
419.344	847.12
419.721	847.12
420.098	848.48
420.475	884.86
420.852	845.09
421.228	843.73
421.605	882.83
421.982	869.5
422.358	883.28
422.735	886.22
423.111	880.34
423.488	896.84
423.864	897.74
424.241	916.05
424.617	911.3
424.994	918.08
425.37	937.52
425.746	960.79
426.123	948.36
426.499	958.53
426.875	947.01
427.251	972.09
427.627	990.17
428.003	992.43
428.379	999.21
428.756	1006.44
429.132	1022.26
429.507	1041.24
429.883	1056.16
430.259	1083.5
430.635	1076.05
431.011	1062.94
431.387	1097.51
431.763	1092.09
432.138	1117.63
432.514	1111.07
432.89	1140
433.265	1166.66
433.641	1167.79
434.016	1137.06
434.392	1177.06
434.767	1186.78
435.143	1198.98
435.518	1229.26
435.894	1203.73
436.269	1229.26
436.644	1239.43
437.02	1255.7
437.395	1303.16
437.77	1273.78
438.145	1291.86
438.52	1296.6
438.895	1314
439.271	1302.71
439.646	1330.73
440.021	1371.63
440.395	1318.98
440.77	1354.23
441.145	1360.11
441.52	1405.98
441.895	1401.46
442.27	1411.86
442.645	1398.52
443.019	1428.35
443.394	1401.69
443.769	1415.47
444.143	1401.01
444.518	1444.62
444.892	1431.74
445.267	1427
445.641	1440.78
446.016	1457.28
446.39	1483.49
446.764	1486.43
447.139	1487.56
447.513	1511.97
447.887	1495.92
448.262	1509.93
448.636	1535.47
449.01	1516.49
449.384	1540.67
449.758	1543.38
450.132	1554.68
450.506	1589.93
450.88	1606.2
451.254	1550.16
451.628	1618.86
452.002	1606.65
452.376	1668.12
452.75	1666.09
453.123	1675.58
453.497	1696.14
453.871	1697.05
454.244	1721.45
454.618	1734.33
454.992	1758.74
455.365	1762.35
455.739	1780.43
456.112	1816.14
456.486	1831.73
456.859	1839.19
457.232	1894.1
457.606	1897.49
457.979	1933.88
458.352	1946.53
458.725	2000.54
459.099	2015.91
459.472	2035.79
459.845	2031.73
460.218	2050.26
460.591	2047.09
460.964	2071.27
461.337	2137.26
461.71	2135.68
462.083	2217.71
462.456	2172.06
462.829	2212.74
463.201	2248.9
463.574	2256.13
463.947	2274.43
464.32	2298.39
464.692	2339.29
465.065	2326.86
465.438	2371.83
465.81	2396.69
466.183	2424.26
466.555	2488.66
466.928	2490.47
467.3	2471.71
467.672	2520.53
468.045	2537.02
468.417	2573.63
468.789	2596.68
469.161	2635.33
469.534	2639.39
469.906	2709.67
470.278	2707.87
470.65	2724.14
471.022	2756.45
471.394	2817.69
471.766	2801.42
472.138	2861.76
472.51	2927.75
472.882	2969.1
473.253	3023.34
473.625	3012.72
473.997	3085.71
474.369	3110.79
474.74	3161.87
475.112	3182.2
475.484	3241.64
475.855	3324.12
476.227	3279.6
476.598	3395.53
476.97	3464.23
477.341	3525.7
477.713	3563.21
478.084	3619.93
478.455	3644.57
478.827	3688.41
479.198	3825.35
479.569	3883.43
479.94	3919.59
480.311	3977.44
480.682	4066.25
481.053	4195.74
481.424	4172.01
481.795	4254.49
482.166	4338.56
482.537	4422.85
482.908	4551.43
483.279	4614.48
483.65	4613.13
484.021	4735.38
484.391	4797.53
484.762	4816.06
485.133	4924.31
485.503	4971.08
485.874	5115.49
486.244	5192.55
486.615	5256.95
486.985	5363.62
487.356	5501.69
487.726	5581.69
488.097	5702.82
488.467	5722.7
488.837	5869.14
489.207	5912.3
489.578	6062.58
489.948	6178.74
490.318	6204.72
490.688	6341.22
491.058	6423.02
491.428	6590.02
491.798	6598.39
492.168	6772.84
492.538	6854.2
492.908	6999.73
493.278	7147.52
493.648	7186.39
494.017	7291.02
494.387	7424.8
494.757	7517.01
495.126	7644.23
495.496	7785.7
495.866	7823.44
496.235	7941.85
496.605	8072.25
496.974	8129.64
497.344	8273.6
497.713	8400.82
498.082	8502.06
498.452	8606.47
498.821	8661.38
499.19	8795.62
499.559	8966.91
499.928	9090.07
500.298	9175.95
500.667	9235.38
501.036	9316.05
501.405	9442.15
501.774	9563.28
502.143	9698.19
502.512	9815.7
502.88	9910.16
503.249	10010.05
503.618	10128.91
503.987	10223.15
504.356	10330.94
504.724	10434.67
505.093	10516.7
505.462	10591.05
505.83	10711.72
506.199	10850.93
506.567	10987.2
506.936	11144.93
507.304	11278.71
507.672	11321.65
508.041	11442.33
508.409	11558.48
508.777	11617.01
509.145	11794.18
509.514	11857.91
509.882	11881.18
510.25	12048.86
510.618	12132.93
510.986	12191.69
511.354	12346.48
511.722	12529.98
512.09	12651.79
512.458	12725.68
512.826	12866.02
513.193	12883.64
513.561	13054.94
513.929	13037.99
514.297	13242.5
514.664	13422.39
515.032	13431.43
515.4	13531.76
515.767	13633.23
516.135	13741.25
516.502	13656.28
516.869	13942.6
517.237	14051.07
517.604	14052.88
517.972	14296.94
518.339	14323.15
518.706	14430.72
519.073	14542.13
519.44	14563.15
519.808	14788.68
520.175	14885.17
520.542	15081.78
520.909	15106.41
521.276	15166.3
521.643	15396.12
522.009	15458.49
522.376	15649.9
522.743	15673.85
523.11	15833.62
523.477	16036.78
523.843	16121.07
524.21	16326.72
524.577	16432.93
524.943	16601.06
525.31	16698.23
525.676	16935.97
526.043	17038.79
526.409	17077.66
526.776	17310.42
527.142	17460.7
527.508	17474.94
527.874	17657.98
528.241	17782.72
528.607	17862.04
528.973	18200.79
529.339	18092.77
529.705	18346.1
530.071	18476.94
530.437	18485.98
530.803	18746.09
531.169	18799.19
531.535	18954.22
531.901	18911.06
532.267	19141.33
532.632	19214.33
532.998	19326.19
533.364	19437.37
533.73	19499.29
534.095	19781.09
534.461	19701.09
534.826	19898.15
535.192	19898.6
535.557	20163.23
535.923	20139.72
536.288	20291.81
536.653	20318.93
537.019	20362.09
537.384	20531.58
537.749	20596.66
538.114	20706.49
538.479	20706.04
538.845	20724.57
539.21	20797.79
539.575	20807.73
539.94	20990.78
540.305	21152.13
540.67	21111.22
541.034	21193.48
541.399	21324.78
541.764	21383.76
542.129	21344.89
542.494	21565
542.858	21670.31
543.223	21648.84
543.587	21777.42
543.952	21816.74
544.316	21772.22
544.681	21894.48
545.045	22071.88
545.41	22098.32
545.774	22043.18
546.138	22064.65
546.503	22326.33
546.867	22202.95
547.231	22336.73
547.595	22514.35
547.959	22567.23
548.324	22665.76
548.688	22632.54
549.052	22830.5
549.416	22721.8
549.779	22795.93
550.143	22837.05
550.507	22975.58
550.871	22999.76
551.235	23048.35
551.599	23286.76
551.962	23255.57
552.326	23323.82
552.689	23482.01
553.053	23356.14
553.417	23477.72
553.78	23705.28
554.143	23669.12
554.507	23906.18
554.87	23860.53
555.234	24015.33
555.597	23937.14
555.96	24080.41
556.323	24174.42
556.686	24271.37
557.05	24383.45
557.413	24528.76
557.776	24497.8
558.139	24753.61
558.502	24741.86
558.865	24795.42
559.228	25046.49
559.59	25015.3
559.953	25043.55
560.316	25459.58
560.679	25270.89
561.041	25526.93
561.404	25600.15
561.767	25801.04
562.129	25723.08
562.492	25937.54
562.854	25987.48
563.217	26124.65
563.579	26232.9
563.941	26351.31
564.304	26505.66
564.666	26677.63
565.028	26732.32
565.39	26774.58
565.753	26824.29
566.115	26877.63
566.477	27242.14
566.839	27220.89
567.201	27421.79
567.563	27508.12
567.925	27633.31
568.287	27686.64
568.648	27784.95
569.01	28110.36
569.372	28311.71
569.734	28288.21
570.095	28447.3
570.457	28656.79
570.819	28731.82
571.18	28764.36
571.542	29080.73
571.903	29141.97
572.265	29386.49
572.626	29474.62
572.987	29527.95
573.349	29866.47
573.71	30009.07
574.071	30234.15
574.432	30296.07
574.794	30555.04
575.155	30633.46
575.516	30579
575.877	30913.9
576.238	30920.01
576.599	31147.57
576.96	31214.91
577.32	31513.89
577.681	31551.63
578.042	31867.55
578.403	31844.05
578.763	32140.99
579.124	32186.19
579.485	32520.87
579.845	32654.88
580.206	32892.61
580.566	33082.89
580.927	33118.37
581.287	33554.97
581.648	33410.11
582.008	33858.01
582.368	33944.33
582.728	34119.02
583.089	34485.79
583.449	34513.13
583.809	34779.79
584.169	35253.45
584.529	35353.79
584.889	35778.64
585.249	35839.2
585.609	35918.29
585.969	36544.72
586.329	36499.29
586.688	36947.42
587.048	37229.44
587.408	37477.8
587.768	37770
588.127	38046.15
588.487	38386.25
588.846	38897.42
589.206	38807.48
589.565	39349.16
589.925	39823.95
590.284	40096.04
590.643	40501.9
591.003	40935.56
591.362	41438.83
591.721	41576.9
592.08	41834.75
592.44	42490.78
592.799	42736.19
593.158	42931.44
593.517	43310.64
593.876	43709.27
594.235	44003.28
594.593	44449.14
594.952	44893.42
595.311	45103.59
595.67	45543.35
596.029	46163.45
596.387	46422.42
596.746	46924.33
597.104	46991.67
597.463	47303.98
597.822	47788.26
598.18	47964.08
598.538	48359.32
598.897	48747.11
599.255	48855.35
599.613	49576.46
599.972	49475.68
600.33	49949.34
600.688	50067.07
601.046	50399.04
601.404	50859.37
601.762	51052.36
602.12	51443.53
602.478	51759.23
602.836	51864.09
603.194	51886.91
603.552	52234.7
603.91	52449.38
604.268	52758.98
604.625	52874.01
604.983	53214.79
605.341	53280.77
605.698	53603.93
606.056	53961.89
606.413	53987.87
606.771	54219.51
607.128	54486.39
607.485	54500.4
607.843	54637.8
608.2	54991.46
608.557	55171.35
608.914	55165.24
609.272	55400.94
609.629	55626.25
609.986	55829.18
610.343	55973.81
610.7	56236.85
611.057	56293.35
611.414	56324.99
611.771	56665.32
612.127	56705.77
612.484	56913.67
612.841	57010.85
613.198	56993.22
613.554	57098.3
613.911	57410.16
614.267	57520.21
614.624	57533.54
614.98	57787.77
615.337	57895.57
615.693	57936.92
616.05	58060.76
616.406	58257.37
616.762	58229.57
617.118	58333.97
617.475	58330.13
617.831	58557.7
618.187	58592.27
618.543	58760.18
618.899	58943.22
619.255	58960.4
619.611	58960.4
619.967	59140.06
620.323	59250.33
620.678	59206.95
621.034	59239.26
621.39	59328.98
621.746	59342.08
622.101	59666.37
622.457	59462.53
622.812	59707.27
623.168	59723.09
623.523	59757.44
623.879	59784.33
624.234	59709.08
624.589	59904.78
624.945	59932.35
625.3	60039.69
625.655	60049.18
626.01	60020.03
626.365	60033.14
626.72	60048.73
627.075	60040.37
627.43	60120.14
627.785	60112.68
628.14	60137.54
628.495	60159.24
628.85	60182.74
629.205	60187.49
629.559	60300.02
629.914	60206.92
630.269	60226.13
630.623	60097.09
630.978	60095.51
631.332	60307.48
631.687	60260.93
632.041	60225
632.396	60284.66
632.75	60174.6
633.104	60272.23
633.459	60122.18
633.813	60196.98
634.167	60209.86
634.521	60220.03
634.875	60182.97
635.229	60189.07
635.583	60001.95
635.937	60102.97
636.291	60127.15
636.645	60062.74
636.999	59984.33
637.352	60114.04
637.706	60009.18
638.06	60042.18
638.413	59971.45
638.767	59923.31
639.121	60006.25
639.474	59900.26
639.828	59880.37
640.181	59880.37
640.534	59983.2
640.888	59788.17
641.241	59777.78
641.594	59806.7
641.947	59884.67
642.301	59750.66
642.654	59726.48
643.007	59758.12
643.36	59773.26
643.713	59717.44
644.066	59794.28
644.419	59658.46
644.771	59455.08
645.124	59174.18
645.477	59219.6
645.83	59053.5
646.182	59008.08
646.535	58961.3
646.888	58991.36
647.24	58946.16
647.593	59089.66
647.945	58961.53
648.298	58949.78
648.65	58816.22
649.002	58699.61
649.355	58681.76
649.707	58580.97
650.059	58644.47
650.411	59033.84
650.763	59074.29
651.115	59433.61
651.467	59294.4
651.819	59232.93
652.171	59194.97
652.523	59155.87
652.875	59207.17
653.227	59097.8
653.578	59274.29
653.93	59188.42
654.282	59024.8
654.633	59024.8
654.985	59059.38
655.337	59116.33
655.688	59037.68
656.039	59154.29
656.391	58905.71
656.742	58959.27
657.094	58960.85
657.445	58954.75
657.796	59036.33
658.147	58826.17
658.498	58917.24
658.849	58956.78
659.2	58830.01
659.551	58774.64
659.902	58903.45
660.253	58740.97
660.604	58845.6
660.955	58719.5
661.306	58876.79
661.656	58750.01
662.007	58758.6
662.358	58784.13
662.708	58804.7
663.059	58722.89
663.409	58579.62
663.76	58664.81
664.11	58718.6
664.461	58743.68
664.811	58728.54
665.161	58674.53
665.511	58598.15
665.862	58617.36
666.212	58673.4
666.562	58694.19
666.912	58601.31
667.262	58561.54
667.612	58572.16
667.962	58598.37
668.312	58458.27
668.662	58677.92
669.011	58573.74
669.361	58577.36
669.711	58600.41
670.06	58483.58
670.41	58540.97
670.76	58449.23
671.109	58530.81
671.459	58552.05
671.808	58454.88
672.157	58544.59
672.507	58406.29
672.856	58378.04
673.205	58402.67
673.554	58510.24
673.904	58375.33
674.253	58523.57
674.602	58373.52
674.951	58053.08
675.3	57996.81
675.649	58392.96
675.998	58359.96
676.346	58386.4
676.695	58393.86
677.044	58223.02
677.393	58316.12
677.741	58362.22
678.09	58260.08
678.438	58228.89
678.787	58315.67
679.135	58287.2
679.484	58125.39
679.832	58190.48
680.181	58112.29
680.529	58060.54
680.877	58069.57
681.225	58087.2
681.573	58241.77
681.922	58108.22
682.27	58026.86
682.618	58041.1
682.966	57958.17
683.314	57988.22
683.661	57945.74
684.009	57867.09
684.357	57808.34
684.705	57780.77
685.053	57748.91
685.4	57695.35
685.748	57692.18
686.095	57675.91
686.443	57518.18
686.79	57566.09
687.138	57594.56
687.485	57576.48
687.832	57487.9
688.18	57493.09
688.527	57368.8
688.874	57397.28
689.221	57402.02
689.568	57302.36
689.915	57199.32
690.262	57235.25
690.609	57169.26
690.956	57122.03
691.303	57147.57
691.65	57049.71
691.997	57037.74
692.344	56902.15
692.69	56799.33
693.037	56940.11
693.383	56667.13
693.73	56748.71
694.077	56675.71
694.423	56672.55
694.769	56579.44
695.116	56518.88
695.462	56465.55
695.808	56384.42
696.155	56419.22
696.501	56235.72
696.847	56348.72
697.193	56096.29
697.539	56145.56
697.885	56017.65
698.231	56017.88
698.577	56006.8
698.923	55876.19
699.269	55657.66
699.614	55622.86
699.96	55571.11
700.306	55577.89
700.651	55568.85
700.997	55400.72
701.342	55347.84
701.688	55364.11
702.033	55199.59
702.379	55218.8
702.724	55035.53
703.069	55101.52
703.415	54882.09
703.76	54803.9
704.105	54948.53
704.45	54791.47
704.795	54755.09
705.14	54562.1
705.485	54726.61
705.83	54510.57
706.175	54603.45
706.52	54390.12
706.865	54198.49
707.209	54191.94
707.554	54143.35
707.899	54147.64
708.243	53992.62
708.588	54028.1
708.932	53851.38
709.277	53946.75
709.621	53745.62
709.966	53528.45
710.31	53669.69
710.654	53440.09
710.998	53542.24
711.342	53562.35
711.687	53404.61
712.031	53337.72
712.375	53261.11
712.719	53258.4
713.063	53189.93
713.407	53300.89
713.75	53074.68
714.094	52976.6
714.438	52903.83
714.782	52830.16
715.125	52686.67
715.469	52928.69
715.812	52635.14
716.156	52549.27
716.499	52623.62
716.843	52629.94
717.186	52301.14
717.53	52596.05
717.873	52507.24
718.216	52387.01
718.559	52292.33
718.902	52071.77
719.246	52030.19
719.589	52011.2
719.932	51904.09
720.275	52036.06
720.617	51953.58
720.96	51861.38
721.303	51828.61
721.646	51872.22
721.989	51611.21
722.331	51795.84
722.674	51578.67
723.016	51681.04
723.359	51392.91
723.701	51441.5
724.044	51432.01
724.386	51275.86
724.729	51285.57
725.071	51264.33
725.413	51203.09
725.755	51065.92
726.097	51034.28
726.439	50999.7
726.782	50903.89
727.124	51133.26
727.465	50969.65
727.807	50797
728.149	50763.33
728.491	50704.57
728.833	50748.64
729.175	50691.24
729.516	50555.42
729.858	50510.68
730.199	50573.95
730.541	50415.31
730.882	50346.16
731.224	50357.91
731.565	50155.21
731.906	50272.72
732.248	50235.66
732.589	50032.72
732.93	50034.53
733.271	50085.15
733.612	50012.84
733.953	50124.92
734.294	50000.86
734.635	49870.92
734.976	50021.65
735.317	49881.09
735.658	49832.73
735.999	49698.04
736.339	49619.18
736.68	49670.02
737.021	49686.07
737.361	49537.14
737.702	49623.92
738.042	49569.91
738.383	49549.57
738.723	49555.45
739.063	49210.82
739.404	49458.5
739.744	49214.89
740.084	49281.11
740.424	49249.47
740.764	49205.18
741.104	49361.56
741.444	49017.61
741.784	49002.47
742.124	49117.04
742.464	49015.58
742.804	48916.82
743.143	48898.97
743.483	48903.71
743.823	48862.36
744.162	48695.36
744.502	48778.29
744.841	48575.81
745.181	48764.96
745.52	48489.26
745.86	48602.93
746.199	48391.41
746.538	48446.1
746.877	48456.49
747.216	48387.34
747.556	48283.39
747.895	48257.63
748.234	48221.92
748.573	48122.27
748.911	48007.47
749.25	48025.32
749.589	47875.04
749.928	47962.5
750.267	48004.08
750.605	47784.42
750.944	47680.02
751.283	47581.04
751.621	47619
751.96	47429.18
752.298	47321.83
752.636	47502.62
752.975	47258.79
753.313	47202.97
753.651	47353.25
753.989	47158.9
754.327	47137.43
754.666	46789.87
755.004	46954.84
755.342	46995.52
