Data from 15-1247_FLMS001491_001.txt Node
Date: Thu Apr 19 16:10:20 BST 2018
User: hsy
Spectrometer: FLMS00149
Trigger mode: 0
Integration Time (sec): 1.000000E-2
Scans to average: 10
Electric dark correction enabled: true
Nonlinearity correction enabled: false
Boxcar width: 0
XAxis mode: Wavelengths
Number of Pixels in Spectrum: 2048
>>>>>Begin Spectral Data<<<<<
341.393	-0.9
341.776	-0.9
342.16	-0.9
342.543	-48.81
342.927	-70.05
343.31	-68.92
343.693	-77.51
344.077	-54.24
344.46	-48.59
344.843	-59.43
345.226	-28.7
345.61	-49.49
345.993	-19.89
346.376	-21.24
346.759	31.41
347.142	14.01
347.525	38.64
347.908	78.87
348.291	72.99
348.674	91.3
349.057	100.79
349.44	130.17
349.823	154.8
350.206	169.26
350.588	220.79
350.971	239.99
351.354	268.47
351.737	283.16
352.119	293.1
352.502	316.83
352.884	321.35
353.267	336.71
353.65	318.41
354.032	342.59
354.414	332.87
354.797	336.94
355.179	365.19
355.562	386.88
355.944	354.57
356.326	371.06
356.709	384.85
357.091	386.66
357.473	383.04
357.855	398.41
358.238	389.82
358.62	388.92
359.002	390.72
359.384	392.98
359.766	402.93
360.148	404.51
360.53	414.23
360.912	396.37
361.294	408.8
361.676	381.23
362.057	388.92
362.439	389.14
362.821	388.92
363.203	399.99
363.584	369.26
363.966	388.92
364.348	391.85
364.729	384.62
365.111	366.77
365.493	371.97
365.874	379.88
366.256	369.71
366.637	378.3
367.019	378.75
367.4	368.8
367.781	380.55
368.163	384.17
368.544	378.97
368.925	376.94
369.306	388.46
369.688	383.49
370.069	393.66
370.45	383.94
370.831	374
371.212	387.79
371.593	379.43
371.974	368.8
372.355	354.79
372.736	382.81
373.117	384.17
373.498	399.99
373.879	379.65
374.26	369.03
374.641	368.13
375.021	386.43
375.402	384.4
375.783	407.67
376.163	407.67
376.544	391.85
376.925	377.62
377.305	390.05
377.686	404.28
378.066	399.99
378.447	396.37
378.827	407.67
379.208	403.15
379.588	419.42
379.968	426.66
380.349	424.17
380.729	412.19
381.109	413.32
381.489	416.71
381.87	420.33
382.25	404.51
382.63	443.15
383.01	417.84
383.39	418.97
383.77	435.24
384.15	436.37
384.53	458.29
384.91	469.37
385.29	462.13
385.67	432.98
386.049	468.01
386.429	466.2
386.809	470.5
387.189	439.54
387.568	462.36
387.948	460.1
388.328	463.72
388.707	458.97
389.087	471.4
389.466	494.22
389.846	478.41
390.225	501.68
390.605	481.57
390.984	496.03
391.363	500.1
391.743	499.42
392.122	489.25
392.501	505.3
392.881	505.3
393.26	530.83
393.639	520.66
394.018	495.81
394.397	508.46
394.776	522.02
395.155	525.64
395.534	526.54
395.913	515.92
396.292	522.02
396.671	531.29
397.05	530.83
397.429	521.57
397.808	543.04
398.186	509.37
398.565	556.37
398.944	552.3
399.323	544.62
399.701	542.13
400.08	553.88
400.458	546.88
400.837	584.17
401.215	559.99
401.594	577.16
401.972	602.47
402.351	570.38
402.729	560.21
403.107	586.65
403.486	589.36
403.864	615.58
404.242	604.96
404.62	615.58
404.999	612.64
405.377	600.66
405.755	611.96
406.133	636.82
406.511	629.36
406.889	641.34
407.267	635.24
407.645	634.11
408.023	659.64
408.401	670.94
408.779	654.45
409.156	676.14
409.534	669.59
409.912	675.24
410.29	706.65
410.667	689.7
411.045	739.19
411.422	705.52
411.8	720.43
412.178	734.22
412.555	758.17
412.933	740.32
413.31	723.82
413.687	745.97
414.065	786.42
414.442	768.57
414.819	785.29
415.197	788.68
415.574	800.66
415.951	812.86
416.328	800.2
416.705	790.49
417.082	813.09
417.46	841.79
417.837	828.45
418.214	849.7
418.591	840.43
418.967	850.37
419.344	830.94
419.721	832.75
420.098	850.15
420.475	870.49
420.852	866.19
421.228	906.64
421.605	903.48
421.982	861.9
422.358	903.03
422.735	929.69
423.111	898.51
423.488	936.02
423.864	934.66
424.241	932.4
424.617	949.81
424.994	933.53
425.37	966.53
425.746	963.59
426.123	973.53
426.499	988.45
426.875	994.32
427.251	1007.21
427.627	1009.01
428.003	1014.21
428.379	1040.65
428.756	1041.1
429.132	1041.33
429.507	1063.02
429.883	1063.93
430.259	1071.38
430.635	1077.03
431.011	1092.85
431.387	1132.63
431.763	1122.23
432.138	1143.02
432.514	1150.25
432.89	1153.19
433.265	1182.57
433.641	1210.14
434.016	1214.21
434.392	1220.08
434.767	1241.32
435.143	1222.11
435.518	1225.96
435.894	1263.47
436.269	1247.42
436.644	1304.82
437.02	1293.53
437.395	1276.8
437.77	1345.28
438.145	1343.02
438.52	1319.51
438.895	1343.24
439.271	1350.92
439.646	1371.94
440.021	1378.95
440.395	1374.88
440.77	1373.07
441.145	1401.32
441.52	1437.02
441.895	1426.18
442.27	1438.15
442.645	1429.11
443.019	1420.08
443.394	1467.31
443.769	1452.17
444.143	1463.46
444.518	1483.8
444.892	1481.32
445.267	1494.42
445.641	1496.01
446.016	1521.09
446.39	1517.02
446.764	1490.36
447.139	1526.06
447.513	1524.25
447.887	1529.9
448.262	1569.22
448.636	1558.83
449.01	1573.07
449.384	1585.27
449.758	1592.95
450.132	1623.69
450.506	1637.7
450.88	1620.97
451.254	1657.58
451.628	1653.97
452.002	1685.38
452.376	1684.02
452.75	1701.42
453.123	1724.02
453.497	1742.55
453.871	1744.59
454.244	1755.43
454.618	1811.48
454.992	1829.78
455.365	1811.03
455.739	1867.52
456.112	1895.32
456.486	1888.09
456.859	1898.48
457.232	1929.67
457.606	1966.73
457.979	1987.97
458.352	2050.12
458.725	2026.16
459.099	2023
459.472	2060.96
459.845	2101.64
460.218	2121.75
460.591	2159.72
460.964	2154.07
461.337	2168.76
461.71	2240.62
462.083	2265.03
462.456	2264.12
462.829	2235.2
463.201	2307.06
463.574	2317.68
463.947	2321.29
464.32	2392.25
464.692	2372.14
465.065	2394.74
465.438	2446.49
465.81	2493.95
466.183	2505.24
466.555	2509.54
466.928	2533.49
467.3	2525.81
467.672	2612.36
468.045	2638.12
468.417	2640.16
468.789	2674.51
469.161	2657.56
469.534	2709.99
469.906	2724.9
470.278	2805.12
470.65	2814.84
471.022	2851.9
471.394	2919.25
471.766	2948.4
472.138	2990.88
472.51	2988.62
472.882	3071.33
473.253	3064.55
473.625	3138
473.997	3151.33
474.369	3204.66
474.74	3275.62
475.112	3290.08
475.484	3328.95
475.855	3425.67
476.227	3431.55
476.598	3525.78
476.97	3561.26
477.341	3636.97
477.713	3717.64
478.084	3733.01
478.455	3820.24
478.827	3842.16
479.198	3936.17
479.569	4015.49
479.94	4056.16
480.311	4120.8
480.682	4230.17
481.053	4285.09
481.424	4380
481.795	4396.49
482.166	4504.74
482.537	4547.68
482.908	4663.61
483.279	4680.1
483.65	4811.17
484.021	4883.94
484.391	4928.68
484.762	5010.26
485.133	5080.09
485.503	5200.09
485.874	5299.07
486.244	5338.62
486.615	5484.38
486.985	5558.5
487.356	5699.06
487.726	5762.56
488.097	5903.35
488.467	5987.87
488.837	6041.42
489.207	6165.04
489.578	6267.63
489.948	6383.56
490.318	6491.13
490.688	6518.25
491.058	6667.85
491.428	6748.75
491.798	6813.38
492.168	7002.08
492.538	7092.69
492.908	7176.53
493.278	7330.88
493.648	7402.07
494.017	7574.94
494.387	7636.41
494.757	7703.3
495.126	7868.72
495.496	7929.51
495.866	8082.73
496.235	8206.79
496.605	8270.07
496.974	8378.54
497.344	8558.87
497.713	8604.07
498.082	8683.16
498.452	8861.01
498.821	8901.23
499.19	9007.67
499.559	9180.32
499.928	9280.66
500.298	9356.36
500.667	9550.94
501.036	9593.19
501.405	9714.77
501.774	9726.98
502.143	9896.46
502.512	9988.89
502.88	10121.09
503.249	10162.44
503.618	10319.05
503.987	10399.05
504.356	10480.63
504.724	10621.87
505.093	10734.41
505.462	10774.86
505.83	10873.39
506.199	11103.44
506.567	11278.57
506.936	11245.58
507.304	11378.68
507.672	11491.45
508.041	11644.21
508.409	11672.69
508.777	11883.53
509.145	11921.27
509.514	12013.24
509.882	12179.34
510.25	12314.25
510.618	12348.38
510.986	12401.93
511.354	12573
511.722	12700.91
512.09	12885.99
512.458	12817.29
512.826	12992.2
513.193	13086.21
513.561	13255.24
513.929	13325.07
514.297	13374.34
514.664	13518.06
515.032	13636.48
515.4	13761.9
515.767	13798.96
516.135	13852.74
516.502	13958.28
516.869	14139.97
517.237	14265.39
517.604	14253.41
517.972	14459.51
518.339	14517.81
518.706	14585.15
519.073	14678.71
519.44	14855.88
519.808	14939.27
520.175	14969.1
520.542	15199.83
520.909	15260.39
521.276	15432.81
521.643	15551.23
522.009	15688.4
522.376	15863.31
522.743	15831.67
523.11	16042.52
523.477	16171.1
523.843	16363.64
524.21	16562.5
524.577	16639.79
524.943	16821.03
525.31	16829.39
525.676	17102.38
526.043	17146.22
526.409	17309.6
526.776	17465.76
527.142	17538.97
527.508	17767.67
527.874	17899.87
528.241	17962.24
528.607	18059.19
528.973	18313.42
529.339	18324.04
529.705	18617.14
530.071	18654.42
530.437	18763.12
530.803	18939.39
531.169	19047.86
531.535	19145.26
531.901	19184.58
532.267	19250.34
532.632	19450.79
532.998	19642.42
533.364	19723.1
533.73	19809.87
534.095	19984.33
534.461	20020.04
534.826	20102.52
535.192	20167.61
535.557	20321.95
535.923	20324.21
536.288	20485.11
536.653	20591.1
537.019	20591.55
537.384	20767.59
537.749	20807.36
538.114	20933.01
538.479	20902.73
538.845	21035.83
539.21	20994.48
539.575	21097.52
539.94	21201.48
540.305	21393.34
540.67	21422.26
541.034	21452.54
541.399	21551.98
541.764	21475.37
542.129	21694.57
542.494	21748.13
542.858	21792.65
543.223	21857.28
543.587	22019.76
543.952	22020.89
544.316	22059.31
544.681	22011.85
545.045	22380.65
545.41	22306.76
545.774	22383.37
546.138	22328.23
546.503	22567.99
546.867	22487.32
547.231	22657.94
547.595	22658.39
547.959	22762.11
548.324	22822.22
548.688	22885.05
549.052	22994.88
549.416	22975.22
549.779	23066.74
550.143	23099.28
550.507	23281.2
550.871	23438.03
551.235	23393.74
551.599	23582.66
551.962	23521.64
552.326	23567.74
552.689	23720.28
553.053	23533.39
553.417	23754.63
553.78	23954.17
554.143	23980.39
554.507	24056.32
554.87	24080.72
555.234	24413.6
555.597	24197.78
555.96	24363.65
556.323	24493.59
556.686	24504.89
557.05	24680.03
557.413	24699.24
557.776	24774.49
558.139	24838.67
558.502	25016.74
558.865	25144.88
559.228	25230.3
559.59	25237.3
559.953	25262.61
560.316	25617.41
560.679	25630.29
561.041	25770.62
561.404	25881.13
561.767	26024.85
562.129	25891.3
562.492	26210.16
562.854	26240.21
563.217	26309.59
563.579	26407.44
563.941	26596.36
564.304	26755
564.666	26971.72
565.028	26972.85
565.39	26974.66
565.753	27168.78
566.115	27325.38
566.477	27448.54
566.839	27564.25
567.201	27813.28
567.563	27786.39
567.925	28118.81
568.287	27968.3
568.648	28151.35
569.01	28296.66
569.372	28618.23
569.734	28549.76
570.095	28784.33
570.457	28900.48
570.819	29080.59
571.18	29106.81
571.542	29457.08
571.903	29487.59
572.265	29769.39
572.626	29876.5
572.987	29925.09
573.349	30111.3
573.71	30185.87
574.071	30377.96
574.432	30597.39
574.794	30842.13
575.155	30929.13
575.516	30989.24
575.877	31162.12
576.238	31178.84
576.599	31449.34
576.96	31617.47
577.32	31751.48
577.681	31931.14
578.042	32123.45
578.403	32257.91
578.763	32424.68
579.124	32508.75
579.485	32825.13
579.845	33119.36
580.206	33159.35
580.566	33242.97
580.927	33445
581.287	33643.64
581.648	33804.53
582.008	34097.63
582.368	34308.93
582.728	34489.94
583.089	34592.31
583.449	34838.86
583.809	35055.8
584.169	35420.76
584.529	35557.48
584.889	36040.86
585.249	36038.83
585.609	36133.29
585.969	36493.73
586.329	36712.03
586.688	37192.24
587.048	37380.94
587.408	37633.81
587.768	37927.59
588.127	38250.52
588.487	38439.89
588.846	39084.85
589.206	38918.52
589.565	39391.73
589.925	39979.06
590.284	40122.33
590.643	40621.98
591.003	40863.78
591.362	41492.02
591.721	41626.02
592.08	42096.07
592.44	42476.62
592.799	42668.93
593.158	43143.05
593.517	43344.4
593.876	43908.45
594.235	44145.96
594.593	44516.8
594.952	44894.19
595.311	45164.24
595.67	45568.07
596.029	46112.69
596.387	46395.84
596.746	46782.27
597.104	46943.4
597.463	47372.31
597.822	47915.35
598.18	48035.12
598.538	48319.18
598.897	48834.65
599.255	48826.51
599.613	49623.78
599.972	49483.67
600.33	49884.11
600.688	50176.99
601.046	50463.08
601.404	50865.56
601.762	50978.77
602.12	51390.74
602.478	51585.08
602.836	51873.89
603.194	51910.05
603.552	52114.79
603.91	52285.63
604.268	52684.72
604.625	52842.23
604.983	53177.81
605.341	53171.26
605.698	53518.14
606.056	53870.9
606.413	53909.99
606.771	54197.9
607.128	54387.27
607.485	54398.34
607.843	54611.9
608.2	54958.1
608.557	55106.35
608.914	55246.91
609.272	55420.69
609.629	55669.5
609.986	55826.1
610.343	55866.1
610.7	56208.92
611.057	56292.76
611.414	56379.99
611.771	56516.93
612.127	56775.91
612.484	56803.25
612.841	57020.87
613.198	57046.86
613.554	57100.65
613.911	57292.73
614.267	57531.82
614.624	57532.95
614.98	57758.71
615.337	57946.27
615.693	57958.7
616.05	58008.87
616.406	58289.77
616.762	58160.28
617.118	58399.59
617.475	58331.12
617.831	58604.33
618.187	58631.9
618.543	58759.81
618.899	58921.16
619.255	58986.02
619.611	59028.73
619.967	59060.59
620.323	59190.53
620.678	59225.56
621.034	59159.35
621.39	59270.31
621.746	59377.65
622.101	59622.84
622.457	59446.8
622.812	59600.24
623.168	59694.7
623.523	59681.59
623.879	59810.18
624.234	59790.52
624.589	59880.46
624.945	59898.31
625.3	60004.98
625.655	60017.63
626.01	60027.35
626.365	60064.64
626.72	60057.63
627.075	60089.49
627.43	60102.83
627.785	60206.1
628.14	60194.35
628.495	60254.91
628.85	60228.25
629.205	60196.61
629.559	60339.43
629.914	60225.08
630.269	60248.13
630.623	60192.99
630.978	60097.85
631.332	60315.48
631.687	60269.83
632.041	60312.09
632.396	60289.49
632.75	60257.85
633.104	60285.65
633.459	60129.27
633.813	60178.08
634.167	60241.13
634.521	60280.22
634.875	60235.03
635.229	60201.58
635.583	60085.43
635.937	60133.56
636.291	60169.04
636.645	60172.88
636.999	60028.25
637.352	60164.75
637.706	59994.35
638.06	60095.14
638.413	60044.07
638.767	60045.2
639.121	60098.76
639.474	59938.76
639.828	59924.3
640.181	59937.18
640.534	59994.58
640.888	59987.8
641.241	59808.82
641.594	59865.77
641.947	59947.12
642.301	59816.28
642.654	59804.98
643.007	59779.9
643.36	59880.46
643.713	59769.95
644.066	59914.81
644.419	59738.77
644.771	59431.21
645.124	59225.79
645.477	59241.38
645.83	59145.11
646.182	59053.81
646.535	59054.04
646.888	59106.24
647.24	59042.06
647.593	59185.11
647.945	59037.32
648.298	58937.89
648.65	58843.88
649.002	58793.03
649.355	58708.51
649.707	58680.94
650.059	58725.46
650.411	59056.75
650.763	59105.34
651.115	59485.44
651.467	59315.73
651.819	59360.02
652.171	59266.46
652.523	59225.34
652.875	59296.29
653.227	59153.02
653.578	59338.1
653.93	59269.18
654.282	59126.35
654.633	59171.33
654.985	59150.08
655.337	59164.55
655.688	59073.02
656.039	59165.22
656.391	58962.52
656.742	59010.65
657.094	59004.78
657.445	58976.3
657.796	59002.06
658.147	58883.65
658.498	58993.7
658.849	58950.99
659.2	58953.03
659.551	58828.06
659.902	58911.22
660.253	58788.06
660.604	58963.42
660.955	58747.83
661.306	58891.78
661.656	58789.87
662.007	58740.6
662.358	58803.43
662.708	58805.46
663.059	58755.74
663.409	58632.81
663.76	58751.68
664.11	58692.24
664.461	58774.5
664.811	58760.94
665.161	58730.43
665.511	58647.95
665.862	58670.1
666.212	58690.66
666.562	58712.13
666.912	58689.76
667.262	58605.69
667.612	58608.63
667.962	58613.15
668.312	58572.25
668.662	58730.43
669.011	58673.49
669.361	58574.73
669.711	58647.05
670.06	58571.34
670.41	58549.19
670.76	58504.9
671.109	58531.12
671.459	58581.51
671.808	58522.08
672.157	58565.47
672.507	58369.31
672.856	58388.3
673.205	58488.86
673.554	58546.71
673.904	58393.04
674.253	58642.98
674.602	58445.69
674.951	58078.47
675.3	57982.66
675.649	58443.44
675.998	58394.4
676.346	58440.72
676.695	58430.78
677.044	58297
677.393	58390.1
677.741	58347.84
678.09	58356.66
678.438	58219.26
678.787	58348.3
679.135	58298.35
679.484	58194.18
679.832	58362.76
680.181	58205.7
680.529	58279.15
680.877	58179.04
681.225	58116.66
681.573	58358.47
681.922	58185.59
682.27	58125.7
682.618	58129.09
682.966	58058.13
683.314	58133.61
683.661	58078.92
684.009	57959.38
684.357	57942.43
684.705	57970.23
685.053	57913.51
685.4	57855.43
685.748	57802.77
686.095	57873.73
686.443	57716
686.79	57678.94
687.138	57790.8
687.485	57759.84
687.832	57627.86
688.18	57687.97
688.527	57554.87
688.874	57586.28
689.221	57519.62
689.568	57435.55
689.915	57397.36
690.262	57396.68
690.609	57367.08
690.956	57326.63
691.303	57315.56
691.65	57144.03
691.997	57134.77
692.344	57026.07
692.69	57023.36
693.037	57046.41
693.383	56836.7
693.73	56884.38
694.077	56725.97
694.423	56803.93
694.769	56659.08
695.116	56670.6
695.462	56525.52
695.808	56499.53
696.155	56625.18
696.501	56327.56
696.847	56527.55
697.193	56276.49
697.539	56264.74
697.885	56149.48
698.231	56100.45
698.577	56035.36
698.923	56062.03
699.269	55802.6
699.614	55859.1
699.96	55760.57
700.306	55703.39
700.651	55629.5
700.997	55524.87
701.342	55576.62
701.688	55505.89
702.033	55371.88
702.379	55399.9
702.724	55163.97
703.069	55372.1
703.415	54942.74
703.76	54957.88
704.105	55030.87
704.45	54902.96
704.795	54768.05
705.14	54679.69
705.485	54750.88
705.83	54522.18
706.175	54592.69
706.52	54484.22
706.865	54406.25
707.209	54339.81
707.554	54262.08
707.899	54215.3
708.243	54132.81
708.588	54129.42
708.932	53954.06
709.277	54014.17
709.621	53861.41
709.966	53677.68
710.31	53775.54
710.654	53550.91
710.998	53552.72
711.342	53678.14
711.687	53417.35
712.031	53418.26
712.375	53275.89
712.719	53293.06
713.063	53132.84
713.407	53322.89
713.75	53116.12
714.094	53085.16
714.438	52932.17
714.782	53025.27
715.125	52876.58
715.469	53029.79
715.812	52752.96
716.156	52682.23
716.499	52657.6
716.843	52686.75
717.186	52502.12
717.53	52620.76
717.873	52544.16
718.216	52457.83
718.559	52345.52
718.902	52163.83
719.246	52173.32
719.589	52116.37
719.932	51988.24
720.275	52130.61
720.617	52118.18
720.96	51855.81
721.303	51956.37
721.646	51950.05
721.989	51701.01
722.331	51738.3
722.674	51657.62
723.016	51599.1
723.359	51501.7
723.701	51603.16
724.044	51505.31
724.386	51285.21
724.729	51460.12
725.071	51318.2
725.413	51257.64
725.755	51238.88
726.097	51167.02
726.439	51007.7
726.782	51049.28
727.124	51095.15
727.465	50996.85
727.807	50902.84
728.149	50888.15
728.491	50777.87
728.833	50771.32
729.175	50707.37
729.516	50545.79
729.858	50548.95
730.199	50708.72
730.541	50522.29
730.882	50496.07
731.224	50582.85
731.565	50375.85
731.906	50414.49
732.248	50455.85
732.589	50173.6
732.93	50221.96
733.271	50154.39
733.612	50207.72
733.953	50263.99
734.294	50039.14
734.635	50073.26
734.976	50218.34
735.317	49873.49
735.658	49929.08
735.999	49870.55
736.339	49945.81
736.68	49833.72
737.021	49819.03
737.361	49718.01
737.702	49940.83
738.042	49636.21
738.383	49719.82
738.723	49589.88
739.063	49489.77
739.404	49621.07
739.744	49529.09
740.084	49285.71
740.424	49426.95
740.764	49360.51
741.104	49350.34
741.444	49275.99
741.784	49103.79
742.124	49133.4
742.464	49068.09
742.804	49008.65
743.143	48941.09
743.483	49094.08
743.823	48794.2
744.162	48800.52
744.502	48803.24
744.841	48723.24
745.181	48923.91
745.52	48615.9
745.86	48640.53
746.199	48698.61
746.538	48576.35
746.877	48582
747.216	48572.96
747.556	48500.65
747.895	48398.05
748.234	48271.73
748.573	48371.16
748.911	48247.77
749.25	48181.33
749.589	48032.18
749.928	48152.86
750.267	48131.84
750.605	47970.94
750.944	47992.64
751.283	47819.53
751.621	47873.09
751.96	47748.58
752.298	47653.89
752.636	47701.34
752.975	47489.15
753.313	47354.69
753.651	47668.13
753.989	47308.36
754.327	47355.37
754.666	47071.3
755.004	47092.77
755.342	47179.32
