Data from 15-1247_FLMS001491_003.txt Node
Date: Thu Apr 19 16:10:26 BST 2018
User: hsy
Spectrometer: FLMS00149
Trigger mode: 0
Integration Time (sec): 1.000000E-2
Scans to average: 10
Electric dark correction enabled: true
Nonlinearity correction enabled: false
Boxcar width: 0
XAxis mode: Wavelengths
Number of Pixels in Spectrum: 2048
>>>>>Begin Spectral Data<<<<<
341.393	-14.73
341.776	-14.73
342.16	-14.73
342.543	-77.78
342.927	-62.64
343.31	-53.83
343.693	-65.8
344.077	-92.24
344.46	-56.54
344.843	-50.89
345.226	-39.14
345.61	-51.57
345.993	-22.19
346.376	-12.7
346.759	24.36
347.142	27.98
347.525	30.47
347.908	54.42
348.291	78.37
348.674	97.13
349.057	132.16
349.44	136.9
349.823	137.36
350.206	186.17
350.588	202.89
350.971	241.53
351.354	262.1
351.737	276.33
352.119	280.4
352.502	309.33
352.884	322.21
353.267	311.81
353.65	316.56
354.032	339.84
354.414	341.87
354.797	352.26
355.179	348.88
355.562	347.97
355.944	365.82
356.326	395.65
356.709	391.59
357.091	373.06
357.473	367.86
357.855	405.14
358.238	404.01
358.62	376.67
359.002	377.8
359.384	387.07
359.766	388.65
360.148	373.06
360.53	394.98
360.912	386.16
361.294	371.7
361.676	382.09
362.057	381.42
362.439	373.28
362.821	385.26
363.203	375.09
363.584	378.7
363.966	379.83
364.348	389.55
364.729	365.82
365.111	374.41
365.493	372.83
365.874	388.42
366.256	372.83
366.637	373.06
367.019	401.53
367.4	363.11
367.781	390.23
368.163	378.03
368.544	367.63
368.925	354.07
369.306	374.86
369.688	355.65
370.069	369.89
370.45	387.07
370.831	370.34
371.212	389.55
371.593	381.87
371.974	388.2
372.355	366.5
372.736	380.51
373.117	351.36
373.498	394.98
373.879	399.04
374.26	389.55
374.641	358.59
375.021	393.85
375.402	394.52
375.783	410.57
376.163	392.72
376.544	400.85
376.925	404.01
377.305	423
377.686	390.91
378.066	397.46
378.447	416.67
378.827	407.18
379.208	401.98
379.588	408.76
379.968	424.58
380.349	414.64
380.729	423
381.109	408.08
381.489	422.77
381.87	427.97
382.25	398.14
382.63	421.42
383.01	396.11
383.39	417.8
383.77	452.38
384.15	427.52
384.53	433.17
384.91	429.78
385.29	461.64
385.67	440.17
386.049	442.43
386.429	441.75
386.809	456.89
387.189	427.97
387.568	483.56
387.948	452.15
388.328	451.7
388.707	478.59
389.087	489.66
389.466	470.68
389.846	476.33
390.225	493.05
390.605	486.72
390.984	485.82
391.363	491.92
391.743	486.5
392.122	501.41
392.501	484.69
392.881	488.53
393.26	513.84
393.639	520.4
394.018	510.9
394.397	521.98
394.776	524.69
395.155	531.92
395.534	544.58
395.913	519.49
396.292	535.31
396.671	542.09
397.05	523.33
397.429	523.79
397.808	534.63
398.186	544.58
398.565	538.47
398.944	527.63
399.323	534.63
399.701	545.25
400.08	550.23
400.458	556.55
400.837	575.31
401.215	567.4
401.594	573.28
401.972	555.42
402.351	571.92
402.729	592.48
403.107	596.33
403.486	594.07
403.864	577.12
404.242	580.51
404.62	606.27
404.999	576.89
405.377	618.92
405.755	607.17
406.133	623.9
406.511	618.25
406.889	621.64
407.267	610.34
407.645	664.35
408.023	662.99
408.401	661.64
408.779	651.01
409.156	679.94
409.534	669.32
409.912	672.93
410.29	694.63
410.667	710
411.045	713.39
411.422	730.56
411.8	708.19
412.178	707.74
412.555	736.21
412.933	761.07
413.31	746.38
413.687	759.26
414.065	761.97
414.442	771.46
414.819	757.68
415.197	794.51
415.574	816.21
415.951	806.72
416.328	807.39
416.705	818.69
417.082	814.63
417.46	822.76
417.837	855.98
418.214	844.91
418.591	825.92
418.967	854.17
419.344	841.74
419.721	842.2
420.098	864.12
420.475	882.87
420.852	866.15
421.228	877.22
421.605	884.68
421.982	863.66
422.358	923.32
422.735	914.06
423.111	909.54
423.488	913.38
423.864	928.29
424.241	933.49
424.617	932.59
424.994	928.52
425.37	951.57
425.746	961.74
426.123	974.17
426.499	970.33
426.875	1013.72
427.251	1018.69
427.627	996.54
428.003	1011.91
428.379	1060.72
428.756	1037.67
429.132	1060.72
429.507	1083.77
429.883	1074.73
430.259	1087.61
430.635	1122.64
431.011	1089.19
431.387	1124.22
431.763	1114.5
432.138	1127.39
432.514	1135.75
432.89	1162.19
433.265	1202.41
433.641	1215.29
434.016	1200.15
434.392	1243.77
434.767	1238.57
435.143	1205.8
435.518	1250.77
435.894	1293.93
436.269	1245.12
436.644	1292.58
437.02	1294.39
437.395	1302.52
437.77	1279.02
438.145	1352.24
438.52	1349.75
438.895	1331.45
439.271	1363.99
439.646	1359.92
440.021	1410.54
440.395	1380.94
440.77	1371
441.145	1400.82
441.52	1429.98
441.895	1415.51
442.27	1437.21
442.645	1434.27
443.019	1454.16
443.394	1433.82
443.769	1434.72
444.143	1459.58
444.518	1485.57
444.892	1515.17
445.267	1501.39
445.641	1489.64
446.016	1526.25
446.39	1550.65
446.764	1534.15
447.139	1519.92
447.513	1539.8
447.887	1535.06
448.262	1572.8
448.636	1550.43
449.01	1589.75
449.384	1601.95
449.758	1596.98
450.132	1630.42
450.506	1633.14
450.88	1652.57
451.254	1655.73
451.628	1666.13
452.002	1691.66
452.376	1698.9
452.75	1734.38
453.123	1742.74
453.497	1736.64
453.871	1754.49
454.244	1804.88
454.618	1821.38
454.992	1851.89
455.365	1830.42
455.739	1848.95
456.112	1893.24
456.486	1919.91
456.859	1911.09
457.232	1935.27
457.606	1973.92
457.979	2009.4
458.352	2013.01
458.725	2069.51
459.099	2050.98
459.472	2107.92
459.845	2107.02
460.218	2101.82
460.591	2161.93
460.964	2149.51
461.337	2202.39
461.71	2210.75
462.083	2232.89
462.456	2275.83
462.829	2275.38
463.201	2321.03
463.574	2321.03
463.947	2366.9
464.32	2383.85
464.692	2450.51
465.065	2420.46
465.438	2462.27
465.81	2494.58
466.183	2505.88
466.555	2566.67
466.928	2575.94
467.3	2567.57
467.672	2623.17
468.045	2645.31
468.417	2660.9
468.789	2700.68
469.161	2706.33
469.534	2752.65
469.906	2817.06
470.278	2855.7
470.65	2864.29
471.022	2896.15
471.394	2930.5
471.766	2986.55
472.138	3005.75
472.51	3082.36
472.882	3121.91
473.253	3094.79
473.625	3149.48
473.997	3229.03
474.369	3292.98
474.74	3293.43
475.112	3344.5
475.484	3395.8
475.855	3430.83
476.227	3519.19
476.598	3555.34
476.97	3603.7
477.341	3727.32
477.713	3742.68
478.084	3727.09
478.455	3845.96
478.827	3900.42
479.198	4013.41
479.569	4014.09
479.94	4077.82
480.311	4178.15
480.682	4244.37
481.053	4330.01
481.424	4387.19
481.795	4455.66
482.166	4542.66
482.537	4598.93
482.908	4695.65
483.279	4760.28
483.65	4890.9
484.021	5010.45
484.391	5050.45
484.762	5116.66
485.133	5176.09
485.503	5261.97
485.874	5388.97
486.244	5435.75
486.615	5589.64
486.985	5639.58
487.356	5688.17
487.726	5852.01
488.097	5986.92
488.467	6031.21
488.837	6156.86
489.207	6222.17
489.578	6355.72
489.948	6465.55
490.318	6598.88
490.688	6610.18
491.058	6782.15
491.428	6951.87
491.798	7035.25
492.168	7142.59
492.538	7212.42
492.908	7331.52
493.278	7441.8
493.648	7541.45
494.017	7698.51
494.387	7785.29
494.757	7837.49
495.126	8045.17
495.496	8128.33
495.866	8235.45
496.235	8361.09
496.605	8502.33
496.974	8589.34
497.344	8723.12
497.713	8842.66
498.082	8860.74
498.452	9035.43
498.821	9095.31
499.19	9289.43
499.559	9362.88
499.928	9528.97
500.298	9573.72
500.667	9749.53
501.036	9785.69
501.405	9973.48
501.774	10081.05
502.143	10223.42
502.512	10238.78
502.88	10410.53
503.249	10468.38
503.618	10617.53
503.987	10775.95
504.356	10861.14
504.724	11042.15
505.093	11057.75
505.462	11135.94
505.83	11264.75
506.199	11450.73
506.567	11602.36
506.936	11749.25
507.304	11738.63
507.672	11896.37
508.041	12008.91
508.409	12236.47
508.777	12262.46
509.145	12375.23
509.514	12455.9
509.882	12606.86
510.25	12770.02
510.618	12847.53
510.986	12930.69
511.354	13036.9
511.722	13228.54
512.09	13344.01
512.458	13285.94
512.826	13544.69
513.193	13584.01
513.561	13698.58
513.929	13824.45
514.297	13938.8
514.664	14054.73
515.032	14186.7
515.4	14367.94
515.767	14408.39
516.135	14493.81
516.502	14445
516.869	14727.71
517.237	14877.08
517.604	14802.05
517.972	15046.34
518.339	15141.03
518.706	15215.6
519.073	15359.78
519.44	15451.08
519.808	15654.69
520.175	15725.87
520.542	15898.3
520.909	16073.43
521.276	16068.69
521.643	16294.22
522.009	16310.49
522.376	16529.24
522.743	16664.38
523.11	16778.5
523.477	17006.29
523.843	17049.23
524.21	17363.34
524.577	17369.67
524.943	17521.08
525.31	17700.28
525.676	17848.08
526.043	17940.28
526.409	18045.58
526.776	18380.94
527.142	18386.59
527.508	18499.36
527.874	18692.57
528.241	18800.37
528.607	18870.65
528.973	19150.87
529.339	19102.51
529.705	19383.85
530.071	19422.05
530.437	19637.41
530.803	19777.52
531.169	19942.71
531.535	19964.86
531.901	20038.53
532.267	20128.24
532.632	20414.79
532.998	20377.27
533.364	20596.7
533.73	20589.47
534.095	20832.63
534.461	20912.85
534.826	20960.76
535.192	21102.91
535.557	21304.71
535.923	21283.24
536.288	21481.2
536.653	21518.71
537.019	21508.54
537.384	21555.78
537.749	21746.96
538.114	21868.76
538.479	21861.76
538.845	21953.28
539.21	21936.1
539.575	22112.6
539.94	22182.65
540.305	22300.16
540.67	22365.25
541.034	22356.21
541.399	22452.93
541.764	22598.91
542.129	22536.99
542.494	22678.91
542.858	22859.24
543.223	22709.87
543.587	22871.22
543.952	23000.71
544.316	22995.96
544.681	23078.9
545.045	23234.83
545.41	23339.46
545.774	23221.49
546.138	23323.64
546.503	23392.34
546.867	23416.52
547.231	23593.46
547.595	23639.11
547.959	23676.85
548.324	23761.82
548.688	23777.41
549.052	23943.73
549.416	23823.96
549.779	23914.81
550.143	23944.19
550.507	24205.42
550.871	24272.31
551.235	24259.88
551.599	24548.24
551.962	24442.7
552.326	24615.36
552.689	24625.98
553.053	24533.55
553.417	24664.17
553.78	24831.17
554.143	24878.63
554.507	24963.82
554.87	25038.62
555.234	25296.47
555.597	25169.92
555.96	25350.25
556.323	25403.81
556.686	25489.46
557.05	25685.38
557.413	25830.01
557.776	25903.91
558.139	26062.1
558.502	25972.16
558.865	26118.14
559.228	26225.93
559.59	26321.75
559.953	26293.5
560.316	26734.85
560.679	26661.86
561.041	26848.07
561.404	26892.36
561.767	27098.45
562.129	27005.12
562.492	27300.03
562.854	27377.32
563.217	27429.07
563.579	27487.6
563.941	27714.71
564.304	27756.29
564.666	27949.51
565.028	28003.52
565.39	28145.66
565.753	28368.03
566.115	28400.79
566.477	28575.25
566.839	28719.65
567.201	28895.24
567.563	28950.38
567.925	29179.3
568.287	29177.04
568.648	29289.81
569.01	29485.74
569.372	29727.76
569.734	29897.93
570.095	29942.9
570.457	30211.14
570.819	30395.54
571.18	30276.22
571.542	30564.58
571.903	30701.75
572.265	30869.2
572.626	31108.74
572.987	31129.08
573.349	31359.81
573.71	31469.86
574.071	31567.49
574.432	31908.5
574.794	32072.79
575.155	32223.29
575.516	32263.06
575.877	32425.77
576.238	32525.88
576.599	32797.29
576.96	32936.49
577.32	33155.47
577.681	33202.93
578.042	33506.2
578.403	33675.68
578.763	33693.99
579.124	33899.41
579.485	34081.77
579.845	34454.42
580.206	34478.15
580.566	34630.91
580.927	34877.46
581.287	35064.57
581.648	35092.37
582.008	35531.68
582.368	35613.94
582.728	35869.75
583.089	35964.66
583.449	36260.47
583.809	36413.01
584.169	36888.71
584.529	36841.02
584.889	37336.38
585.249	37404.17
585.609	37562.59
585.969	38002.8
586.329	38082.57
586.688	38507.65
587.048	38741.54
587.408	39070.34
587.768	39151.7
588.127	39668.29
588.487	39814.05
588.846	40311.21
589.206	40420.82
589.565	40650.64
589.925	41488.36
590.284	41504.18
590.643	41737.62
591.003	42214.89
591.362	42710.47
591.721	42881.99
592.08	43239.27
592.44	43729.66
592.799	43945.92
593.158	44331.67
593.517	44551.78
593.876	45176.4
594.235	45298.65
594.593	45706.33
594.952	46086.2
595.311	46299.08
595.67	46591.73
596.029	47179.06
596.387	47491.82
596.746	47846.61
597.104	47860.85
597.463	48258.12
597.822	48911.89
598.18	48894.49
598.538	49240.7
598.897	49665.32
599.255	49688.59
599.613	50402.7
599.972	50388.92
600.33	50666.2
600.688	50767.44
601.046	51115
601.404	51523.57
601.762	51706.85
602.12	52013.73
602.478	52142.99
602.836	52495.3
603.194	52503.21
603.552	52806.7
603.91	52934.16
604.268	53229.74
604.625	53494.82
604.983	53697.3
605.341	53647.59
605.698	54016.62
606.056	54369.6
606.413	54372.31
606.771	54657.96
607.128	54856.37
607.485	54883.03
607.843	55089.13
608.2	55351.27
608.557	55572.28
608.914	55631.26
609.272	55856.57
609.629	56114.87
609.986	56288.87
610.343	56320.51
610.7	56580.84
611.057	56630.78
611.414	56712.36
611.771	56956.2
612.127	57101.06
612.484	57232.58
612.841	57388.96
613.198	57357.32
613.554	57547.6
613.911	57770.42
614.267	57868.04
614.624	57869.62
614.98	58094.25
615.337	58277.75
615.693	58338.76
616.05	58354.58
616.406	58591.41
616.762	58601.58
617.118	58731.52
617.475	58729.94
617.831	58887.45
618.187	58964.06
618.543	59047.9
618.899	59195.46
619.255	59198.85
619.611	59228
619.967	59392.07
620.323	59502.12
620.678	59409.24
621.034	59507.09
621.39	59574.89
621.746	59587.09
622.101	59929.68
622.457	59707.09
622.812	59869.8
623.168	59981.43
623.523	59978.95
623.879	60093.29
624.234	59952.28
624.589	60099.39
624.945	60128.09
625.3	60145.49
625.655	60234.98
626.01	60274.3
626.365	60239.96
626.72	60252.16
627.075	60331.25
627.43	60287.41
627.785	60377.13
628.14	60423.68
628.495	60409.22
628.85	60452.38
629.205	60413.74
629.559	60503
629.914	60473.85
630.269	60503
630.623	60371.48
630.978	60339.39
631.332	60513.85
631.687	60498.93
632.041	60461.87
632.396	60511.13
632.75	60444.47
633.104	60457.8
633.459	60345.94
633.813	60373.74
634.167	60353.17
634.521	60352.72
634.875	60406.05
635.229	60372.61
635.583	60272.95
635.937	60236.79
636.291	60297.36
636.645	60287.86
636.999	60182.33
637.352	60320.41
637.706	60154.08
638.06	60294.19
638.413	60180.97
638.767	60118.38
639.121	60135.78
639.474	60054.42
639.828	60074.31
640.181	60040.41
640.534	60163.12
640.888	59972.17
641.241	59923.13
641.594	60012.62
641.947	60072.73
642.301	59938.72
642.654	60018.49
643.007	59955.9
643.36	59976.46
643.713	59917.7
644.066	59966.06
644.419	59793.64
644.771	59576.02
645.124	59345.29
645.477	59337.15
645.83	59247.89
646.182	59240.66
646.535	59126.99
646.888	59225.29
647.24	59108.46
647.593	59261
647.945	59131.96
648.298	59037.73
648.65	58982.81
649.002	58860.56
649.355	58893.32
649.707	58776.04
650.059	58804.51
650.411	59129.25
650.763	59248.8
651.115	59616.7
651.467	59444.27
651.819	59516.36
652.171	59441.33
652.523	59292.41
652.875	59382.58
653.227	59260.32
653.578	59443.37
653.93	59356.81
654.282	59277.04
654.633	59235.91
654.985	59248.34
655.337	59238.4
655.688	59191.4
656.039	59246.54
656.391	59030.95
656.742	59085.64
657.094	59109.14
657.445	59105.97
657.796	59151.85
658.147	59018.97
658.498	59037.95
658.849	59112.08
659.2	58992.76
659.551	58968.35
659.902	59064.17
660.253	58927.22
660.604	59005.41
660.955	58888.13
661.306	58989.14
661.656	58879.77
662.007	58959.76
662.358	58969.25
662.708	58981.46
663.059	58871.86
663.409	58795.02
663.76	58881.57
664.11	58919.54
664.461	58928.13
664.811	58959.76
665.161	58906.43
665.511	58833.89
665.862	58831.63
666.212	58891.74
666.562	58885.19
666.912	58839.54
667.262	58794.8
667.612	58807.9
667.962	58841.8
668.312	58733.78
668.662	58933.32
669.011	58782.14
669.361	58827.34
669.711	58817.17
670.06	58736.49
670.41	58686.32
670.76	58638.64
671.109	58794.12
671.459	58728.36
671.808	58702.37
672.157	58703.27
672.507	58605.87
672.856	58586.44
673.205	58645.87
673.554	58655.82
673.904	58617.85
674.253	58750.73
674.602	58591.64
674.951	58334.47
675.3	58195.49
675.649	58644.29
675.998	58571.07
676.346	58595.71
676.695	58642.94
677.044	58413.79
677.393	58514.13
677.741	58552.54
678.09	58447.69
678.438	58375.82
678.787	58454.24
679.135	58484.3
679.484	58325.2
679.832	58368.14
680.181	58343.73
680.529	58337.18
680.877	58262.83
681.225	58274.36
681.573	58427.12
681.922	58259.22
682.27	58187.81
682.618	58243.85
682.966	58202.5
683.314	58174.93
683.661	58094.93
684.009	58095.83
684.357	58013.35
684.705	57949.17
685.053	58017.64
685.4	57907.14
685.748	57905.78
686.095	57902.62
686.443	57746.46
686.79	57705.56
687.138	57852
687.485	57793.47
687.832	57670.31
688.18	57680.93
688.527	57579.91
688.874	57622.17
689.221	57512.57
689.568	57418.56
689.915	57426.02
690.262	57512.8
690.609	57414.72
690.956	57228.06
691.303	57294.04
691.65	57173.6
691.997	57232.13
692.344	57106.48
692.69	57057.89
693.037	57048.4
693.383	56929.99
693.73	56902.19
694.077	56785.13
694.423	56788.52
694.769	56713.95
695.116	56698.58
695.462	56620.39
695.808	56530.67
696.155	56568.64
696.501	56363.9
696.847	56469.66
697.193	56238.93
697.539	56319.38
697.885	56087.75
698.231	56018.15
698.577	56049.11
698.923	56037.81
699.269	55820.64
699.614	55735.89
699.96	55746.74
700.306	55750.36
700.651	55593.75
700.997	55520.53
701.342	55453.19
701.688	55479.85
702.033	55282.57
702.379	55313.08
702.724	55244.38
703.069	55325.06
703.415	54980.88
703.76	54978.17
704.105	55002.58
704.45	54911.51
704.795	54681.68
705.14	54622.48
705.485	54654.34
705.83	54546.09
706.175	54630.84
706.52	54415.02
706.865	54438.75
707.209	54291.86
707.554	54252.54
707.899	54319.66
708.243	54123.96
708.588	54134.35
708.932	53897.98
709.277	54007.13
709.621	53903.85
709.966	53717.87
710.31	53780.24
710.654	53531.66
710.998	53679.9
711.342	53530.3
711.687	53510.64
712.031	53399.46
712.375	53221.16
712.719	53294.38
713.063	53171.44
713.407	53277.65
713.75	53128.28
714.094	53066.36
714.438	53033.37
714.782	53054.83
715.125	52889.19
715.469	53012.58
715.812	52603.09
716.156	52620.27
716.499	52600.61
716.843	52697.1
717.186	52444.23
717.53	52645.13
717.873	52628.63
718.216	52473.83
718.559	52321.29
718.902	52084.92
719.246	52199.94
719.589	52168.3
719.932	52090.34
720.275	52064.8
720.617	51981.64
720.96	51834.07
721.303	51916.56
721.646	51965.82
721.989	51681.08
722.331	51780.97
722.674	51696.68
723.016	51637.02
723.359	51521.99
723.701	51591.82
724.044	51482.67
724.386	51266.41
724.729	51456.46
725.071	51454.2
725.413	51259.4
725.755	51239.06
726.097	51220.08
726.439	51057.15
726.782	51045.85
727.124	51187.99
727.465	51079.29
727.807	50834.78
728.149	51004.72
728.491	50681.56
728.833	50827.1
729.175	50771.05
729.516	50548.91
729.858	50635.46
730.199	50705.29
730.541	50592.75
730.882	50473.66
731.224	50494
731.565	50283.16
731.906	50305.75
732.248	50329.26
732.589	50211.52
732.93	50087.45
733.271	50228.69
733.612	50107.11
733.953	50072.09
734.294	50028.7
734.635	49898.76
734.976	49952.99
735.317	49979.66
735.658	49807.24
735.999	49720.68
736.339	49756.39
736.68	49707.13
737.021	49722.72
737.361	49542.61
737.702	49729.5
738.042	49558.43
738.383	49561.59
738.723	49646.34
739.063	49530.41
739.404	49550.97
739.744	49413.57
740.084	49199.79
740.424	49341.94
740.764	49201.15
741.104	49383.07
741.444	49184.2
741.784	48967.94
742.124	49154.82
742.464	49097.65
742.804	49061.94
743.143	48982.85
743.483	48978.1
743.823	48741.73
744.162	48732.91
744.502	48866.24
744.841	48664.44
745.181	48939.01
745.52	48689.07
745.86	48676.64
746.199	48637.77
746.538	48577.66
746.877	48671.9
747.216	48371.57
747.556	48322.08
747.895	48319.37
748.234	48292.02
748.573	48175.64
748.911	48166.37
749.25	48186.26
749.589	47913.73
749.928	48045.47
750.267	48066.04
750.605	47810
750.944	47815.88
751.283	47734.97
751.621	47805.71
751.96	47522.1
752.298	47556.22
752.636	47665.6
752.975	47443.68
753.313	47271.48
753.651	47474.64
753.989	47319.62
754.327	47235.55
754.666	46857.93
755.004	47064.71
755.342	47063.13
