Data from 15-1247_FLMS001491_010.txt Node
Date: Thu Apr 19 16:10:42 BST 2018
User: hsy
Spectrometer: FLMS00149
Trigger mode: 0
Integration Time (sec): 1.000000E-2
Scans to average: 10
Electric dark correction enabled: true
Nonlinearity correction enabled: false
Boxcar width: 0
XAxis mode: Wavelengths
Number of Pixels in Spectrum: 2048
>>>>>Begin Spectral Data<<<<<
341.393	-4.45
341.776	-4.45
342.16	-4.45
342.543	-49.65
342.927	-57.1
343.31	-69.76
343.693	-43.54
344.077	-61.17
344.46	-72.7
344.843	-49.19
345.226	-14.84
345.61	-43.32
345.993	-11
346.376	-1.74
346.759	12.05
347.142	17.47
347.525	24.02
347.908	49.11
348.291	69.9
348.674	97.7
349.057	97.02
349.44	137.02
349.823	137.24
350.206	184.02
350.588	236.67
350.971	273.06
351.354	279.16
351.737	296.56
352.119	292.72
352.502	291.59
352.884	319.38
353.267	311.7
353.65	325.26
354.032	339.95
354.414	349.21
354.797	352.6
355.179	372.26
355.562	373.85
355.944	377.01
356.326	379.72
356.709	390.12
357.091	373.39
357.473	395.99
357.855	370.91
358.238	393.05
358.62	378.59
359.002	386.28
359.384	382.66
359.766	393.96
360.148	385.37
360.53	372.72
360.912	380.4
361.294	399.38
361.676	409.55
362.057	384.92
362.439	399.38
362.821	383.79
363.203	383.11
363.584	394.86
363.966	393.96
364.348	386.95
364.729	379.04
365.111	390.12
365.493	377.01
365.874	401.87
366.256	374.52
366.637	370.46
367.019	388.99
367.4	368.87
367.781	370.68
368.163	393.73
368.544	372.94
368.925	390.57
369.306	360.74
369.688	370.23
370.069	391.25
370.45	384.69
370.831	371.59
371.212	379.72
371.593	380.63
371.974	396.9
372.355	388.99
372.736	388.99
373.117	390.57
373.498	390.34
373.879	378.82
374.26	385.37
374.641	379.95
375.021	378.59
375.402	393.51
375.783	410.68
376.163	419.27
376.544	418.36
376.925	403.68
377.305	397.8
377.686	391.02
378.066	399.16
378.447	410.68
378.827	410.46
379.208	419.49
379.588	429.21
379.968	406.39
380.349	416.33
380.729	430.12
381.109	430.12
381.489	428.99
381.87	423.56
382.25	435.54
382.63	437.8
383.01	437.12
383.39	436.9
383.77	457.46
384.15	480.51
384.53	465.14
384.91	434.86
385.29	464.01
385.67	467.18
386.049	447.74
386.429	470.57
386.809	487.06
387.189	455.65
387.568	475.54
387.948	492.26
388.328	479.61
388.707	485.48
389.087	471.92
389.466	477.12
389.846	488.19
390.225	497.01
390.605	495.88
390.984	488.87
391.363	486.39
391.743	520.28
392.122	504.69
392.501	510.79
392.881	500.62
393.26	522.99
393.639	511.92
394.018	510.11
394.397	535.88
394.776	535.88
395.155	511.7
395.534	529.55
395.913	538.81
396.292	545.37
396.671	556.89
397.05	557.34
397.429	538.36
397.808	552.15
398.186	551.92
398.565	563.45
398.944	549.43
399.323	557.12
399.701	575.2
400.08	568.64
400.458	588.08
400.837	578.13
401.215	576.1
401.594	597.8
401.972	585.14
402.351	609.77
402.729	606.83
403.107	606.16
403.486	617.23
403.864	621.52
404.242	618.59
404.62	606.38
404.999	627.62
405.377	617.46
405.755	626.72
406.133	651.58
406.511	640.96
406.889	660.62
407.267	645.93
407.645	664.69
408.023	672.6
408.401	671.47
408.779	678.7
409.156	717.57
409.534	709.88
409.912	703.55
410.29	722.09
410.667	722.54
411.045	749.43
411.422	751.01
411.8	727.96
412.178	748.3
412.555	747.4
412.933	774.29
413.31	770.9
413.687	801.63
414.065	786.49
414.442	816.77
414.819	810.9
415.197	814.51
415.574	846.38
415.951	854.06
416.328	851.8
416.705	844.12
417.082	879.14
417.46	874.4
417.837	894.96
418.214	843.44
418.591	851.57
418.967	864.68
419.344	901.97
419.721	889.54
420.098	881.86
420.475	907.39
420.852	921.18
421.228	912.36
421.605	941.97
421.982	930.22
422.358	952.81
422.735	945.36
423.111	954.85
423.488	989.42
423.864	977.9
424.241	984.68
424.617	1007.73
424.994	1011.12
425.37	1009.08
425.746	992.59
426.123	1024.9
426.499	1028.29
426.875	1037.11
427.251	1040.5
427.627	1077.33
428.003	1081.62
428.379	1114.62
428.756	1077.1
429.132	1118.69
429.507	1126.59
429.883	1140.61
430.259	1154.39
430.635	1158.68
431.011	1161.4
431.387	1202.98
431.763	1196.42
432.138	1213.15
432.514	1216.76
432.89	1237.33
433.265	1225.58
433.641	1280.94
434.016	1261.73
434.392	1303.31
434.767	1318.23
435.143	1309.64
435.518	1339.02
435.894	1327.72
436.269	1383.76
436.644	1365.91
437.02	1366.14
437.395	1379.02
437.77	1405.91
438.145	1433.93
438.52	1436.42
438.895	1440.94
439.271	1445.46
439.646	1479.58
440.021	1444.33
440.395	1467.83
440.77	1483.65
441.145	1472.8
441.52	1555.06
441.895	1524.1
442.27	1530.43
442.645	1510.54
443.019	1533.36
443.394	1549.86
443.769	1540.82
444.143	1576.98
444.518	1586.02
444.892	1565.45
445.267	1572.01
445.641	1604.32
446.016	1597.54
446.39	1620.37
446.764	1654.26
447.139	1589.41
447.513	1654.94
447.887	1641.84
448.262	1678.44
448.636	1680.25
449.01	1697.65
449.384	1694.04
449.758	1672.34
450.132	1731.78
450.506	1722.74
450.88	1738.56
451.254	1743.98
451.628	1815.16
452.002	1811.1
452.376	1811.32
452.75	1840.47
453.123	1825.33
453.497	1864.88
453.871	1876.86
454.244	1884.77
454.618	1943.97
454.992	1941.94
455.365	1954.82
455.739	2023.29
456.112	1999.34
456.486	2011.77
456.859	2035.27
457.232	2093.35
457.606	2096.51
457.979	2115.5
458.352	2182.39
458.725	2219.45
459.099	2214.48
459.472	2250.41
459.845	2251.08
460.218	2270.97
460.591	2286.56
460.964	2298.77
461.337	2378.99
461.71	2405.66
462.083	2421.93
462.456	2425.54
462.829	2421.25
463.201	2487.69
463.574	2460.57
463.947	2531.76
464.32	2569.49
464.692	2612.88
465.065	2609.49
465.438	2646.33
465.81	2628.48
466.183	2678.64
466.555	2769.26
466.928	2749.38
467.3	2771.98
467.672	2780.79
468.045	2879.09
468.417	2879.54
468.789	2896.27
469.161	2884.29
469.534	2941.91
469.906	3006.32
470.278	2980.56
470.65	3019.2
471.022	3116.15
471.394	3179.87
471.766	3203.83
472.138	3207.44
472.51	3304.84
472.882	3316.59
473.253	3360.89
473.625	3395.24
473.997	3451.96
474.369	3525.4
474.74	3533.99
475.112	3573.08
475.484	3624.16
475.855	3674.78
476.227	3714.78
476.598	3836.35
476.97	3894.88
477.341	3932.4
477.713	4026.18
478.084	4028.21
478.455	4131.94
478.827	4148.21
479.198	4288.32
479.569	4296
479.94	4434.08
480.311	4440.18
480.682	4569.22
481.053	4645.6
481.424	4770.79
481.795	4738.93
482.166	4822.32
482.537	4949.54
482.908	5005.14
483.279	5096.43
483.65	5197.45
484.021	5319.48
484.391	5392.25
484.762	5487.61
485.133	5506.82
485.503	5590.21
485.874	5742.74
486.244	5839.01
486.615	5921.95
486.985	5987.71
487.356	6130.76
487.726	6234.93
488.097	6395.61
488.467	6394.03
488.837	6564.64
489.207	6657.07
489.578	6803.28
489.948	6868.36
490.318	6994.69
490.688	7087.57
491.058	7246.89
491.428	7293.66
491.798	7481.68
492.168	7558.97
492.538	7698.17
492.908	7786.08
493.278	7894.33
493.648	7997.15
494.017	8199.86
494.387	8329.34
494.757	8372.28
495.126	8501.09
495.496	8588.09
495.866	8786.05
496.235	8904.02
496.605	9008.42
496.974	9023.34
497.344	9180.62
497.713	9324.35
498.082	9447.96
498.452	9532.02
498.821	9665.81
499.19	9769.98
499.559	9975.18
499.928	9943.31
500.298	10179.01
500.667	10271.44
501.036	10315.96
501.405	10482.96
501.774	10552.79
502.143	10757.08
502.512	10813.12
502.88	10917.75
503.249	10999.78
503.618	11146.22
503.987	11247.46
504.356	11370.39
504.724	11517.96
505.093	11584.85
505.462	11729.93
505.83	11863.71
506.199	12018.06
506.567	12151.84
506.936	12257.15
507.304	12465.96
507.672	12538.72
508.041	12613.98
508.409	12763.12
508.777	12889.9
509.145	13051.7
509.514	13015.55
509.882	13130.35
510.25	13291.92
510.618	13467.97
510.986	13475.65
511.354	13564.01
511.722	13847.39
512.09	13956.99
512.458	13879.93
512.826	14128.29
513.193	14143.65
513.561	14251.22
513.929	14380.71
514.297	14571.21
514.664	14579.35
515.032	14737.54
515.4	14860.24
515.767	15011.65
516.135	15095.04
516.502	15100.46
516.869	15408.03
517.237	15457.07
517.604	15363.51
517.972	15666.55
518.339	15728.7
518.706	15780.45
519.073	15903.83
519.44	16062.02
519.808	16286.42
520.175	16414.1
520.542	16556.47
520.909	16572.97
521.276	16670.82
521.643	16855.9
522.009	16970.7
522.376	17202.78
522.743	17300.41
523.11	17486.84
523.477	17638.25
523.843	17785.59
524.21	17995.08
524.577	18085.7
524.943	18266.26
525.31	18320.49
525.676	18560.03
526.043	18665.79
526.409	18721.39
526.776	18980.14
527.142	19067.59
527.508	19151.43
527.874	19361.6
528.241	19457.19
528.607	19602.72
528.973	19866.67
529.339	19823.28
529.705	20037.74
530.071	20151.41
530.437	20277.05
530.803	20571.06
531.169	20574.44
531.535	20587.33
531.901	20807.89
532.267	20829.13
532.632	21070.7
532.998	21183.92
533.364	21304.82
533.73	21329.45
534.095	21606.73
534.461	21620.29
534.826	21714.08
535.192	21797.46
535.557	22001.98
535.923	22027.97
536.288	22091.24
536.653	22288.52
537.019	22297.11
537.384	22476.32
537.749	22496.43
538.114	22561.29
538.479	22545.01
538.845	22605.58
539.21	22682.86
539.575	22839.92
539.94	22930.99
540.305	22973.25
540.67	23090.31
541.034	23141.61
541.399	23175.28
541.764	23308.16
542.129	23444.2
542.494	23481.04
542.858	23674.02
543.223	23541.6
543.587	23711.31
543.952	23731.65
544.316	23919.89
544.681	23860.23
545.045	23953.57
545.41	24143.16
545.774	24013.45
546.138	24116.27
546.503	24163.96
546.867	24356.72
547.231	24484.85
547.595	24450.73
547.959	24612.76
548.324	24552.87
548.688	24644.39
549.052	24798.97
549.416	24653.43
549.779	24909.25
550.143	24837.61
550.507	24933.43
550.871	25133.65
551.235	25005.29
551.599	25281.89
551.962	25293.64
552.326	25344.94
552.689	25430.14
553.053	25413.19
553.417	25455.67
553.78	25874.64
554.143	25781.99
554.507	25902.21
554.87	26024.02
555.234	26121.64
555.597	26042.55
555.96	26198.93
556.323	26299.27
556.686	26288.42
557.05	26518.24
557.413	26508.53
557.776	26563.44
558.139	26857.44
558.502	26870.1
558.865	26846.6
559.228	27203.42
559.59	27106.25
559.953	27231.44
560.316	27424.66
560.679	27400.03
561.041	27614.03
561.404	27749.4
561.767	27887.02
562.129	27761.15
562.492	28164.75
562.854	28216.96
563.217	28235.49
563.579	28274.81
563.941	28532.2
564.304	28569.71
564.666	28854.45
565.028	28897.62
565.39	28873.44
565.753	29249.25
566.115	29178.74
566.477	29407.21
566.839	29563.81
567.201	29893.75
567.563	29725.16
567.925	29850.81
568.287	30095.32
568.648	30184.59
569.01	30367.41
569.372	30646.27
569.734	30591.13
570.095	30840.16
570.457	31054.62
570.819	31103.43
571.18	31168.29
571.542	31492.35
571.903	31488.73
572.265	31642.4
572.626	31901.83
572.987	32017.53
573.349	32254.59
573.71	32304.53
574.071	32552.44
574.432	32670.4
574.794	32912.65
575.155	32928.92
575.516	33091.4
575.877	33244.39
576.238	33345.18
576.599	33575.91
576.96	33754.21
577.32	33890.7
577.681	34082.56
578.042	34388.32
578.403	34450.46
578.763	34732.04
579.124	34755.31
579.485	35225.13
579.845	35362.53
580.206	35396.2
580.566	35391.23
580.927	35699.92
581.287	36044.55
581.648	36059.69
582.008	36496.96
582.368	36654.02
582.728	36870.29
583.089	36999.32
583.449	37295.14
583.809	37532.64
584.169	37787.1
584.529	37935.8
584.889	38493.52
585.249	38488.1
585.609	38546.85
585.969	39064.81
586.329	39274.29
586.688	39714.28
587.048	39950.66
587.408	40296.86
587.768	40450.53
588.127	40977.98
588.487	41190.17
588.846	41558.98
589.206	41589.26
589.565	42022.47
589.925	42585.39
590.284	42978.15
590.643	43191.93
591.003	43564.35
591.362	44112.58
591.721	44272.13
592.08	44637.54
592.44	45296.28
592.799	45364.3
593.158	45763.39
593.517	46042.7
593.876	46538.06
594.235	46740.76
594.593	47107.08
594.952	47455.55
595.311	47727.86
595.67	48166.94
596.029	48594.95
596.387	48844.66
596.746	49282.16
597.104	49387.02
597.463	49694.81
597.822	50109.04
598.18	50279.88
598.538	50551.28
598.897	51036.02
599.255	51009.35
599.613	51630.8
599.972	51633.74
600.33	51938.14
600.688	52212.71
601.046	52388.75
601.404	52889.75
601.762	52929.75
602.12	53335.84
602.478	53469.85
602.836	53623.07
603.194	53720.24
603.552	53964.75
603.91	54148.25
604.268	54545.53
604.625	54565.19
604.983	54912.3
605.341	54889.93
605.698	55212.86
606.056	55560.87
606.413	55502.79
606.771	55878.83
607.128	55956.57
607.485	56073.85
607.843	56186.39
608.2	56457.8
608.557	56669.54
608.914	56712.93
609.272	56943.43
609.629	57135.52
609.986	57361.95
610.343	57342.52
610.7	57694.82
611.057	57778.66
611.414	57700.7
611.771	57937.08
612.127	58144.08
612.484	58181.82
612.841	58450.29
613.198	58409.38
613.554	58452.32
613.911	58778.19
614.267	58817.06
614.624	58896.38
614.98	59005.3
615.337	59255.24
615.693	59298.17
616.05	59372.52
616.406	59482.8
616.762	59595.79
617.118	59718.5
617.475	59690.25
617.831	59885.95
618.187	59945.16
618.543	60093.63
618.899	60211.82
619.255	60233.29
619.611	60229
619.967	60396.9
620.323	60480.97
620.678	60527.07
621.034	60481.64
621.39	60574.07
621.746	60601.64
622.101	60890.67
622.457	60690.68
622.812	60857
623.168	60961.41
623.523	60972.93
623.879	61079.37
624.234	60984.46
624.589	61057.22
624.945	61111.46
625.3	61184.9
625.655	61221.06
626.01	61241.62
626.365	61309.87
626.72	61313.26
627.075	61314.84
627.43	61332.92
627.785	61405.69
628.14	61388.74
628.495	61379.02
628.85	61475.74
629.205	61433.94
629.559	61529.75
629.914	61480.49
630.269	61483.2
630.623	61380.6
630.978	61380.38
631.332	61536.76
631.687	61546.47
632.041	61451.11
632.396	61546.25
632.75	61418.57
633.104	61484.33
633.459	61396.2
633.813	61449.3
634.167	61431.45
634.521	61446.14
634.875	61395.52
635.229	61356.65
635.583	61298.57
635.937	61316.65
636.291	61301.06
636.645	61322.3
636.999	61225.58
637.352	61345.58
637.706	61173.83
638.06	61320.94
638.413	61216.54
638.767	61163.89
639.121	61146.71
639.474	61092.25
639.828	61096.09
640.181	61049.31
640.534	61184.9
640.888	61054.96
641.241	60944.46
641.594	61018.58
641.947	61120.27
642.301	60969.54
642.654	61011.35
643.007	60912.14
643.36	60981.29
643.713	60918.02
644.066	60983.78
644.419	60840.73
644.771	60629.66
645.124	60292.5
645.477	60406.39
645.83	60205.49
646.182	60228.77
646.535	60139.05
646.888	60204.36
647.24	60178.38
647.593	60276.9
647.945	60266.73
648.298	60144.93
648.65	60033.75
649.002	59923.47
649.355	59979.06
649.707	59890.7
650.059	59853.19
650.411	60243.46
650.763	60267.19
651.115	60624.92
651.467	60431.7
651.819	60464.24
652.171	60482.55
652.523	60373.17
652.875	60424.02
653.227	60279.16
653.578	60460.18
653.93	60374.53
654.282	60218.83
654.633	60237.36
654.985	60302.44
655.337	60276
655.688	60200.97
656.039	60287.75
656.391	60070.36
656.742	60119.85
657.094	60123.24
657.445	60144.25
657.796	60142.9
658.147	60040.07
658.498	60106.06
658.849	60151.03
659.2	60024.03
659.551	59967.76
659.902	60099.28
660.253	59945.39
660.604	60093.86
660.955	59880.53
661.306	60013.63
661.656	59915.56
662.007	59937.7
662.358	60012.96
662.708	59996.46
663.059	59892.06
663.409	59824.71
663.76	59934.99
664.11	59894.54
664.461	59898.83
664.811	59935.67
665.161	59893.86
665.511	59762.12
665.862	59842.11
666.212	59865.84
666.562	59815.45
666.912	59837.82
667.262	59732.74
667.612	59787.2
667.962	59829.91
668.312	59777.93
668.662	59898.16
669.011	59836.24
669.361	59812.06
669.711	59826.52
670.06	59729.35
670.41	59728.67
670.76	59685.73
671.109	59765.5
671.459	59699.74
671.808	59665.17
672.157	59752.17
672.507	59603.25
672.856	59588.33
673.205	59662.91
673.554	59652.29
673.904	59579.52
674.253	59793.75
674.602	59683.25
674.951	59325.29
675.3	59189.25
675.649	59623.59
675.998	59633.3
676.346	59578.84
676.695	59622.01
677.044	59418.4
677.393	59557.15
677.741	59619.07
678.09	59539.52
678.438	59391.73
678.787	59457.94
679.135	59496.81
679.484	59365.52
679.832	59466.76
680.181	59385.4
680.529	59414.1
680.877	59321.22
681.225	59294.56
681.573	59502.46
681.922	59307.66
682.27	59287.78
682.618	59266.08
682.966	59224.05
683.314	59289.36
683.661	59175.24
684.009	59100.44
684.357	58996.71
684.705	59023.38
685.053	59078.74
685.4	58963.72
685.748	58918.75
686.095	58942.25
686.443	58815.02
686.79	58795.59
687.138	58903.83
687.485	58859.77
687.832	58753.1
688.18	58786.1
688.527	58665.65
688.874	58657.06
689.221	58688.47
689.568	58519.21
689.915	58584.74
690.262	58539.1
690.609	58492.09
690.956	58433.11
691.303	58485.31
691.65	58313.34
691.997	58278.09
692.344	58156.28
692.69	58142.72
693.037	58205.09
693.383	57940.92
693.73	58028.38
694.077	57906.34
694.423	57887.14
694.769	57851.2
695.116	57797.42
695.462	57740.47
695.808	57714.94
696.155	57648.05
696.501	57485.79
696.847	57619.35
697.193	57394.27
697.539	57418.67
697.885	57335.74
698.231	57196.31
698.577	57323.08
698.923	57208.96
699.269	56978.69
699.614	56898.01
699.96	56902.53
700.306	56902.76
700.651	56876.99
700.997	56767.62
701.342	56743.89
701.688	56642.2
702.033	56535.08
702.379	56564.46
702.724	56471.81
703.069	56567.4
703.415	56180.06
703.76	56237.91
704.105	56200.4
704.45	56087.86
704.795	56056.22
705.14	55917.47
705.485	55983.01
705.83	55757.7
706.175	55947.3
706.52	55800.41
706.865	55653.97
707.209	55638.61
707.554	55459.4
707.899	55534.88
708.243	55419.86
708.588	55408.56
708.932	55188.45
709.277	55289.24
709.621	55123.82
709.966	54962.24
710.31	55007.44
710.654	54896.93
710.998	54908.23
711.342	54987.33
711.687	54863.71
712.031	54679.31
712.375	54556.38
712.719	54634.57
713.063	54504.85
713.407	54605.87
713.75	54427.57
714.094	54406.32
714.438	54244.29
714.782	54315.93
715.125	54178.31
715.469	54330.17
715.812	53965.66
716.156	53973.57
716.499	53914.81
716.843	54009.5
717.186	53890.63
717.53	54059.44
717.873	53984.41
718.216	53778.54
718.559	53703.29
718.902	53429.4
719.246	53553.24
719.589	53512.56
719.932	53370.19
720.275	53373.58
720.617	53411.55
720.96	53273.47
721.303	53239.8
721.646	53361.83
721.989	53021.05
722.331	53146.24
722.674	53173.14
723.016	53050.43
723.359	52951.9
723.701	53016.08
724.044	52910.32
724.386	52745.35
724.729	52784.9
725.071	52732.7
725.413	52662.87
725.755	52673.49
726.097	52507.16
726.439	52449.31
726.782	52445.92
727.124	52651.79
727.465	52475.08
727.807	52292.25
728.149	52341.97
728.491	52256.78
728.833	52229.21
729.175	52086.38
729.516	52172.94
729.858	52083.22
730.199	52172.03
730.541	52038.48
730.882	51917.8
731.224	51876.9
731.565	51794.41
731.906	51979.72
732.248	51843
732.589	51749.22
732.93	51606.17
733.271	51693.4
733.612	51658.37
733.953	51749.9
734.294	51592.16
734.635	51434.2
734.976	51582.9
735.317	51505.61
735.658	51397.82
735.999	51266.07
736.339	51289.8
736.68	51404.59
737.021	51305.16
737.361	51083.47
737.702	51381.09
738.042	51199.4
738.383	51215.45
738.723	51217.25
739.063	50992.63
739.404	51164.83
739.744	51036.92
740.084	50957.37
740.424	50945.85
740.764	50913.53
741.104	51026.53
741.444	50774.33
741.784	50635.12
742.124	50832.63
742.464	50660.66
742.804	50582.92
743.143	50525.97
743.483	50688.46
743.823	50394.45
744.162	50461.57
744.502	50406.65
744.841	50301.35
745.181	50593.99
745.52	50241.91
745.86	50308.35
746.199	50290.05
746.538	50083.5
746.877	50166.44
747.216	50195.81
747.556	50064.29
747.895	50001.69
748.234	49899.78
748.573	49954.01
748.911	49867.91
749.25	49767.35
749.589	49596.05
749.928	49801.47
750.267	49652.78
750.605	49580.46
750.944	49535.27
751.283	49445.1
751.621	49579.11
751.96	49334.14
752.298	49268.38
752.636	49350.64
752.975	49149.29
753.313	49076.07
753.651	49174.14
753.989	48896.64
754.327	48986.81
754.666	48767.83
755.004	48906.13
