Data from 15-1247_FLMS001491_009.txt Node
Date: Thu Apr 19 16:10:40 BST 2018
User: hsy
Spectrometer: FLMS00149
Trigger mode: 0
Integration Time (sec): 1.000000E-2
Scans to average: 10
Electric dark correction enabled: true
Nonlinearity correction enabled: false
Boxcar width: 0
XAxis mode: Wavelengths
Number of Pixels in Spectrum: 2048
>>>>>Begin Spectral Data<<<<<
341.393	-16.71
341.776	-16.71
342.16	-16.71
342.543	-58.06
342.927	-52.64
343.31	-62.58
343.693	-60.78
344.077	-72.75
344.46	-55.35
344.843	-37.95
345.226	-58.74
345.61	-28.46
345.993	-25.75
346.376	-7.44
346.759	15.38
347.142	25.78
347.525	30.07
347.908	51.76
348.291	84.76
348.674	90.18
349.057	111.88
349.44	109.84
349.823	145.32
350.206	188.94
350.588	247.92
350.971	245.66
351.354	266.22
351.737	255.15
352.119	299.67
352.502	311.19
352.884	334.92
353.267	308.93
353.65	337.63
354.032	337.86
354.414	341.25
354.797	365.43
355.179	376.05
355.562	356.16
355.944	352.55
356.326	383.96
356.709	382.15
357.091	361.13
357.473	367.91
357.855	355.49
358.238	404.52
358.62	413.34
359.002	396.16
359.384	388.25
359.766	364.3
360.148	379.21
360.53	393.9
360.912	369.95
361.294	369.04
361.676	368.59
362.057	362.72
362.439	390.74
362.821	401.59
363.203	373.56
363.584	385.31
363.966	385.09
364.348	384.41
364.729	396.16
365.111	372.21
365.493	380.57
365.874	355.03
366.256	363.85
366.637	382.83
367.019	352.77
367.4	372.89
367.781	393.22
368.163	367.69
368.544	370.85
368.925	384.86
369.306	370.4
369.688	363.62
370.069	350.29
370.45	395.48
370.831	383.73
371.212	385.54
371.593	387.35
371.974	369.72
372.355	375.37
372.736	385.99
373.117	399.55
373.498	361.36
373.879	402.49
374.26	378.76
374.641	383.96
375.021	377.41
375.402	409.49
375.783	386.44
376.163	409.49
376.544	416.27
376.925	388.03
377.305	404.75
377.686	402.26
378.066	392.77
378.447	412.88
378.827	400.23
379.208	404.75
379.588	413.11
379.968	412.21
380.349	409.49
380.729	408.82
381.109	434.8
381.489	417.18
381.87	409.04
382.25	433.68
382.63	439.78
383.01	417.63
383.39	443.17
383.77	452.43
384.15	436.39
384.53	434.35
384.91	444.75
385.29	448.14
385.67	452.66
386.049	456.5
386.429	443.17
386.809	471.41
387.189	458.99
387.568	472.09
387.948	459.89
388.328	463.96
388.707	470.74
389.087	484.3
389.466	487.23
389.846	479.55
390.225	505.99
390.605	479.78
390.984	490.85
391.363	480.45
391.743	492.66
392.122	495.37
392.501	500.57
392.881	507.8
393.26	521.13
393.639	519.32
394.018	511.87
394.397	509.38
394.776	503.5
395.155	538.08
395.534	519.55
395.913	516.16
396.292	520
396.671	543.73
397.05	544.63
397.429	534.24
397.808	536.27
398.186	542.6
398.565	539.66
398.944	556.16
399.323	562.71
399.701	545.31
400.08	554.35
400.458	588.93
400.837	576.5
401.215	585.54
401.594	560.9
401.972	598.64
402.351	582.6
402.729	606.55
403.107	591.19
403.486	604.74
403.864	585.08
404.242	638.19
404.62	603.84
404.999	604.52
405.377	630.51
405.755	632.54
406.133	622.14
406.511	618.08
406.889	652.65
407.267	658.98
407.645	654.23
408.023	659.21
408.401	667.12
408.779	662.6
409.156	695.14
409.534	687.91
409.912	692.88
410.29	715.02
410.667	717.51
411.045	717.74
411.422	715.25
411.8	734.91
412.178	730.62
412.555	750.73
412.933	751.63
413.31	769.71
413.687	766.55
414.065	769.94
414.442	792.31
414.819	770.84
415.197	795.7
415.574	818.3
415.951	826.66
416.328	803.38
416.705	801.35
417.082	851.29
417.46	824.63
417.837	823.5
418.214	863.27
418.591	857.84
418.967	836.83
419.344	883.15
419.721	858.52
420.098	904.62
420.475	891.06
420.852	908.24
421.228	884.96
421.605	889.26
421.982	905.75
422.358	943.94
422.735	935.58
423.111	937.16
423.488	918.86
423.864	946.66
424.241	999.99
424.617	936.94
424.994	971.97
425.37	995.47
425.746	986.2
426.123	1003.83
426.499	969.25
426.875	1016.26
427.251	1023.49
427.627	1057.61
428.003	1046.99
428.379	1060.33
428.756	1055.58
429.132	1058.97
429.507	1096.71
429.883	1126.76
430.259	1130.15
430.635	1130.15
431.011	1115.24
431.387	1150.94
431.763	1162.7
432.138	1167.67
432.514	1192.3
432.89	1197.27
433.265	1199.08
433.641	1234.33
434.016	1272.3
434.392	1290.15
434.767	1242.02
435.143	1242.69
435.518	1265.74
435.894	1296.03
436.269	1316.14
436.644	1343.48
437.02	1307.78
437.395	1351.62
437.77	1332.18
438.145	1376.48
438.52	1366.98
438.895	1413.76
439.271	1375.12
439.646	1437.72
440.021	1439.98
440.395	1443.14
440.77	1421.67
441.145	1450.15
441.52	1447.43
441.895	1468.45
442.27	1459.41
442.645	1460.09
443.019	1467.55
443.394	1500.77
443.769	1515.45
444.143	1501.67
444.518	1544.15
444.892	1506.87
445.267	1515.91
445.641	1541.44
446.016	1567.88
446.39	1576.92
446.764	1542.57
447.139	1588.45
447.513	1583.7
447.887	1606.98
448.262	1618.95
448.636	1627.32
449.01	1610.14
449.384	1633.64
449.758	1649.46
450.132	1682.46
450.506	1710.93
450.88	1710.25
451.254	1680.42
451.628	1700.08
452.002	1710.48
452.376	1764.26
452.75	1763.58
453.123	1791.61
453.497	1789.12
453.871	1822.34
454.244	1910.02
454.618	1844.94
454.992	1871.38
455.365	1911.6
455.739	1947.99
456.112	1950.02
456.486	1971.26
456.859	1961.77
457.232	2023.92
457.606	2038.6
457.979	2070.47
458.352	2093.52
458.725	2125.61
459.099	2139.84
459.472	2138.94
459.845	2189.79
460.218	2222.55
460.591	2188.21
460.964	2242.89
461.337	2281.31
461.71	2313.63
462.083	2332.16
462.456	2348.43
462.829	2359.95
463.201	2436.79
463.574	2380.29
463.947	2468.2
464.32	2506.16
464.692	2494.86
465.065	2517.24
465.438	2559.72
465.81	2572.15
466.183	2591.36
466.555	2643.11
466.928	2666.84
467.3	2685.82
467.672	2709.32
468.045	2752.03
468.417	2790.9
468.789	2747.96
469.161	2844.01
469.534	2838.81
469.906	2886.94
470.278	2942.99
470.65	2948.41
471.022	3001.29
471.394	3084.9
471.766	3081.74
472.138	3127.39
472.51	3195.18
472.882	3202.42
473.253	3214.17
473.625	3304.56
473.997	3331.45
474.369	3355.41
474.74	3393.6
475.112	3427.49
475.484	3543.88
475.855	3577.55
476.227	3602.41
476.598	3694.61
476.97	3758.79
477.341	3822.96
477.713	3868.84
478.084	3890.31
478.455	3991.77
478.827	4042.62
479.198	4167.14
479.569	4151.77
479.94	4309.51
480.311	4301.37
480.682	4422.5
481.053	4528.71
481.424	4610.51
481.795	4626.33
482.166	4698.87
482.537	4749.95
482.908	4861.81
483.279	4948.81
483.65	5010.05
484.021	5156.94
484.391	5243.72
484.762	5315.81
485.133	5368.91
485.503	5438.97
485.874	5570.72
486.244	5581.34
486.615	5722.58
486.985	5798.96
487.356	5906.98
487.726	6014.32
488.097	6159.17
488.467	6220.87
488.837	6321.2
489.207	6426.51
489.578	6562.55
489.948	6676.9
490.318	6798.25
490.688	6840.74
491.058	7013.62
491.428	7052.48
491.798	7217.68
492.168	7346.26
492.538	7448.63
492.908	7552.13
493.278	7693.82
493.648	7821.73
494.017	7925.23
494.387	8062.18
494.757	8122.96
495.126	8219.91
495.496	8359.79
495.866	8475.05
496.235	8559.79
496.605	8678.43
496.974	8735.15
497.344	9005.65
497.713	9014.01
498.082	9110.28
498.452	9337.85
498.821	9373.1
499.19	9386.43
499.559	9549.82
499.928	9617.84
500.298	9842.02
500.667	9969.7
501.036	10050.37
501.405	10102.8
501.774	10247.2
502.143	10296.47
502.512	10466.63
502.88	10579.4
503.249	10659.17
503.618	10730.81
503.987	10833.63
504.356	11034.3
504.724	11080.85
505.093	11190.45
505.462	11333.28
505.83	11416.44
506.199	11589.77
506.567	11689.2
506.936	11778.46
507.304	12012.35
507.672	12104.55
508.041	12089.41
508.409	12272.69
508.777	12420.03
509.145	12504.09
509.514	12587.71
509.882	12694.37
510.25	12818.89
510.618	12904.53
510.986	12947.02
511.354	13100.91
511.722	13241.47
512.09	13379.78
512.458	13403.96
512.826	13557.85
513.193	13613.44
513.561	13762.59
513.929	13876.94
514.297	13977.73
514.664	14068.12
515.032	14228.79
515.4	14404.16
515.767	14445.74
516.135	14534.77
516.502	14432.63
516.869	14771.15
517.237	14785.84
517.604	14766.63
517.972	15005.27
518.339	15129.33
518.706	15246.17
519.073	15318.93
519.44	15392.6
519.808	15669.88
520.175	15683.44
520.542	15837.56
520.909	15964.79
521.276	16033.94
521.643	16294.5
522.009	16275.29
522.376	16407.72
522.743	16591.22
523.11	16767.71
523.477	16869.4
523.843	17055.61
524.21	17270.97
524.577	17344.19
524.943	17466.67
525.31	17537.41
525.676	17724.75
526.043	17910.96
526.409	17978.3
526.776	18253.55
527.142	18256.71
527.508	18451.28
527.874	18628.9
528.241	18705.74
528.607	18782.57
528.973	19079.51
529.339	19066.86
529.705	19303.01
530.071	19463.91
530.437	19608.54
530.803	19698.25
531.169	19857.35
531.535	19761.98
531.901	19858.25
532.267	20125.36
532.632	20321.06
532.998	20316.99
533.364	20447.16
533.73	20439.25
534.095	20729.41
534.461	20765.34
534.826	20884.89
535.192	21005.11
535.557	21337.98
535.923	21125.56
536.288	21215.5
536.653	21359
537.019	21330.53
537.384	21509.51
537.749	21615.94
538.114	21770.52
538.479	21761.48
538.845	21858.2
539.21	21846.9
539.575	21911.53
539.94	21987.68
540.305	22136.38
540.67	22197.85
541.034	22317.17
541.399	22318.52
541.764	22383.83
542.129	22556.48
542.494	22567.56
542.858	22629.93
543.223	22658.85
543.587	22792.18
543.952	22772.97
544.316	22761.68
544.681	22892.29
545.045	23100.65
545.41	23180.2
545.774	23119.18
546.138	23186.98
546.503	23282.79
546.867	23321.43
547.231	23423.58
547.595	23485.95
547.959	23506.06
548.324	23590.58
548.688	23621.31
549.052	23814.08
549.416	23680.75
549.779	23799.39
550.143	23851.82
550.507	23961.42
550.871	24137.46
551.235	23977.91
551.599	24247.96
551.962	24408.64
552.326	24349.43
552.689	24477.34
553.053	24271.01
553.417	24457.68
553.78	24693.6
554.143	24658.8
554.507	24680.5
554.87	24899.92
555.234	25027.38
555.597	24913.94
555.96	25107.83
556.323	25226.24
556.686	25258.79
557.05	25418.33
557.413	25419.23
557.776	25619.68
558.139	25733.8
558.502	25816.28
558.865	25841.14
559.228	25940.57
559.59	26080.68
559.953	26184.18
560.316	26462.14
560.679	26464.63
561.041	26574.46
561.404	26706.88
561.767	26782.36
562.129	26884.28
562.492	27103.48
562.854	27086.99
563.217	27077.95
563.579	27267.77
563.941	27492.17
564.304	27542.34
564.666	27797.25
565.028	27784.59
565.39	27888.55
565.753	28107.07
566.115	28068.43
566.477	28251.7
566.839	28372.6
567.201	28616.44
567.563	28562.43
567.925	28798.8
568.287	28942.08
568.648	28989.76
569.01	29091.9
569.372	29566.02
569.734	29359.69
570.095	29659.12
570.457	29857.53
570.819	29910.64
571.18	30003.52
571.542	30217.75
571.903	30320.35
572.265	30625.42
572.626	30723.05
572.987	30702.48
573.349	31086.2
573.71	31101.8
574.071	31311.28
574.432	31456.59
574.794	31823.58
575.155	31882.79
575.516	31778.84
575.877	32042.56
576.238	32086.63
576.599	32340.18
576.96	32464.47
577.32	32601.87
577.681	32798.02
578.042	33170.67
578.403	33237.11
578.763	33231.23
579.124	33507.83
579.485	33899.24
579.845	34087.03
580.206	34222.39
580.566	34180.36
580.927	34473.01
581.287	34754.58
581.648	34805.88
582.008	35173.78
582.368	35343.04
582.728	35507.33
583.089	35738.06
583.449	35966.53
583.809	36175.56
584.169	36585.27
584.529	36591.14
584.889	37241.29
585.249	37133.05
585.609	37246.94
585.969	37822.52
586.329	37994.72
586.688	38331.89
587.048	38620.92
587.408	38887.58
587.768	39137.29
588.127	39463.38
588.487	39641.91
588.846	40326.64
589.206	40330.93
589.565	40726.63
589.925	41327.97
590.284	41626.49
590.643	41830.33
591.003	42281.16
591.362	42768.83
591.721	43145.32
592.08	43201.82
592.44	43882.7
592.799	44172.86
593.158	44487.88
593.517	44761.78
593.876	45217.36
594.235	45461.64
594.593	45787.06
594.952	46210.1
595.311	46418
595.67	46867.03
596.029	47332.55
596.387	47725.76
596.746	48115.59
597.104	48150.84
597.463	48525.29
597.822	48885.73
598.18	49199.85
598.538	49371.37
598.897	49923.22
599.255	49887.74
599.613	50582.41
599.972	50652.69
600.33	50890.65
600.688	51153.25
601.046	51373.8
601.404	51816.96
601.762	51990.06
602.12	52362.71
602.478	52457.17
602.836	52828.68
603.194	52813.99
603.552	53080.88
603.91	53179.41
604.268	53475.44
604.625	53681.54
604.983	53965.37
605.341	53933.06
605.698	54348.42
606.056	54633.15
606.413	54548.18
606.771	54914.5
607.128	55046.25
607.485	55080.37
607.843	55293.02
608.2	55583.19
608.557	55790.64
608.914	55805.33
609.272	56060.24
609.629	56291.64
609.986	56467.68
610.343	56495.03
610.7	56855.69
611.057	56885.52
611.414	56962.13
611.771	57181.79
612.127	57266.53
612.484	57400.09
612.841	57680.76
613.198	57577.03
613.554	57736.12
613.911	57892.5
614.267	58054.98
614.624	58090.46
614.98	58232.16
615.337	58464.69
615.693	58532.94
616.05	58595.54
616.406	58741.75
616.762	58736.32
617.118	58881.4
617.475	58858.35
617.831	59063.55
618.187	59152.36
618.543	59211.11
618.899	59369.53
619.255	59416.98
619.611	59451.33
619.967	59624.21
620.323	59760.7
620.678	59677.99
621.034	59701.04
621.39	59740.59
621.746	59797.09
622.101	60078.21
622.457	59842.51
622.812	60133.35
623.168	60128.38
623.523	60154.36
623.879	60264.19
624.234	60202.72
624.589	60295.38
624.945	60328.15
625.3	60351.42
625.655	60420.57
626.01	60400.01
626.365	60547.35
626.72	60483.85
627.075	60507.12
627.43	60559.1
627.785	60569.95
628.14	60585.77
628.495	60636.39
628.85	60691.3
629.205	60644.52
629.559	60763.84
629.914	60609.72
630.269	60696.95
630.623	60607.23
630.978	60622.15
631.332	60731.52
631.687	60783.27
632.041	60684.29
632.396	60751.41
632.75	60715.93
633.104	60719.32
633.459	60593.68
633.813	60663.28
634.167	60591.19
634.521	60673.67
634.875	60685.88
635.229	60607.69
635.583	60518.87
635.937	60556.16
636.291	60569.72
636.645	60575.82
636.999	60489.72
637.352	60586.9
637.706	60395.49
638.06	60515.49
638.413	60388.71
638.767	60345.32
639.121	60450.18
639.474	60336.28
639.828	60394.58
640.181	60284.53
640.534	60383.51
640.888	60317.3
641.241	60245.21
641.594	60249.05
641.947	60368.82
642.301	60224.87
642.654	60238.88
643.007	60212.44
643.36	60204.31
643.713	60186.91
644.066	60228.94
644.419	60091.99
644.771	59855.16
645.124	59617.43
645.477	59656.3
645.83	59521.16
646.182	59513.25
646.535	59424.44
646.888	59448.62
647.24	59395.97
647.593	59439.36
647.945	59418.79
648.298	59339.24
648.65	59206.14
649.002	59109.87
649.355	59061.74
649.707	59018.58
650.059	59065.13
650.411	59374.05
650.763	59469.64
651.115	59806.58
651.467	59729.97
651.819	59732.45
652.171	59628.5
652.523	59609.75
652.875	59611.55
653.227	59475.96
653.578	59687.94
653.93	59633.47
654.282	59501.73
654.633	59505.12
654.985	59538.11
655.337	59496.75
655.688	59480.03
656.039	59520.03
656.391	59309.19
656.742	59360.49
657.094	59359.81
657.445	59386.02
657.796	59352.13
658.147	59289.3
658.498	59305.12
658.849	59391.67
659.2	59301.73
659.551	59220.38
659.902	59287.49
660.253	59188.51
660.604	59379.02
660.955	59119.59
661.306	59274.84
661.656	59105.13
662.007	59179.48
662.358	59203.2
662.708	59143.32
663.059	59151
663.409	59029.65
663.76	59092.25
664.11	59127.95
664.461	59148.97
664.811	59135.41
665.161	59115.75
665.511	59040.5
665.862	59026.71
666.212	59122.53
666.562	59115.97
666.912	59038.24
667.262	58956.88
667.612	59021.06
667.962	59075.75
668.312	58948.07
668.662	59069.42
669.011	59067.39
669.361	59022.19
669.711	59076.2
670.06	59004.79
670.41	58941.52
670.76	58901.06
671.109	59027.16
671.459	58959.82
671.808	58922.31
672.157	59000.95
672.507	58784.23
672.856	58789.88
673.205	58873.95
673.554	59001.17
673.904	58799.37
674.253	58977.9
674.602	58795.98
674.951	58537.01
675.3	58362.32
675.649	58832.37
675.998	58781.97
676.346	58794.85
676.695	58848.41
677.044	58700.84
677.393	58733.84
677.741	58777.45
678.09	58774.29
678.438	58632.82
678.787	58753.95
679.135	58720.5
679.484	58626.27
679.832	58658.81
680.181	58594.86
680.529	58524.58
680.877	58509.66
681.225	58500.17
681.573	58712.14
681.922	58554.41
682.27	58398.93
682.618	58397.8
682.966	58441.87
683.314	58438.48
683.661	58384.47
684.009	58321.64
684.357	58196.68
684.705	58236.9
685.053	58326.16
685.4	58125.04
685.748	58135.21
686.095	58078.71
686.443	58012.95
686.79	58024.25
687.138	58105.38
687.485	58030.35
687.832	57922.56
688.18	57940.64
688.527	57857.02
688.874	57844.59
689.221	57866.52
689.568	57759.85
689.915	57635.56
690.262	57754.2
690.609	57730.47
690.956	57618.16
691.303	57598.73
691.65	57482.34
691.997	57447.09
692.344	57343.37
692.69	57320.54
693.037	57395.34
693.383	57157.83
693.73	57239.41
694.077	57094.11
694.423	57083.48
694.769	56990.15
695.116	57013.43
695.462	56950.83
695.808	56847.11
696.155	56849.37
696.501	56691.63
696.847	56829.71
697.193	56587.45
697.539	56641.01
697.885	56465.65
698.231	56396.27
698.577	56443.5
698.923	56383.16
699.269	56261.59
699.614	56128.48
699.96	56074.47
700.306	56111.08
700.651	55931.42
700.997	55964.42
701.342	55868.6
701.688	55890.3
702.033	55705.89
702.379	55799.45
702.724	55632.68
703.069	55720.36
703.415	55408.05
703.76	55423.64
704.105	55430.65
704.45	55310.88
704.795	55190.65
705.14	55126.7
705.485	55101.62
705.83	54995.18
706.175	55121.28
706.52	54927.16
706.865	54780.04
707.209	54741.63
707.554	54733.04
707.899	54707.73
708.243	54585.7
708.588	54524
708.932	54464.34
709.277	54465.93
709.621	54336.21
709.966	54201.98
710.31	54186.61
710.654	54027.52
710.998	54089.89
711.342	54076.11
711.687	53929.9
712.031	53850.35
712.375	53795.89
712.719	53647.64
713.063	53641.09
713.407	53804.93
713.75	53574.65
714.094	53522.22
714.438	53430.93
714.782	53510.92
715.125	53222.34
715.469	53310.7
715.812	53155.68
716.156	53098.5
716.499	53060.54
716.843	53044.5
717.186	52927.66
717.53	53017.6
717.873	53048.56
718.216	52937.83
718.559	52744.39
718.902	52644.73
719.246	52625.52
719.589	52439.31
719.932	52473.66
720.275	52478.86
720.617	52463.27
720.96	52361.58
721.303	52397.05
721.646	52294.68
721.989	52139.89
722.331	52186.66
722.674	52120.45
723.016	52180.34
723.359	51992.32
723.701	52054.24
724.044	51885.43
724.386	51781.7
724.729	51990.06
725.071	51844.07
725.413	51812.89
725.755	51787.35
726.097	51712.78
726.439	51519.34
726.782	51569.28
727.124	51679.56
727.465	51450.64
727.807	51433.01
728.149	51455.84
728.491	51355.05
728.833	51456.74
729.175	51365.44
729.516	51204.77
729.858	51111.66
730.199	51249.97
730.541	51167.26
730.882	51032.34
731.224	51060.14
731.565	50939.92
731.906	50933.36
732.248	50937.43
732.589	50758.68
732.93	50738.12
733.271	50633.03
733.612	50677.33
733.953	50770.43
734.294	50633.49
734.635	50405.69
734.976	50674.39
735.317	50389.88
735.658	50416.77
735.999	50229.88
736.339	50268.3
736.68	50324.57
737.021	50254.74
737.361	50058.58
737.702	50290.44
738.042	50136.55
738.383	50076.66
738.723	50183.1
739.063	49967.51
739.404	50067.4
739.744	49996.21
740.084	49983.33
740.424	49969.77
740.764	49849.32
741.104	49973.84
741.444	49703.79
741.784	49689.1
742.124	49754.19
742.464	49726.39
742.804	49553.51
743.143	49607.98
743.483	49523.46
743.823	49407.53
744.162	49382.67
744.502	49404.36
744.841	49354.2
745.181	49413.18
745.52	49069.23
745.86	49221.32
746.199	49070.59
746.538	49092.06
746.877	49206.63
747.216	49129.34
747.556	49001.66
747.895	49102.45
748.234	48877.37
748.573	48806.87
748.911	48761.44
749.25	48715.34
749.589	48668.56
749.928	48669.02
750.267	48494.56
750.605	48532.3
750.944	48459.3
751.283	48349.93
751.621	48469.93
751.96	48189.71
752.298	48191.29
752.636	48083.5
752.975	47996.27
753.313	47963.05
753.651	48044.4
753.989	47805.54
754.327	47901.35
754.666	47581.14
