Data from 15-5210_FLMS001491_003.txt Node
Date: Thu Apr 19 16:48:18 BST 2018
User: hsy
Spectrometer: FLMS00149
Trigger mode: 0
Integration Time (sec): 1.000000E-2
Scans to average: 10
Electric dark correction enabled: true
Nonlinearity correction enabled: false
Boxcar width: 0
XAxis mode: Wavelengths
Number of Pixels in Spectrum: 2048
>>>>>Begin Spectral Data<<<<<
341.393	-26.28
341.776	-26.28
342.16	-26.28
342.543	-68.77
342.927	-60.41
343.31	-61.99
343.693	-66.06
344.077	-62.22
344.46	-77.81
344.843	-62.89
345.226	-27.87
345.61	-33.52
345.993	-14.99
346.376	2.42
346.759	36.99
347.142	11
347.525	21.4
347.908	62.07
348.291	68.63
348.674	101.85
349.057	102.98
349.44	122.64
349.823	151.34
350.206	174.61
350.588	231.56
350.971	248.51
351.354	255.74
351.737	261.39
352.119	266.14
352.502	305.91
352.884	295.97
353.267	309.07
353.65	337.1
354.032	316.31
354.414	352.46
354.797	327.15
355.179	365.57
355.562	349.52
355.944	354.27
356.326	371.67
356.709	351.78
357.091	375.06
357.473	381.61
357.855	373.93
358.238	385.23
358.62	376.64
359.002	367.83
359.384	370.99
359.766	374.83
360.148	384.55
360.53	387.26
360.912	358.34
361.294	369.41
361.676	348.39
362.057	367.83
362.439	363.31
362.821	367.38
363.203	356.98
363.584	338.9
363.966	371.22
364.348	355.17
364.729	366.7
365.111	354.72
365.493	348.39
365.874	359.24
366.256	367.83
366.637	348.62
367.019	348.39
367.4	373.48
367.781	350.43
368.163	385
368.544	352.46
368.925	349.3
369.306	352.24
369.688	340.49
370.069	354.27
370.45	354.27
370.831	362.18
371.212	359.24
371.593	348.39
371.974	366.02
372.355	359.47
372.736	352.01
373.117	351.78
373.498	353.59
373.879	375.96
374.26	360.37
374.641	337.55
375.021	365.34
375.402	356.98
375.783	384.78
376.163	388.17
376.544	376.42
376.925	389.3
377.305	378
377.686	372.57
378.066	384.33
378.447	392.24
378.827	365.8
379.208	387.72
379.588	386.36
379.968	401.27
380.349	390.65
380.729	395.63
381.109	389.52
381.489	394.72
381.87	385.91
382.25	413.93
382.63	414.83
383.01	410.99
383.39	413.7
383.77	407.38
384.15	410.99
384.53	412.8
384.91	412.12
385.29	429.3
385.67	409.64
386.049	447.6
386.429	413.03
386.809	472.91
387.189	430.2
387.568	421.39
387.948	435.62
388.328	434.95
388.707	449.41
389.087	441.27
389.466	471.33
389.846	453.25
390.225	478.33
390.605	475.85
390.984	459.8
391.363	467.94
391.743	492.35
392.122	470.65
392.501	495.74
392.881	494.83
393.26	494.61
393.639	489.63
394.018	509.29
394.397	497.32
394.776	503.87
395.155	496.19
395.534	503.19
395.913	513.14
396.292	481.5
396.671	522.18
397.05	534.15
397.429	530.76
397.808	530.76
398.186	552.46
398.565	563.98
398.944	557.2
399.323	557.88
399.701	551.33
400.08	575.06
400.458	565.79
400.837	577.77
401.215	593.13
401.594	581.61
401.972	584.09
402.351	607.37
402.729	582.51
403.107	602.63
403.486	629.97
403.864	621.83
404.242	614.83
404.62	624.77
404.999	652.57
405.377	650.53
405.755	653.92
406.133	660.7
406.511	668.16
406.889	692.57
407.267	707.48
407.645	700.02
408.023	692.34
408.401	710.65
408.779	732.34
409.156	737.76
409.534	724.88
409.912	750.64
410.29	763.3
410.667	788.84
411.045	778.21
411.422	781.83
411.8	827.48
412.178	840.59
412.555	845.56
412.933	850.75
413.31	881.26
413.687	880.81
414.065	902.73
414.442	893.47
414.819	915.61
415.197	918.1
415.574	955.61
415.951	942.05
416.328	932.56
416.705	970.3
417.082	1015.27
417.46	993.58
417.837	991.77
418.214	1012.56
418.591	1014.82
418.967	1016.17
419.344	1010.07
419.721	1052.11
420.098	1039.22
420.475	1082.84
420.852	1081.03
421.228	1074.93
421.605	1117.64
421.982	1118.54
422.358	1122.61
422.735	1158.32
423.111	1140.69
423.488	1155.61
423.864	1184.76
424.241	1196.06
424.617	1201.71
424.994	1223.63
425.37	1234.25
425.746	1244.64
426.123	1252.1
426.499	1254.59
426.875	1302.95
427.251	1299.78
427.627	1320.35
428.003	1335.71
428.379	1337.3
428.756	1369.84
429.132	1380.23
429.507	1387.46
429.883	1431.3
430.259	1449.38
430.635	1436.5
431.011	1466.11
431.387	1509.04
431.763	1527.57
432.138	1520.57
432.514	1550.4
432.89	1578.64
433.265	1629.72
433.641	1641.24
434.016	1640.11
434.392	1665.87
434.767	1703.39
435.143	1712.88
435.518	1706.78
435.894	1770.05
436.269	1794.01
436.644	1815.47
437.02	1824.29
437.395	1826.55
437.77	1858.41
438.145	1883.27
438.52	1881.46
438.895	1938.18
439.271	1949.26
439.646	1935.7
440.021	2000.1
440.395	2009.59
440.77	1959.43
441.145	2002.14
441.52	2053.43
441.895	2044.17
442.27	2104.28
442.645	2064.51
443.019	2092.76
443.394	2098.41
443.769	2125.75
444.143	2135.24
444.518	2159.19
444.892	2161
445.267	2187.89
445.641	2199.19
446.016	2203.26
446.39	2252.75
446.764	2201.68
447.139	2260.43
447.513	2266.99
447.887	2271.06
448.262	2318.06
448.636	2321.45
449.01	2339.53
449.384	2349.47
449.758	2396.7
450.132	2436.25
450.506	2447.32
450.88	2465.63
451.254	2420.43
451.628	2478.06
452.002	2515.34
452.376	2567.55
452.75	2613.87
453.123	2581.1
453.497	2638.28
453.871	2662.68
454.244	2714.66
454.618	2715.56
454.992	2790.14
455.365	2785.62
455.739	2815.45
456.112	2869.23
456.486	2864.71
456.859	2936.58
457.232	2989
457.606	2978.61
457.979	3050.47
458.352	3095.44
458.725	3154.42
459.099	3206.4
459.472	3169.11
459.845	3263.57
460.218	3273.52
460.591	3273.74
460.964	3348.32
461.337	3373.17
461.71	3450.01
462.083	3521.19
462.456	3509.67
462.829	3546.5
463.201	3613.85
463.574	3633.73
463.947	3707.4
464.32	3714.63
464.692	3739.94
465.065	3842.09
465.438	3822.2
465.81	3867.4
466.183	3913.95
466.555	3998.69
466.928	4029.2
467.3	4054.96
467.672	4087.05
468.045	4187.62
468.417	4209.31
468.789	4203.43
469.161	4288.86
469.534	4334.5
469.906	4385.8
470.278	4381.96
470.65	4498.34
471.022	4587.61
471.394	4636.19
471.766	4693.82
472.138	4739.24
472.51	4799.35
472.882	4899.69
473.253	4915.96
473.625	4991.89
473.997	5102.62
474.369	5136.07
474.74	5182.39
475.112	5259.9
475.484	5441.14
475.855	5470.75
476.227	5529.95
476.598	5664.19
476.97	5677.29
477.341	5833
477.713	5926.55
478.084	5978.3
478.455	6130.84
478.827	6150.5
479.198	6323.6
479.569	6412.19
479.94	6555.01
480.311	6598.85
480.682	6763.14
481.053	6929.69
481.424	7026.64
481.795	7088.1
482.166	7208.78
482.537	7269.79
482.908	7489.22
483.279	7570.8
483.65	7787.3
484.021	7868.65
484.391	7956.56
484.762	8030.23
485.133	8173.27
485.503	8324.46
485.874	8547.73
486.244	8561.06
486.615	8804.22
486.985	8888.51
487.356	9063.19
487.726	9186.81
488.097	9402.62
488.467	9465.9
488.837	9607.59
489.207	9773.68
489.578	9867.01
489.948	10028.14
490.318	10211.41
490.688	10316.49
491.058	10514.68
491.428	10678.52
491.798	10771.62
492.168	10958.96
492.538	11052.52
492.908	11274.89
493.278	11429.23
493.648	11444.15
494.017	11702.22
494.387	11780.41
494.757	11995.32
495.126	12148.31
495.496	12204.35
495.866	12323
496.235	12497.91
496.605	12659.03
496.974	12759.82
497.344	12962.75
497.713	13063.77
498.082	13162.3
498.452	13269.86
498.821	13464.66
499.19	13506.24
499.559	13690.19
499.928	13834.59
500.298	13858.55
500.667	14065.77
501.036	14049.05
501.405	14262.83
501.774	14335.15
502.143	14475.25
502.512	14578.98
502.88	14736.94
503.249	14889.93
503.618	14902.14
503.987	15104.62
504.356	15226.87
504.724	15255.57
505.093	15313.2
505.462	15432.52
505.83	15587.09
506.199	15874.54
506.567	15927.87
506.936	15933.07
507.304	16228.2
507.672	16218.26
508.041	16347.3
508.409	16500.51
508.777	16597.91
509.145	16883.78
509.514	16795.19
509.882	16953.61
510.25	17006.94
510.618	17161.74
510.986	17077.45
511.354	17226.37
511.722	17510.88
512.09	17702.29
512.458	17657.54
512.826	17813.7
513.193	17891.66
513.561	17990.87
513.929	18155.61
514.297	18207.81
514.664	18310.41
515.032	18459.33
515.4	18617.97
515.767	18593.11
516.135	18764.86
516.502	18776.16
516.869	19053.89
517.237	19127.56
517.604	18988.81
517.972	19278.52
518.339	19407.55
518.706	19417.27
519.073	19507.21
519.44	19649.81
519.808	19808.9
520.175	19921.89
520.542	20068.55
520.909	20121.43
521.276	20287.76
521.643	20527.98
522.009	20467.87
522.376	20662.66
522.743	20737.92
523.11	20967.97
523.477	21172.03
523.843	21066.27
524.21	21455.18
524.577	21522.53
524.943	21544.9
525.31	21622.19
525.676	22010.88
526.043	22010.2
526.409	22039.8
526.776	22233.92
527.142	22426.46
527.508	22531.31
527.874	22648.15
528.241	22707.35
528.607	22828.48
528.973	23021.92
529.339	23027.8
529.705	23215.36
530.071	23371.74
530.437	23424.62
530.803	23567.9
531.169	23686.31
531.535	23679.76
531.901	23809.7
532.267	23776.48
532.632	23891.96
532.998	23984.38
533.364	24091.27
533.73	24080.88
534.095	24269.8
534.461	24245.62
534.826	24414.43
535.192	24514.99
535.557	24539.17
535.923	24499.85
536.288	24539.17
536.653	24642.67
537.019	24644.25
537.384	24668.66
537.749	24704.36
538.114	24625.27
538.479	24717.92
538.845	24840.41
539.21	24698.04
539.575	24953.17
539.94	24884.25
540.305	24949.56
540.67	24789.11
541.034	24880.41
541.399	24952.27
541.764	24990.91
542.129	25098.25
542.494	25011.02
542.858	25146.39
543.223	25021.87
543.587	25022.32
543.952	25066.39
544.316	25093.28
544.681	25002.21
545.045	25179.61
545.41	25136.22
545.774	24945.49
546.138	25074.98
546.503	25162.66
546.867	25075.43
547.231	25178.02
547.595	25113.17
547.959	25085.82
548.324	25104.58
548.688	25133.73
549.052	25146.61
549.416	25140.51
549.779	24984.81
550.143	25012.15
550.507	25071.36
550.871	25094.41
551.235	24981.87
551.599	25304.12
551.962	25147.29
552.326	25159.04
552.689	25135.31
553.053	24973.06
553.417	25211.47
553.78	25232.49
554.143	25322.43
554.507	25234.75
554.87	25172.83
555.234	25288.3
555.597	25118.59
555.96	25193.84
556.323	25201.3
556.686	25203.11
557.05	25312.94
557.413	25297.57
557.776	25382.54
558.139	25591.35
558.502	25361.52
558.865	25384.8
559.228	25510.22
559.59	25606.49
559.953	25456.89
560.316	25792.7
560.679	25581.86
561.041	25722.42
561.404	25690.1
561.767	25854.16
562.129	25770.1
562.492	25932.58
562.854	25938.23
563.217	25848.52
563.579	25915.63
563.941	25993.6
564.304	26051
564.666	26374.83
565.028	26239.47
565.39	26209.86
565.753	26346.36
566.115	26297.54
566.477	26401.72
566.839	26622.05
567.201	26624.99
567.563	26593.58
567.925	26712.67
568.287	26767.14
568.648	26776.85
569.01	27024.98
569.372	27121.48
569.734	27083.29
570.095	27151.08
570.457	27147.01
570.819	27264.75
571.18	27302.04
571.542	27514.01
571.903	27510.39
572.265	27619.54
572.626	27798.97
572.987	27808.46
573.349	27892.3
573.71	27870.38
574.071	27949.7
574.432	27979.53
574.794	28113.09
575.155	28334.78
575.516	28047.78
575.877	28327.55
576.238	28175.69
576.599	28451.38
576.96	28616.13
577.32	28649.57
577.681	28575.9
578.042	28814.54
578.403	28783.13
578.763	28781.32
579.124	28816.8
579.485	29106.96
579.845	29042.56
580.206	29070.58
580.566	29131.59
580.927	28958.94
581.287	29172.27
581.648	29195.55
582.008	29360.29
582.368	29390.8
582.728	29409.78
583.089	29433.73
583.449	29512.37
583.809	29479.15
584.169	29710.79
584.529	29601.86
584.889	29858.81
585.249	29680.28
585.609	29657.68
585.969	29887.51
586.329	29777.9
586.688	30042.3
587.048	29920.95
587.408	29827.62
587.768	29962.08
588.127	30006.15
588.487	29958.69
588.846	30337.66
589.206	30039.37
589.565	30236.2
589.925	30499.01
590.284	30361.39
590.643	30397.32
591.003	30618.11
591.362	30744.43
591.721	30597.77
592.08	30693.36
592.44	30876.86
592.799	30680.7
593.158	30781.27
593.517	30772.23
593.876	31081.82
594.235	30762.51
594.593	30882.73
594.952	30950.53
595.311	30934.71
595.67	31139.68
596.029	31286.11
596.387	31377.18
596.746	31560.68
597.104	31376.05
597.463	31398.43
597.822	31627.57
598.18	31513
598.538	31601.58
598.897	31902.59
599.255	31540.12
599.613	31980.33
599.972	31814.91
600.33	31818.75
600.688	31805.87
601.046	31901.69
601.404	32110.05
601.762	32063.49
602.12	32185.07
602.478	32267.33
602.836	32362.69
603.194	32128.35
603.552	32338.29
603.91	32231.17
604.268	32363.82
604.625	32397.95
604.983	32644.49
605.341	32409.02
605.698	32647.66
606.056	32819.86
606.413	32721.55
606.771	32925.39
607.128	32927.88
607.485	32817.15
607.843	32746.19
608.2	32976.92
608.557	33069.34
608.914	33058.5
609.272	33339.84
609.629	33506.39
609.986	33452.61
610.343	33373.97
610.7	33671.81
611.057	33569.44
611.414	33624.36
611.771	33785.26
612.127	33822.77
612.484	33923.56
612.841	33896.67
613.198	33896.89
613.554	33801.3
613.911	34122.42
614.267	34220.72
614.624	34136.21
614.98	34316.32
615.337	34538.46
615.693	34385.69
616.05	34546.14
616.406	34617.32
616.762	34653.48
617.118	34437.44
617.475	34526.93
617.831	34670.2
618.187	34716.08
618.543	34776.42
618.899	35043.75
619.255	34876.3
619.611	34879.46
619.967	35085.79
620.323	35184.09
620.678	35002.62
621.034	34914.27
621.39	35041.04
621.746	35058.22
622.101	35434.25
622.457	35145.67
622.812	35189.06
623.168	35435.83
623.523	35476.06
623.879	35421.14
624.234	35242.17
624.589	35517.41
624.945	35404.87
625.3	35439
625.655	35543.4
626.01	35399.9
626.365	35499.11
626.72	35444.65
627.075	35475.38
627.43	35398.77
627.785	35340.02
628.14	35560.58
628.495	35598.32
628.85	35587.47
629.205	35418.89
629.559	35570.52
629.914	35332.11
630.269	35321.26
630.623	35177.08
630.978	35202.85
631.332	35382.5
631.687	35390.86
632.041	35193.81
632.396	35328.94
632.75	35278.1
633.104	35258.89
633.459	35168.04
633.813	35057.54
634.167	35052.57
634.521	35127.82
634.875	35088.27
635.229	34967.15
635.583	34824.55
635.937	34818.22
636.291	34825.45
636.645	34762.18
636.999	34688.51
637.352	34991.78
637.706	34526.48
638.06	34853.7
638.413	34754.95
638.767	34587.49
639.121	34682.18
639.474	34518.8
639.828	34599.7
640.181	34560.6
640.534	34662.75
640.888	34409.87
641.241	34247.16
641.594	34326.26
641.947	34526.71
642.301	34399.93
642.654	34417.56
643.007	34316.32
643.36	34491.23
643.713	34360.83
644.066	34551.11
644.419	34291.01
644.771	33872.03
645.124	33682.66
645.477	33479.95
645.83	33508.88
646.182	33440.41
646.535	33487.86
646.888	33657.58
647.24	33388.66
647.593	33534.87
647.945	33408.77
648.298	33436.11
648.65	33299.39
649.002	33216.01
649.355	33125.16
649.707	33119.28
650.059	33066.63
650.411	33558.37
650.763	33825.25
651.115	34190.22
651.467	34092.82
651.819	34072.48
652.171	34117.45
652.523	34004.23
652.875	34019.15
653.227	33971.24
653.578	34290.78
653.93	34107.06
654.282	34121.29
654.633	34057.79
654.985	34116.32
655.337	34226.37
655.688	34061.63
656.039	34107.96
656.391	33986.38
656.742	34048.98
657.094	34083.1
657.445	34198.58
657.796	34179.6
658.147	34166.04
658.498	34129.65
658.849	34340.27
659.2	34118.13
659.551	34203.78
659.902	34372.36
660.253	34215.53
660.604	34263.44
660.955	34191.35
661.306	34468.63
661.656	34326.48
662.007	34395.86
662.358	34411.91
662.708	34419.59
663.059	34466.59
663.409	34232.93
663.76	34485.58
664.11	34509.76
664.461	34574.84
664.811	34593.82
665.161	34651.45
665.511	34521.96
665.862	34481.96
666.212	34705.68
666.562	34677.66
666.912	34655.74
667.262	34592.47
667.612	34596.53
667.962	34651.9
668.312	34596.53
668.662	34787.04
669.011	34650.32
669.361	34604.44
669.711	34590.43
670.06	34599.02
670.41	34479.02
670.76	34416.88
671.109	34666.14
671.459	34573.03
671.808	34431.79
672.157	34655.52
672.507	34276.77
672.856	34351.34
673.205	34437.89
673.554	34457.55
673.904	34341.17
674.253	34665.46
674.602	34258.69
674.951	33867.74
675.3	33762.88
675.649	34422.3
675.998	34369.65
676.346	34335.98
676.695	34426.82
677.044	34043.55
677.393	34152.25
677.741	34243.32
678.09	34117.22
678.438	34102.99
678.787	34016.44
679.135	34023.44
679.484	33782.09
679.832	33865.03
680.181	33921.52
680.529	33900.51
680.877	33663.45
681.225	33698.03
681.573	33884.91
681.922	33632.27
682.27	33494.64
682.618	33547.75
682.966	33469.78
683.314	33442.21
683.661	33488.99
684.009	33213.97
684.357	33332.84
684.705	33124.71
685.053	33123.8
685.4	33016.46
685.748	32997.03
686.095	32869.12
686.443	32644.95
686.79	32565.63
687.138	32795.45
687.485	32569.02
687.832	32428.23
688.18	32401.34
688.527	32266.2
688.874	32184.62
689.221	32132.19
689.568	32019.43
689.915	31916.83
690.262	31960.67
690.609	31879.54
690.956	31674.58
691.303	31698.08
691.65	31437.75
691.997	31231.65
692.344	31177.41
692.69	31086.8
693.037	31220.35
693.383	30922.28
693.73	30971.54
694.077	30738.56
694.423	30664.66
694.769	30628.28
695.116	30507.6
695.462	30240.49
695.808	30228.29
696.155	30171.79
696.501	29813.83
696.847	29888.18
697.193	29682.31
697.539	29689.77
697.885	29445.71
698.231	29264.02
698.577	29189.67
698.923	29204.13
699.269	28928.66
699.614	28824.48
699.96	28797.36
700.306	28612.28
700.651	28501.78
700.997	28455.45
701.342	28341.78
701.688	28222.01
702.033	28136.59
702.379	28071.73
702.724	28015.01
703.069	27975.01
703.415	27560.79
703.76	27535.48
704.105	27521.92
704.45	27301.58
704.795	27258.42
705.14	27120.35
705.485	27003.51
705.83	26883.52
706.175	27011.42
706.52	26869.96
706.865	26722.84
707.209	26760.81
707.554	26555.16
707.899	26526.69
708.243	26359.46
708.588	26292.8
708.932	26160.37
709.277	26157.89
709.621	26076.76
709.966	25899.59
710.31	25930.1
710.654	25706.6
710.998	25832.24
711.342	25768.29
711.687	25626.6
712.031	25629.76
712.375	25417.11
712.719	25559.26
713.063	25386.61
713.407	25453.95
713.75	25438.81
714.094	25266.84
714.438	25219.83
714.782	25281.3
715.125	25081.53
715.469	25222.77
715.812	24974.19
716.156	24932.83
716.499	25036.79
716.843	25039.72
717.186	24866.62
717.53	24997.24
717.873	25033.4
718.216	24992.27
718.559	24986.84
718.902	24686.29
719.246	24799.28
719.589	24734.65
719.932	24708.88
720.275	24699.39
720.617	24726.51
720.96	24606.51
721.303	24678.83
721.646	24792.5
721.989	24705.27
722.331	24687.42
722.674	24525.39
723.016	24636.8
723.359	24511.15
723.701	24740.52
724.044	24593.86
724.386	24527.65
724.729	24661.65
725.071	24701.88
725.413	24716.12
725.755	24695.78
726.097	24563.8
726.439	24580.07
726.782	24572.39
727.124	24736
727.465	24707.53
727.807	24575.55
728.149	24684.03
728.491	24580.3
728.833	24758.83
729.175	24755.89
729.516	24624.59
729.858	24631.6
730.199	24742.78
730.541	24784.14
730.882	24766.74
731.224	24784.36
731.565	24808.77
731.906	24860.07
732.248	24881.31
732.589	24681.77
732.93	24835.89
733.271	24838.37
733.612	24960.85
733.953	25136.9
734.294	24999.05
734.635	25021.19
734.976	25277.91
735.317	25052.83
735.658	25091.7
735.999	25128.08
736.339	25157.01
736.68	25252.15
737.021	25386.38
737.361	25415.53
737.702	25506.6
738.042	25543.21
738.383	25652.14
738.723	25657.11
739.063	25598.58
739.404	25813.71
739.744	25856.65
740.084	25821.17
740.424	26044.67
740.764	25929.64
741.104	26254.83
741.444	26173.25
741.784	26181.16
742.124	26307.26
742.464	26528.95
742.804	26515.39
743.143	26612.11
743.483	26753.35
743.823	26808.94
744.162	26841.26
744.502	27089.16
744.841	27112.89
745.181	27319.89
745.52	27307.23
745.86	27548.81
746.199	27716.71
746.538	27818.18
746.877	27859.31
747.216	27944.73
747.556	28139.98
747.895	28424.04
748.234	28445.96
748.573	28699.97
748.911	28810.25
749.25	28999.17
749.589	29093.4
749.928	29225.83
750.267	29365.71
750.605	29591.69
750.944	29713.27
751.283	29892.25
751.621	30228.74
751.96	30123.88
752.298	30399.81
752.636	30496.75
752.975	30749.63
753.313	30855.84
753.651	31170.18
753.989	31221.93
754.327	31519.1
