Data from 15-5210_FLMS001491_001.txt Node
Date: Thu Apr 19 16:48:13 BST 2018
User: hsy
Spectrometer: FLMS00149
Trigger mode: 0
Integration Time (sec): 1.000000E-2
Scans to average: 10
Electric dark correction enabled: true
Nonlinearity correction enabled: false
Boxcar width: 0
XAxis mode: Wavelengths
Number of Pixels in Spectrum: 2048
>>>>>Begin Spectral Data<<<<<
341.393	-8.09
341.776	-8.09
342.16	-8.09
342.543	-62.55
342.927	-69.11
343.31	-62.33
343.693	-65.49
344.077	-59.62
344.46	-63.46
344.843	-48.32
345.226	-51.93
345.61	-45.38
345.993	-1.54
346.376	-17.13
346.759	8.4
347.142	36.88
347.525	38.69
347.908	53.83
348.291	74.84
348.674	100.38
349.057	102.19
349.44	117.33
349.823	143.32
350.206	162.75
350.588	219.02
350.971	226.25
351.354	253.37
351.737	252.69
352.119	294.5
352.502	285.68
352.884	310.77
353.267	310.54
353.65	325.91
354.032	318.23
354.414	341.5
354.797	339.02
355.179	372.01
355.562	356.19
355.944	347.83
356.326	375.85
356.709	376.53
357.091	350.99
357.473	384.21
357.855	374.27
358.238	372.46
358.62	388.73
359.002	375.63
359.384	385.34
359.766	376.76
360.148	374.5
360.53	365.68
360.912	377.21
361.294	370.88
361.676	365.46
362.057	386.92
362.439	374.95
362.821	367.26
363.203	363.87
363.584	369.3
363.966	368.17
364.348	365.91
364.729	360.48
365.111	372.01
365.493	370.2
365.874	381.73
366.256	364.78
366.637	366.36
367.019	363.42
367.4	382.41
367.781	373.14
368.163	357.32
368.544	348.28
368.925	341.95
369.306	378.79
369.688	356.64
370.069	356.42
370.45	359.58
370.831	375.63
371.212	357.55
371.593	366.13
371.974	358.23
372.355	372.01
372.736	383.54
373.117	383.99
373.498	360.03
373.879	388.05
374.26	380.15
374.641	382.86
375.021	370.43
375.402	401.16
375.783	390.54
376.163	413.59
376.544	386.7
376.925	371.33
377.305	359.35
377.686	405.68
378.066	388.51
378.447	415.4
378.827	397.55
379.208	394.16
379.588	410.2
379.968	402.07
380.349	396.19
380.729	419.47
381.109	399.35
381.489	421.27
381.87	405.23
382.25	444.78
382.63	416.53
383.01	433.7
383.39	428.51
383.77	425.57
384.15	437.54
384.53	422.4
384.91	444.78
385.29	446.81
385.67	409.98
386.049	440.26
386.429	428.05
386.809	447.94
387.189	457.43
387.568	453.59
387.948	460.37
388.328	452.91
388.707	464.44
389.087	470.76
389.466	480.03
389.846	483.87
390.225	499.24
390.605	463.98
390.984	477.54
391.363	514.83
391.743	485.45
392.122	521.16
392.501	499.24
392.881	493.36
393.26	494.72
393.639	518.22
394.018	522.29
394.397	510.31
394.776	538.56
395.155	546.47
395.534	520.25
395.913	522.29
396.292	562.06
396.671	551.89
397.05	560.03
397.429	557.32
397.808	562.74
398.186	577.65
398.565	549.18
398.944	573.81
399.323	571.33
399.701	599.12
400.08	593.25
400.458	593.25
400.837	600.48
401.215	627.14
401.594	606.81
401.972	611.55
402.351	603.87
402.729	596.41
403.107	626.92
403.486	633.02
403.864	625.11
404.242	639.57
404.62	654.26
404.999	653.58
405.377	665.11
405.755	661.04
406.133	673.47
406.511	698.33
406.889	684.77
407.267	712.11
407.645	723.19
408.023	722.96
408.401	729.51
408.779	760.47
409.156	762.96
409.534	763.41
409.912	771.1
410.29	797.99
410.667	803.41
411.045	825.78
411.422	800.93
411.8	844.09
412.178	873.92
412.555	869.17
412.933	870.53
413.31	913.46
413.687	924.09
414.065	921.6
414.442	936.51
414.819	933.58
415.197	945.33
415.574	975.16
415.951	1002.05
416.328	977.42
416.705	1012.22
417.082	969.28
417.46	1014.93
417.837	1007.47
418.214	1071.43
418.591	1047.47
418.967	1084.99
419.344	1061.26
419.721	1094.93
420.098	1120.46
420.475	1091.31
420.852	1121.37
421.228	1131.09
421.605	1113.46
421.982	1145.1
422.358	1146.23
422.735	1198.2
423.111	1192.33
423.488	1215.6
423.864	1201.14
424.241	1221.03
424.617	1216.28
424.994	1240.69
425.37	1258.99
425.746	1291.76
426.123	1320.91
426.499	1331.53
426.875	1307.13
427.251	1325.88
427.627	1400.91
428.003	1403.4
428.379	1406.33
428.756	1408.59
429.132	1423.96
429.507	1428.48
429.883	1472.55
430.259	1499.89
430.635	1487.23
431.011	1520.68
431.387	1549.15
431.763	1587.57
432.138	1588.02
432.514	1584.41
432.89	1613.33
433.265	1655.37
433.641	1681.35
434.016	1670.05
434.392	1712.77
434.767	1748.02
435.143	1767.68
435.518	1789.37
435.894	1824.4
436.269	1829.6
436.644	1875.25
437.02	1861.24
437.395	1876.83
437.77	1879.77
438.145	1947.34
438.52	1943.95
438.895	1968.8
439.271	1979.43
439.646	2056.03
440.021	2052.42
440.395	2065.98
440.77	2023.94
441.145	2056.94
441.52	2087.67
441.895	2150.27
442.27	2156.14
442.645	2163.15
443.019	2136.26
443.394	2157.27
443.769	2211.74
444.143	2197.05
444.518	2196.14
444.892	2226.88
445.267	2219.42
445.641	2253.32
446.016	2279.3
446.39	2281.34
446.764	2310.72
447.139	2290.6
447.513	2335.35
447.887	2361.56
448.262	2316.37
448.636	2351.39
449.01	2383.71
449.384	2423.93
449.758	2451.05
450.132	2456.7
450.506	2445.85
450.88	2528.79
451.254	2516.59
451.628	2524.04
452.002	2580.54
452.376	2601.33
452.75	2654.89
453.123	2651.5
453.497	2688.56
453.871	2703.93
454.244	2799.52
454.618	2816.24
454.992	2850.59
455.365	2869.12
455.739	2909.57
456.112	2947.99
456.486	2961.77
456.859	2984.6
457.232	3045.39
457.606	3044.03
457.979	3107.08
458.352	3184.82
458.725	3230.92
459.099	3227.08
459.472	3267.53
459.845	3368.54
460.218	3352.5
460.591	3430.23
460.964	3443.79
461.337	3514.53
461.71	3602.21
462.083	3581.19
462.456	3577.58
462.829	3635.88
463.201	3666.16
463.574	3703.9
463.947	3758.81
464.32	3847.85
464.692	3914.97
465.065	3855.31
465.438	3914.29
465.81	3961.97
466.183	4010.33
466.555	4109.99
466.928	4088.3
467.3	4135.3
467.672	4161.74
468.045	4272.25
468.417	4292.13
468.789	4270.21
469.161	4399.7
469.534	4463.43
469.906	4535.74
470.278	4545.01
470.65	4619.81
471.022	4676.76
471.394	4757.43
471.766	4783.87
472.138	4893.92
472.51	4992.45
472.882	5020.02
473.253	5086.24
473.625	5189.06
473.997	5259.11
474.369	5279
474.74	5362.61
475.112	5426.57
475.484	5497.07
475.855	5636.73
476.227	5679.44
476.598	5855.71
476.97	5863.84
477.341	5937.06
477.713	6050.96
478.084	6109.03
478.455	6283.49
478.827	6285.07
479.198	6535.46
479.569	6568.01
479.94	6696.82
480.311	6807.77
480.682	6952.63
481.053	7075.79
481.424	7173.41
481.795	7302.9
482.166	7443.91
482.537	7549.45
482.908	7746.28
483.279	7814.75
483.65	7953.05
484.021	8096.78
484.391	8142.43
484.762	8306.94
485.133	8354.85
485.503	8515.07
485.874	8758.68
486.244	8851.56
486.615	9015.62
486.985	9106.24
487.356	9316.18
487.726	9430.53
488.097	9651.31
488.467	9727.02
488.837	9927.92
489.207	10010.85
489.578	10211.75
489.948	10389.37
490.318	10547.79
490.688	10556.15
491.058	10843.15
491.428	10989.36
491.798	11135.57
492.168	11364.49
492.538	11387.77
492.908	11640.41
493.278	11715.44
493.648	11889.22
494.017	12049.67
494.387	12203.56
494.757	12271.13
495.126	12484.23
495.496	12609.88
495.866	12711.57
496.235	12816.43
496.605	13021.62
496.974	13162.86
497.344	13327.83
497.713	13486.47
498.082	13596.52
498.452	13729.4
498.821	13914.25
499.19	13986.57
499.559	14222.04
499.928	14255.49
500.298	14380
500.667	14547.68
501.036	14551.07
501.405	14768.24
501.774	14921.46
502.143	15056.6
502.512	15097.05
502.88	15255.69
503.249	15425.4
503.618	15450.94
503.987	15640.08
504.356	15747.42
504.724	15803.92
505.093	16010.69
505.462	16084.82
505.83	16186.51
506.199	16333.4
506.567	16554.41
506.936	16563
507.304	16828.53
507.672	16883.67
508.041	16881.41
508.409	17141.96
508.777	17348.06
509.145	17466.25
509.514	17436.87
509.882	17595.51
510.25	17626.47
510.618	17828.95
510.986	17953.24
511.354	18009.06
511.722	18213.35
512.09	18473.91
512.458	18282.73
512.826	18531.08
513.193	18601.59
513.561	18786.22
513.929	18868.47
514.297	18992.09
514.664	19091.97
515.032	19213.55
515.4	19370.15
515.767	19434.79
516.135	19504.39
516.502	19503.48
516.869	19832.52
517.237	19907.32
517.604	19757.04
517.972	20146.63
518.339	20233.41
518.706	20348.66
519.073	20387.08
519.44	20398.38
519.808	20754.98
520.175	20639.5
520.542	20997.23
520.909	21004.24
521.276	21234.51
521.643	21359.48
522.009	21414.39
522.376	21542.07
522.743	21771
523.11	21940.48
523.477	22123.53
523.843	22150.19
524.21	22403.3
524.577	22468.15
524.943	22733
525.31	22834.47
525.676	22917.41
526.043	23125.76
526.409	23193.78
526.776	23449.82
527.142	23502.7
527.508	23754.45
527.874	23786.08
528.241	23882.58
528.607	23893.65
528.973	24276.24
529.339	24131.16
529.705	24401.89
530.071	24558.72
530.437	24648.66
530.803	24693.4
531.169	24807.53
531.535	24906.28
531.901	24901.53
532.267	25127.52
532.632	25172.49
532.998	25206.84
533.364	25412.71
533.73	25375.65
534.095	25555.98
534.461	25525.7
534.826	25755.75
535.192	25850.21
535.557	25965.24
535.923	25834.84
536.288	26001.39
536.653	26113.71
537.019	25996.87
537.384	25988.96
537.749	26029.87
538.114	26108.73
538.479	26011.11
538.845	26158
539.21	26164.1
539.575	26168.85
539.94	26310.54
540.305	26378.56
540.67	26341.95
541.034	26365.22
541.399	26317.09
541.764	26457.43
542.129	26392.79
542.494	26389.4
542.858	26547.59
543.223	26345.11
543.587	26561.38
543.952	26425.56
544.316	26571.32
544.681	26381.95
545.045	26558.67
545.41	26581.72
545.774	26512.11
546.138	26511.21
546.503	26474.37
546.867	26577.65
547.231	26780.58
547.595	26630.75
547.959	26746.68
548.324	26706.01
548.688	26731.99
549.052	26713.92
549.416	26697.65
549.779	26662.62
550.143	26641.15
550.507	26806.57
550.871	26742.16
551.235	26723.63
551.599	26902.16
551.962	26819.22
552.326	26828.94
552.689	26740.58
553.053	26636.4
553.417	26726.12
553.78	26879.79
554.143	26759.56
554.507	26834.37
554.87	26838.66
555.234	27098.99
555.597	26867.58
555.96	26840.01
556.323	27030.29
556.686	27016.28
557.05	27087.47
557.413	27159.78
557.776	27022.83
558.139	27249.5
558.502	27141.02
558.865	27188.03
559.228	27286.33
559.59	27296.27
559.953	27210.4
560.316	27518.87
560.679	27428.7
561.041	27554.8
561.404	27441.35
561.767	27730.84
562.129	27534.01
562.492	27702.59
562.854	27592.09
563.217	27784.17
563.579	27743.27
563.941	28038.63
564.304	28041.79
564.666	28337.38
565.028	28070.04
565.39	28157.27
565.753	28397.26
566.115	28245.4
566.477	28404.95
566.839	28519.29
567.201	28654.43
567.563	28708.67
567.925	28711.83
568.287	28809
568.648	28825.05
569.01	28979.62
569.372	29207.64
569.734	29095.55
570.095	29386.39
570.457	29417.12
570.819	29456.44
571.18	29484.69
571.542	29600.62
571.903	29578.02
572.265	29679.26
572.626	29870.22
572.987	29778.47
573.349	29994.51
573.71	30062.3
574.071	30109.53
574.432	30279.47
574.794	30480.14
575.155	30434.95
575.516	30450.32
575.877	30545.23
576.238	30620.71
576.599	30653.93
576.96	30745.22
577.32	30772.11
577.681	30949.51
578.042	31074.03
578.403	31135.27
578.763	31041.26
579.124	31229.28
579.485	31366.45
579.845	31460.01
580.206	31444.87
580.566	31371.19
580.927	31358.54
581.287	31563.73
581.648	31658.42
582.008	31838.08
582.368	31738.19
582.728	31705.2
583.089	31831.07
583.449	31971.63
583.809	32009.6
584.169	32054.34
584.529	31899.99
584.889	32222.7
585.249	32019.54
585.609	32037.62
585.969	32285.97
586.329	32224.96
586.688	32417.72
587.048	32393.09
587.408	32432.86
587.768	32451.84
588.127	32438.51
588.487	32463.6
588.846	32750.59
589.206	32490.94
589.565	32554.89
589.925	32914.43
590.284	32809.58
590.643	32789.01
591.003	32932.74
591.362	33105.84
591.721	33012.28
592.08	33059.06
592.44	33145.16
592.799	33222.45
593.158	33278.72
593.517	33168.21
593.876	33322.56
594.235	33223.8
594.593	33333.4
594.952	33467.18
595.311	33457.24
595.67	33516.68
596.029	33767.52
596.387	33758.25
596.746	33980.62
597.104	33633.96
597.463	33837.8
597.822	33933.39
598.18	33885.25
598.538	33994.18
598.897	34134.51
599.255	34031.46
599.613	34340.83
599.972	34255.64
600.33	34401.4
600.688	34278.01
601.046	34538.8
601.404	34552.35
601.762	34573.37
602.12	34517.78
602.478	34693.59
602.836	34779.69
603.194	34521.39
603.552	34801.16
603.91	34829.64
604.268	34860.14
604.625	34794.83
604.983	34987.37
605.341	34741.73
605.698	34959.35
606.056	35200.02
606.413	35130.42
606.771	35368.6
607.128	35246.8
607.485	35239.34
607.843	35169.29
608.2	35414.93
608.557	35542.16
608.914	35450.18
609.272	35637.98
609.629	35772.44
609.986	35907.57
610.343	35767.01
610.7	36104.18
611.057	36000
611.414	35980.57
611.771	36207.23
612.127	36228.02
612.484	36218.75
612.841	36386.43
613.198	36259.88
613.554	36236.38
613.911	36475.69
614.267	36515.69
614.624	36475.24
614.98	36572.41
615.337	36889.02
615.693	36816.25
616.05	36764.27
616.406	36968.11
616.762	36868
617.118	36943.48
617.475	36894.67
617.831	37180.08
618.187	37039.29
618.543	37158.39
618.899	37495.33
619.255	37276.58
619.611	37250.14
619.967	37493.52
620.323	37667.75
620.678	37406.74
621.034	37469.11
621.39	37441.77
621.746	37557.25
622.101	37897.8
622.457	37491.26
622.812	37775.77
623.168	37791.14
623.523	37761.99
623.879	37940.97
624.234	37736.9
624.589	37940.51
624.945	37856.45
625.3	37953.17
625.655	38047.63
626.01	38075.43
626.365	37995.2
626.72	37841.53
627.075	37713.85
627.43	37867.07
627.785	37890.12
628.14	37822.1
628.495	37856.45
628.85	38020.29
629.205	37869.78
629.559	38026.16
629.914	37828.43
630.269	37859.61
630.623	37628.66
630.978	37701.2
631.332	37922.66
631.687	37826.17
632.041	37763.12
632.396	37707.98
632.75	37655.1
633.104	37785.04
633.459	37467.08
633.813	37644.93
634.167	37537.59
634.521	37677.24
634.875	37580.98
635.229	37457.36
635.583	37374.65
635.937	37383.24
636.291	37279.74
636.645	37268.67
636.999	37226.41
637.352	37313.19
637.706	37136.92
638.06	37241.78
638.413	37116.58
638.767	36951.16
639.121	37028.45
639.474	36952.74
639.828	36841.56
640.181	36980.31
640.534	36995.45
640.888	36703.48
641.241	36653.09
641.594	36686.31
641.947	36825.97
642.301	36659.42
642.654	36923.14
643.007	36599.53
643.36	36814.67
643.713	36649.7
644.066	36895.34
644.419	36594.56
644.771	36265.3
645.124	35874.81
645.477	35824.86
645.83	35751.42
646.182	35750.51
646.535	35702.15
646.888	35790.29
647.24	35612.44
647.593	35944.18
647.945	35705.54
648.298	35518.88
648.65	35436.17
649.002	35454.93
649.355	35384.42
649.707	35458.09
650.059	35381.26
650.411	35886.1
650.763	36095.36
651.115	36487.9
651.467	36455.58
651.819	36439.08
652.171	36357.96
652.523	36326.54
652.875	36397.73
653.227	36240.45
653.578	36466.43
653.93	36577.16
654.282	36267.34
654.633	36219.2
654.985	36296.26
655.337	36275.92
655.688	36316.6
656.039	36341.69
656.391	36268.92
656.742	36329.71
657.094	36383.49
657.445	36430.5
657.796	36462.36
658.147	36301.01
658.498	36463.26
658.849	36618.51
659.2	36366.09
659.551	36468.91
659.902	36664.16
660.253	36421.01
660.604	36633.88
660.955	36541
661.306	36678.17
661.656	36454.23
662.007	36697.61
662.358	36688.34
662.708	36729.25
663.059	36628.23
663.409	36510.04
663.76	36667.78
664.11	36784.84
664.461	36878.17
664.811	36729.25
665.161	36742.81
665.511	36773.54
665.862	36829.58
666.212	36957.04
666.562	36975.57
666.912	36846.98
667.262	36710.26
667.612	36739.42
667.962	36812.41
668.312	36872.29
668.662	37013.08
669.011	36889.92
669.361	36829.13
669.711	36861.22
670.06	37031.16
670.41	36783.48
670.76	36819.19
671.109	36959.3
671.459	36790.94
671.808	36946.19
672.157	36908.68
672.507	36609.7
672.856	36643.6
673.205	36842.24
673.554	36808.11
673.904	36746.65
674.253	36935.57
674.602	36555.69
674.951	36145.53
675.3	36085.65
675.649	36519.53
675.998	36569.7
676.346	36598.63
676.695	36814.22
677.044	36423.72
677.393	36542.81
677.741	36602.24
678.09	36548.23
678.438	36474.56
678.787	36503.04
679.135	36522.25
679.484	36153.22
679.832	36274.79
680.181	36175.36
680.529	36139.43
680.877	36051.07
681.225	36033.9
681.573	36370.61
681.922	36061.69
682.27	35922.04
682.618	35938.08
682.966	35783.28
683.314	35770.85
683.661	35933.79
684.009	35680.46
684.357	35564.76
684.705	35340.58
685.053	35562.72
685.4	35314.82
685.748	35206.57
686.095	35155.28
686.443	35021.27
686.79	34999.57
687.138	35110.08
687.485	34955.96
687.832	34746.02
688.18	34666.02
688.527	34507.61
688.874	34584.9
689.221	34440.49
689.568	34271.91
689.915	34136.32
690.262	34127.05
690.609	34068.3
690.956	33850.68
691.303	33828.08
691.65	33679.38
691.997	33624.02
692.344	33353.97
692.69	33320.52
693.037	33285.04
693.383	33146.06
693.73	33019.97
694.077	32849.57
694.423	32833.08
694.769	32696.13
695.116	32652.97
695.462	32429.47
695.808	32298.63
696.155	32172.3
696.501	31955.13
696.847	32027.22
697.193	31765.76
697.539	31785.65
697.885	31550.63
698.231	31300.69
698.577	31344.75
698.923	31216.17
699.269	30922.39
699.614	30926.46
699.96	30768.5
700.306	30771.66
700.651	30567.83
700.997	30344.1
701.342	30344.1
701.688	30265.24
702.033	30135.07
702.379	30144.11
702.724	29974.4
703.069	29832.48
703.415	29508.19
703.76	29529.44
704.105	29580.96
704.45	29379.83
704.795	29231.14
705.14	29080.41
705.485	29114.08
705.83	28844.03
706.175	29011.93
706.52	28792.05
706.865	28638.39
707.209	28582.57
707.554	28522.91
707.899	28440.65
708.243	28373.31
708.588	28244.72
708.932	28013.77
709.277	28018.97
709.621	27854.45
709.966	27677.28
710.31	27844.06
710.654	27728.8
710.998	27773.78
711.342	27649.71
711.687	27530.39
712.031	27458.76
712.375	27332.66
712.719	27400.23
713.063	27315.48
713.407	27415.59
713.75	27277.74
714.094	27224.41
714.438	27018.09
714.782	27125.2
715.125	26971.31
715.469	27120.46
715.812	26881.14
716.156	26891.31
716.499	26829.85
716.843	26883.86
717.186	26705.1
717.53	26878.21
717.873	26950.75
718.216	26844.99
718.559	26718.66
718.902	26614.48
719.246	26572
719.589	26554.82
719.932	26568.61
720.275	26470.76
720.617	26575.16
720.96	26410.42
721.303	26554.82
721.646	26575.39
721.989	26441.61
722.331	26590.3
722.674	26304.44
723.016	26429.4
723.359	26425.11
723.701	26445.45
724.044	26319.35
724.386	26210.88
724.729	26374.49
725.071	26446.35
725.413	26397.09
725.755	26409.97
726.097	26260.59
726.439	26142.18
726.782	26308.05
727.124	26384.66
727.465	26416.3
727.807	26305.79
728.149	26489.74
728.491	26277.77
728.833	26495.16
729.175	26482.28
729.516	26339.69
729.858	26339.46
730.199	26532
730.541	26577.42
730.882	26483.64
731.224	26564.32
731.565	26569.97
731.906	26595.05
732.248	26680.92
732.589	26410.65
732.93	26597.76
733.271	26668.95
733.612	26665.1
733.953	26794.82
734.294	26765.67
734.635	26728.61
734.976	26926.11
735.317	26832.78
735.658	26752.56
735.999	26845.21
736.339	27038.43
736.68	27115.49
737.021	27083.62
737.361	26996.62
737.702	27380.57
738.042	27265.31
738.383	27385.99
738.723	27513.67
739.063	27345.54
739.404	27520.45
739.744	27503.95
740.084	27515.93
740.424	27650.39
740.764	27742.36
741.104	27932.42
741.444	27898.97
741.784	27939.65
742.124	28235.01
742.464	28130.6
742.804	28185.74
743.143	28253.31
743.483	28473.87
743.823	28463.93
744.162	28679.06
744.502	28833.41
744.841	28878.15
745.181	29047.64
745.52	28991.37
745.86	29278.14
746.199	29296.67
746.538	29456.22
746.877	29570.56
747.216	29797
747.556	29785.47
747.895	29986.37
748.234	30117.89
748.573	30282.41
748.911	30442.63
749.25	30630.88
749.589	30572.12
749.928	30874.03
750.267	31168.26
750.605	31192.22
750.944	31435.83
751.283	31494.58
751.621	31704.07
751.96	31877.4
752.298	31957.39
752.636	32108.8
752.975	32339.76
753.313	32438.96
753.651	32760.31
753.989	32716.24
