Data from 15-5210_FLMS001491_002.txt Node
Date: Thu Apr 19 16:48:15 BST 2018
User: hsy
Spectrometer: FLMS00149
Trigger mode: 0
Integration Time (sec): 1.000000E-2
Scans to average: 10
Electric dark correction enabled: true
Nonlinearity correction enabled: false
Boxcar width: 0
XAxis mode: Wavelengths
Number of Pixels in Spectrum: 2048
>>>>>Begin Spectral Data<<<<<
341.393	-6.23
341.776	-6.23
342.16	-6.23
342.543	-60.24
342.927	-92.1
343.31	-75.61
343.693	-71.09
344.077	-56.17
344.46	-56.62
344.843	-59.56
345.226	-25.89
345.61	-41.48
345.993	-15.49
346.376	6.43
346.759	18.18
347.142	28.8
347.525	41.91
347.908	54.11
348.291	59.31
348.674	85.97
349.057	107.21
349.44	133.43
349.823	143.82
350.206	186.76
350.588	223.37
350.971	254.1
351.354	257.27
351.737	259.3
352.119	303.59
352.502	286.65
352.884	304.5
353.267	335.46
353.65	330.71
354.032	329.13
354.414	360.77
354.797	355.8
355.179	364.16
355.562	368.68
355.944	366.64
356.326	363.48
356.709	356.7
357.091	376.59
357.473	389.24
357.855	380.43
358.238	389.47
358.62	388.11
359.002	391.73
359.384	362.8
359.766	363.25
360.148	384.27
360.53	372.52
360.912	389.02
361.294	382.69
361.676	364.84
362.057	377.94
362.439	387.89
362.821	361.45
363.203	379.3
363.584	370.71
363.966	361.22
364.348	383.14
364.729	372.97
365.111	372.97
365.493	373.2
365.874	361.45
366.256	369.81
366.637	364.84
367.019	362.58
367.4	388.11
367.781	370.48
368.163	360.99
368.544	368
368.925	371.16
369.306	374.55
369.688	343.59
370.069	374.1
370.45	365.29
370.831	374.33
371.212	360.77
371.593	356.02
371.974	352.41
372.355	365.74
372.736	388.79
373.117	356.02
373.498	385.4
373.879	390.37
374.26	387.89
374.641	377.26
375.021	390.6
375.402	406.87
375.783	382.46
376.163	385.63
376.544	395.12
376.925	378.85
377.305	417.26
377.686	414.78
378.066	397.6
378.447	406.42
378.827	391.5
379.208	402.12
379.588	401.9
379.968	413.2
380.349	425.4
380.729	408.9
381.109	430.82
381.489	416.13
381.87	438.51
382.25	423.14
382.63	429.47
383.01	408.9
383.39	439.41
383.77	430.6
384.15	422.69
384.53	435.57
384.91	427.43
385.29	431.5
385.67	462.69
386.049	457.04
386.429	448
386.809	449.13
387.189	451.61
387.568	465.85
387.948	460.43
388.328	462.69
388.707	463.36
389.087	466.08
389.466	499.75
389.846	475.11
390.225	503.59
390.605	474.89
390.984	488.22
391.363	494.55
391.743	487.54
392.122	501.78
392.501	505.4
392.881	520.76
393.26	495.23
393.639	523.47
394.018	538.62
394.397	529.35
394.776	527.54
395.155	545.4
395.534	528.22
395.913	541.1
396.292	535.9
396.671	561.89
397.05	556.92
397.429	578.61
397.808	579.74
398.186	560.31
398.565	579.29
398.944	590.14
399.323	579.29
399.701	604.6
400.08	592.85
400.458	605.96
400.837	615
401.215	629.23
401.594	599.86
401.972	625.39
402.351	621.1
402.729	627.43
403.107	638.5
403.486	646.18
403.864	642.79
404.242	681.89
404.62	660.19
404.999	666.75
405.377	677.37
405.755	683.47
406.133	697.48
406.511	712.4
406.889	702.91
407.267	717.14
407.645	723.02
408.023	724.37
408.401	745.16
408.779	780.42
409.156	774.09
409.534	770.7
409.912	782
410.29	807.54
410.667	833.3
411.045	844.14
411.422	835.56
411.8	847.53
412.178	863.58
412.555	886.63
412.933	889.79
413.31	909.68
413.687	897.48
414.065	918.04
414.442	953.07
414.819	921.66
415.197	959.85
415.574	984.03
415.951	992.16
416.328	993.97
416.705	999.62
417.082	1000.52
417.46	1041.65
417.837	1050.92
418.214	1069.9
418.591	1049.34
418.967	1056.34
419.344	1084.82
419.721	1065.61
420.098	1083.91
420.475	1118.04
420.852	1104.48
421.228	1145.83
421.605	1155.55
421.982	1154.64
422.358	1153.97
422.735	1189.45
423.111	1189.67
423.488	1247.52
423.864	1218.15
424.241	1242.78
424.617	1241.2
424.994	1262.44
425.37	1268.77
425.746	1273.29
426.123	1321.65
426.499	1330.69
426.875	1337.24
427.251	1347.18
427.627	1388.31
428.003	1381.08
428.379	1415.43
428.756	1422.89
429.132	1440.29
429.507	1439.84
429.883	1462.89
430.259	1532.04
430.635	1523.9
431.011	1522.09
431.387	1585.59
431.763	1579.49
432.138	1603.22
432.514	1664.69
432.89	1629.66
433.265	1686.16
433.641	1727.06
434.016	1692.03
434.392	1726.83
434.767	1762.54
435.143	1749.21
435.518	1779.94
435.894	1820.16
436.269	1835.76
436.644	1866.04
437.02	1877.56
437.395	1919.82
437.77	1911.24
438.145	1956.21
438.52	1927.51
438.895	1995.75
439.271	1960.05
439.646	2068.29
440.021	2050.89
440.395	2036.66
440.77	2052.7
441.145	2071.23
441.52	2149.65
441.895	2129.53
442.27	2161.17
442.645	2135.41
443.019	2164.11
443.394	2190.78
443.769	2209.76
444.143	2181.74
444.518	2235.97
444.892	2254.05
445.267	2250.21
445.641	2296.76
446.016	2303.99
446.39	2321.17
446.764	2344.67
447.139	2322.98
447.513	2336.76
447.887	2352.58
448.262	2373.6
448.636	2431.67
449.01	2397.32
449.384	2426.48
449.758	2454.5
450.132	2466.7
450.506	2545.34
450.88	2559.58
451.254	2530.2
451.628	2574.95
452.002	2587.15
452.376	2632.12
452.75	2661.05
453.123	2657.43
453.497	2720.48
453.871	2713.7
454.244	2847.93
454.618	2824.21
454.992	2876.63
455.365	2896.97
455.739	2946.46
456.112	3006.12
456.486	3015.39
456.859	3018.55
457.232	3089.06
457.606	3108.94
457.979	3147.59
458.352	3233.01
458.725	3214.25
459.099	3303.51
459.472	3331.54
459.845	3361.82
460.218	3416.73
460.591	3438.65
460.964	3473
461.337	3518.65
461.71	3560.23
462.083	3642.49
462.456	3645.65
462.829	3653.34
463.201	3755.03
463.574	3745.09
463.947	3799.77
464.32	3850.39
464.692	3915.25
465.065	3923.16
465.438	3974.68
465.81	4038.64
466.183	4049.71
466.555	4128.8
466.928	4163.83
467.3	4183.27
467.672	4209.48
468.045	4295.13
468.417	4305.07
468.789	4379.87
469.161	4363.6
469.534	4496.25
469.906	4518.62
470.278	4603.14
470.65	4663.25
471.022	4707.09
471.394	4842.68
471.766	4866.19
472.138	4943.02
472.51	5029.35
472.882	5068.44
473.253	5145.5
473.625	5228.21
473.997	5303.69
474.369	5342.11
474.74	5418.94
475.112	5501.2
475.484	5550.69
475.855	5650.12
476.227	5775.77
476.598	5922.2
476.97	5954.52
477.341	6051.92
477.713	6119.03
478.084	6203.1
478.455	6327.39
478.827	6387.73
479.198	6642.41
479.569	6675.86
479.94	6802.41
480.311	6925.34
480.682	6986.81
481.053	7158.33
481.424	7349.28
481.795	7335.27
482.166	7560.58
482.537	7576.17
482.908	7790.85
483.279	7835.6
483.65	8055.48
484.021	8201.92
484.391	8300.9
484.762	8351.29
485.133	8511.97
485.503	8690.72
485.874	8801.22
486.244	8923.48
486.615	9175.9
486.985	9170.03
487.356	9461.77
487.726	9576.12
488.097	9720.52
488.467	9857.24
488.837	10086.39
489.207	10157.12
489.578	10342.65
489.948	10552.36
490.318	10736.31
490.688	10729.99
491.058	11012.92
491.428	11168.62
491.798	11279.8
492.168	11545.56
492.538	11612.9
492.908	11721.37
493.278	11966.56
493.648	12020.12
494.017	12254.24
494.387	12364.07
494.757	12517.28
495.126	12580.33
495.496	12735.36
495.866	12937.16
496.235	13092.41
496.605	13282.69
496.974	13304.38
497.344	13557.48
497.713	13593.19
498.082	13777.59
498.452	13909.79
498.821	14060.97
499.19	14099.84
499.559	14312.04
499.928	14411.02
500.298	14555.2
500.667	14635.87
501.036	14783.66
501.405	14924.45
501.774	14974.85
502.143	15129.42
502.512	15199.25
502.88	15414.16
503.249	15532.8
503.618	15563.08
503.987	15625.68
504.356	15814.15
504.724	15978.21
505.093	16043.07
505.462	16204.64
505.83	16280.12
506.199	16502.04
506.567	16663.16
506.936	16691.41
507.304	16760.56
507.672	17003.27
508.041	17111.06
508.409	17211.4
508.777	17356.93
509.145	17552.63
509.514	17521.22
509.882	17758.95
510.25	17725.96
510.618	17904.49
510.986	17932.51
511.354	18017.7
511.722	18284.14
512.09	18395.32
512.458	18363.46
512.826	18607.52
513.193	18601.64
513.561	18835.08
513.929	18928.64
514.297	19043.67
514.664	19168.86
515.032	19255.86
515.4	19450.21
515.767	19493.37
516.135	19608.62
516.502	19572.92
516.869	19810.65
517.237	19919.8
517.604	19877.09
517.972	20159.12
518.339	20314.59
518.706	20237.53
519.073	20287.7
519.44	20465.55
519.808	20650.18
520.175	20645.21
520.542	20991.86
520.909	21050.84
521.276	21148.47
521.643	21299.43
522.009	21392.98
522.376	21515.69
522.743	21665.52
523.11	21878.62
523.477	22036.58
523.843	22146.64
524.21	22397.7
524.577	22479.51
524.943	22660.97
525.31	22665.72
525.676	22917.69
526.043	22988.19
526.409	23025.03
526.776	23366.72
527.142	23317
527.508	23494.85
527.874	23713.6
528.241	23789.08
528.607	23892.8
528.973	24132.35
529.339	24049.18
529.705	24434.26
530.071	24441.26
530.437	24603.75
530.803	24696.17
531.169	24735.27
531.535	24830.18
531.901	24890.74
532.267	25035.37
532.632	25132.77
532.998	25151.3
533.364	25276.5
533.73	25349.94
534.095	25522.37
534.461	25396.27
534.826	25555.13
535.192	25644.17
535.557	25765.75
535.923	25719.2
536.288	25770.27
536.653	25838.52
537.019	25763.04
537.384	25888.23
537.749	25974.78
538.114	26038.28
538.479	25825.63
538.845	26043.71
539.21	26045.52
539.575	26086.42
539.94	26144.95
540.305	26130.26
540.67	26087.1
541.034	26233.99
541.399	26241.22
541.764	26189.24
542.129	26219.3
542.494	26283.48
542.858	26243.25
543.223	26254.78
543.587	26407.54
543.952	26328.67
544.316	26275.79
544.681	26334.1
545.045	26324.6
545.41	26348.11
545.774	26349.69
546.138	26296.58
546.503	26320.31
546.867	26372.29
547.231	26416.81
547.595	26480.53
547.959	26454.77
548.324	26497.48
548.688	26333.42
549.052	26378.39
549.416	26291.84
549.779	26400.99
550.143	26469.01
550.507	26501.55
550.871	26570.7
551.235	26398.95
551.599	26490.7
551.962	26507.2
552.326	26551.27
552.689	26604.15
553.053	26388.78
553.417	26527.08
553.78	26583.35
554.143	26625.61
554.507	26597.82
554.87	26563.69
555.234	26824.03
555.597	26509.23
555.96	26547.65
556.323	26707.19
556.686	26702.22
557.05	26752.16
557.413	26821.31
557.776	26767.76
558.139	26837.36
558.502	26884.14
558.865	26801.65
559.228	26913.97
559.59	26850.24
559.953	26939.5
560.316	27158.93
560.679	26976.79
561.041	27207.29
561.404	27165.03
561.767	27347.4
562.129	27160.29
562.492	27451.58
562.854	27245.03
563.217	27301.3
563.579	27355.99
563.941	27378.36
564.304	27569.09
564.666	27751.91
565.028	27673.95
565.39	27592.14
565.753	27830.55
566.115	27926.14
566.477	27979.7
566.839	28059.25
567.201	28376.75
567.563	28209.3
567.925	28272.12
568.287	28367.94
568.648	28444.77
569.01	28530.42
569.372	28627.14
569.734	28626.92
570.095	28770.64
570.457	28859.23
570.819	28843.63
571.18	28855.61
571.542	29003.63
571.903	29116.4
572.265	29118.88
572.626	29405.2
572.987	29259.67
573.349	29589.6
573.71	29435.94
574.071	29717.51
574.432	29866.88
574.794	29897.39
575.155	29973.32
575.516	29879.31
575.877	30027.11
576.238	29950.5
576.599	30201.11
576.96	30231.17
577.32	30364.05
577.681	30271.17
578.042	30558.39
578.403	30620.31
578.763	30497.38
579.124	30680.65
579.485	30883.35
579.845	30828.21
580.206	30764.49
580.566	30791.15
580.927	30960.41
581.287	31075.89
581.648	31006.52
582.008	31118.15
582.368	31140.52
582.728	31307.07
583.089	31274.53
583.449	31363.34
583.809	31346.85
584.169	31506.16
584.529	31390.69
584.889	31610.57
585.249	31517.69
585.609	31410.12
585.969	31792.48
586.329	31711.58
586.688	31869.09
587.048	31873.61
587.408	31805.59
587.768	31806.49
588.127	31785.93
588.487	32075.87
588.846	32209.42
589.206	31933.5
589.565	32038.58
589.925	32369.19
590.284	32295.52
590.643	32301.85
591.003	32274.73
591.362	32540.49
591.721	32480.83
592.08	32576.42
592.44	32584.1
592.799	32634.27
593.158	32680.37
593.517	32612.8
593.876	32700.26
594.235	32860.93
594.593	32729.63
594.952	32938.44
595.311	32973.47
595.67	33053.69
596.029	33269.96
596.387	33261.82
596.746	33339.79
597.104	33116.97
597.463	33127.82
597.822	33374.59
598.18	33312.44
598.538	33343.85
598.897	33594.02
599.255	33350.86
599.613	33722.38
599.972	33631.76
600.33	33632.21
600.688	33733.45
601.046	33796.95
601.404	33991.52
601.762	33889.6
602.12	34052.08
602.478	34067.9
602.836	34047.34
603.194	33916.27
603.552	34135.47
603.91	34024.06
604.268	34282.36
604.625	34112.87
604.983	34200.33
605.341	34267.22
605.698	34523.26
606.056	34684.38
606.413	34400.78
606.771	34636.02
607.128	34601.9
607.485	34519.87
607.843	34519.87
608.2	34824.04
608.557	34945.17
608.914	34950.59
609.272	35072.85
609.629	35082.11
609.986	35232.62
610.343	35179.96
610.7	35452.95
611.057	35313.07
611.414	35283.24
611.771	35650.69
612.127	35645.04
612.484	35620.63
612.841	35658.6
613.198	35576.56
613.554	35692.04
613.911	35993.05
614.267	35934.07
614.624	35887.06
614.98	36019.49
615.337	36199.83
615.693	36373.61
616.05	36337.67
616.406	36509.65
616.762	36225.81
617.118	36356.66
617.475	36291.8
617.831	36457.67
618.187	36524.56
618.543	36593.04
618.899	36862.63
619.255	36678
619.611	36682.07
619.967	36862.86
620.323	36963.19
620.678	36913.48
621.034	36776.08
621.39	36892.01
621.746	36922.29
622.101	37352.56
622.457	37054.94
622.812	37068.95
623.168	37256.29
623.523	37195.51
623.879	37277.99
624.234	37280.02
624.589	37263.53
624.945	37216.97
625.3	37292
625.655	37378.33
626.01	37379
626.365	37407.93
626.72	37314.15
627.075	37267.82
627.43	37310.53
627.785	37219.01
628.14	37332.68
628.495	37410.41
628.85	37435.27
629.205	37224.88
629.559	37402.51
629.914	37189.18
630.269	37356.86
630.623	36961.84
630.978	37041.16
631.332	37251.77
631.687	37181.49
632.041	37167.94
632.396	37042.74
632.75	37049.75
633.104	37150.31
633.459	36943.53
633.813	36960.48
634.167	36758
634.521	37005.45
634.875	36849.98
635.229	36804.1
635.583	36594.84
635.937	36674.84
636.291	36785.35
636.645	36604.33
636.999	36522.98
637.352	36727.72
637.706	36321.4
638.06	36454.51
638.413	36412.93
638.767	36325.92
639.121	36297
639.474	36328.86
639.828	36357.56
640.181	36217
640.534	36405.02
640.888	36170.67
641.241	35973.84
641.594	36104.01
641.947	36197.34
642.301	36093.39
642.654	36292.93
643.007	36165.25
643.36	36132.03
643.713	36092.71
644.066	36262.2
644.419	35934.75
644.771	35578.15
645.124	35472.16
645.477	35254.54
645.83	35192.85
646.182	35122.34
646.535	35185.39
646.888	35105.62
647.24	35048.89
647.593	35200.3
647.945	35185.39
648.298	35204.6
648.65	34901.78
649.002	34972.51
649.355	34897.03
649.707	34639.87
650.059	34733.65
650.411	35231.49
650.763	35547.86
651.115	35994.18
651.467	35675.32
651.819	35806.16
652.171	35655.21
652.523	35752.83
652.875	35771.59
653.227	35667.64
653.578	35967.97
653.93	35756.22
654.282	35714.64
654.633	35810
654.985	35689.1
655.337	35915.31
655.688	35768.2
656.039	35929.1
656.391	35661.99
656.742	35680.29
657.094	35821.98
657.445	35920.96
657.796	35882.09
658.147	35760.74
658.498	35877.35
658.849	35959.61
659.2	35860.17
659.551	35907.4
659.902	36201.41
660.253	35902.43
660.604	36214.74
660.955	36025.37
661.306	36131.35
661.656	36075.76
662.007	36195.53
662.358	36092.71
662.708	36181.29
663.059	36256.09
663.409	36039.38
663.76	36323.44
664.11	36193.05
664.461	36324.57
664.811	36431.46
665.161	36346.94
665.511	36292.93
665.862	36324.57
666.212	36386.49
666.562	36477.33
666.912	36351.46
667.262	36184.01
667.612	36274.63
667.962	36350.78
668.312	36337.9
668.662	36460.16
669.011	36240.95
669.361	36355.75
669.711	36409.54
670.06	36208.86
670.41	36243.21
670.76	36351.91
671.109	36359.14
671.459	36312.36
671.808	36363.44
672.157	36357.33
672.507	36249.32
672.856	36104.01
673.205	36103.78
673.554	36301.97
673.904	36057.91
674.253	36393.49
674.602	36099.49
674.951	35806.84
675.3	35467.19
675.649	36124.35
675.998	36144.23
676.346	36087.74
676.695	36257
677.044	35926.39
677.393	36084.8
677.741	36120.05
678.09	35970.9
678.438	35868.53
678.787	36021.3
679.135	35793.28
679.484	35598.71
679.832	35778.37
680.181	35519.62
680.529	35658.6
680.877	35543.8
681.225	35495.66
681.573	35769.78
681.922	35457.02
682.27	35339.96
682.618	35394.87
682.966	35330.24
683.314	35236.91
683.661	35155.78
684.009	34966.64
684.357	34931.61
684.705	34750.6
685.053	34933.42
685.4	34747.43
685.748	34540.21
686.095	34580.43
686.443	34356.26
686.79	34355.58
687.138	34395.35
687.485	34395.58
687.832	34080.56
688.18	34123.04
688.527	33981.8
688.874	33838.08
689.221	33845.76
689.568	33690.74
689.915	33675.15
690.262	33680.12
690.609	33485.77
690.956	33267.25
691.303	33309.28
691.65	32967.37
691.997	33006.24
692.344	32961.94
692.69	32670.43
693.037	32756.75
693.383	32389.3
693.73	32508.4
694.077	32285.8
694.423	32398.34
694.769	32045.36
695.116	32052.82
695.462	31909.77
695.808	31746.16
696.155	31712.26
696.501	31431.59
696.847	31578.48
697.193	31195.44
697.539	31105.27
697.885	30947.53
698.231	30832.28
698.577	30849.01
698.923	30628.9
699.269	30403.59
699.614	30364.95
699.96	30228
700.306	30201.11
700.651	30051.51
700.997	29860.78
701.342	29849.71
701.688	29672.76
702.033	29637.51
702.379	29534.69
702.724	29389.61
703.069	29339.21
703.415	29015.16
703.76	28954.82
704.105	28892.22
704.45	28791.43
704.795	28738.33
705.14	28542.85
705.485	28533.81
705.83	28370.43
706.175	28342.18
706.52	28361.61
706.865	28091.11
707.209	28051.56
707.554	27973.83
707.899	27964.79
708.243	27813.15
708.588	27664
708.932	27583.1
709.277	27601.41
709.621	27487.96
709.966	27352.37
710.31	27344.92
710.654	27160.74
710.998	27304.69
711.342	27192.38
711.687	27026.51
712.031	27059.95
712.375	26996.68
712.719	26885.95
713.063	26751.26
713.407	26933.4
713.75	26790.58
714.094	26733.63
714.438	26675.78
714.782	26686.63
715.125	26409.57
715.469	26680.98
715.812	26339.29
716.156	26483.92
716.499	26394.89
716.843	26470.36
717.186	26310.37
717.53	26487.54
717.873	26394.89
718.216	26361.21
718.559	26285.51
718.902	26041.9
719.246	26145.17
719.589	26090.71
719.932	25992.41
720.275	26169.58
720.617	26090.49
720.96	26015.91
721.303	26160.09
721.646	26107.21
721.989	25955.8
722.331	26077.38
722.674	26086.42
723.016	26181.11
723.359	26078.51
723.701	26010.71
724.044	25906.08
724.386	25963.94
724.729	25907.89
725.071	26108.56
725.413	25982.92
725.755	25969.13
726.097	25897.5
726.439	25876.25
726.782	25836.48
727.124	26005.97
727.465	26040.09
727.807	25987.89
728.149	25962.81
728.491	26029.47
728.833	26065.63
729.175	25964.84
729.516	26009.58
729.858	26053.43
730.199	26118.96
730.541	25989.02
730.882	26009.36
731.224	26189.69
731.565	26106.53
731.906	26197.83
732.248	26242.57
732.589	26119.86
732.93	26110.82
733.271	26183.82
733.612	26257.71
733.953	26396.92
734.294	26277.37
734.635	26290.26
734.976	26555.33
735.317	26372.96
735.658	26482.11
735.999	26502
736.339	26504.03
736.68	26711.71
737.021	26654.99
737.361	26651.83
737.702	26908.09
738.042	26740.64
738.383	26942.67
738.723	27100.86
739.063	26874.19
739.404	27153.51
739.744	27270.12
740.084	27151.02
740.424	27298.82
740.764	27326.16
741.104	27559.83
741.444	27464.91
741.784	27660.61
742.124	27691.35
742.464	27855.19
742.804	27891.79
743.143	27968.18
743.483	28177.66
743.823	28146.03
744.162	28207.49
744.502	28543.53
744.841	28434.38
745.181	28769.96
745.52	28714.82
745.86	28941.71
746.199	29031.65
746.538	29141.03
746.877	29353.45
747.216	29527.46
747.556	29574.46
747.895	29691.52
748.234	29852.65
748.573	29992.98
748.911	30164.73
749.25	30225.52
749.589	30415.8
749.928	30651.5
750.267	30846.29
750.605	31013.52
750.944	31227.3
751.283	31295.1
751.621	31615.09
751.96	31629.1
752.298	31757.23
752.636	32033.61
752.975	32252.13
753.313	32283.09
753.651	32662.97
753.989	32667.49
754.327	33046.24
754.666	32902.96
