Data from 15-5210_FLMS001491_005.txt Node
Date: Thu Apr 19 16:48:22 BST 2018
User: hsy
Spectrometer: FLMS00149
Trigger mode: 0
Integration Time (sec): 1.000000E-2
Scans to average: 10
Electric dark correction enabled: true
Nonlinearity correction enabled: false
Boxcar width: 0
XAxis mode: Wavelengths
Number of Pixels in Spectrum: 2048
>>>>>Begin Spectral Data<<<<<
341.393	-0.16
341.776	-0.16
342.16	-0.16
342.543	-58.46
342.927	-74.73
343.31	-89.42
343.693	-69.98
344.077	-69.08
344.46	-39.48
344.843	-72.7
345.226	-54.84
345.61	-45.35
345.993	-30.89
346.376	13.18
346.759	9.11
347.142	23.8
347.525	51.59
347.908	68.32
348.291	90.24
348.674	101.76
349.057	113.74
349.44	132.95
349.823	138.82
350.206	181.08
350.588	211.82
350.971	237.8
351.354	250.23
351.737	263.34
352.119	282.78
352.502	295.43
352.884	312.15
353.267	319.16
353.65	324.81
354.032	321.42
354.414	338.82
354.797	347.41
355.179	346.5
355.562	345.37
355.944	373.85
356.326	372.04
356.709	392.83
357.091	373.85
357.473	383.56
357.855	361.87
358.238	386.95
358.62	382.43
359.002	374.07
359.384	382.43
359.766	362.09
360.148	394.64
360.53	399.83
360.912	367.97
361.294	377.46
361.676	367.74
362.057	344.02
362.439	373.17
362.821	372.26
363.203	372.04
363.584	346.5
363.966	365.48
364.348	364.13
364.729	356.9
365.111	360.74
365.493	372.94
365.874	356.9
366.256	372.26
366.637	359.38
367.019	359.16
367.4	381.08
367.781	348.54
368.163	347.63
368.544	358.71
368.925	351.93
369.306	365.71
369.688	358.48
370.069	355.77
370.45	370.68
370.831	360.06
371.212	353.96
371.593	377.46
371.974	341.76
372.355	386.95
372.736	357.35
373.117	368.87
373.498	389.89
373.879	367.29
374.26	389.66
374.641	367.29
375.021	358.03
375.402	386.05
375.783	377.69
376.163	415.43
376.544	398.03
376.925	391.7
377.305	398.48
377.686	389.21
378.066	405.71
378.447	405.26
378.827	373.85
379.208	421.08
379.588	405.94
379.968	402.77
380.349	391.7
380.729	408.2
381.109	412.94
381.489	423.11
381.87	400.29
382.25	429.44
382.63	425.37
383.01	421.75
383.39	436.9
383.77	425.82
384.15	427.63
384.53	436.22
384.91	431.47
385.29	445.71
385.67	448.19
386.049	443.22
386.429	461.08
386.809	437.57
387.189	443.9
387.568	445.71
387.948	439.16
388.328	468.76
388.707	483.67
389.087	464.24
389.466	479.83
389.846	470.34
390.225	484.8
390.605	490.23
390.984	472.37
391.363	488.87
391.743	499.72
392.122	519.83
392.501	515.31
392.881	514.63
393.26	498.36
393.639	522.09
394.018	542.2
394.397	538.81
394.776	509.44
395.155	543.11
395.534	533.62
395.913	539.27
396.292	551.69
396.671	548.76
397.05	540.17
397.429	560.28
397.808	561.64
398.186	573.84
398.565	568.42
398.944	567.29
399.323	603.22
399.701	583.56
400.08	577.23
400.458	618.81
400.837	616.78
401.215	641.86
401.594	615.42
401.972	632.82
402.351	629.21
402.729	640.73
403.107	606.16
403.486	629.66
403.864	642.54
404.242	645.93
404.62	648.19
404.999	660.17
405.377	676.21
405.755	704.68
406.133	690.9
406.511	718.92
406.889	726.83
407.267	705.36
407.645	727.28
408.023	746.94
408.401	745.36
408.779	773.61
409.156	777.68
409.534	766.6
409.912	785.36
410.29	792.59
410.667	829.88
411.045	830.33
411.422	861.06
411.8	865.13
412.178	880.05
412.555	864.23
412.933	892.25
413.31	881.4
413.687	927.05
414.065	937.45
414.442	948.75
414.819	933.15
415.197	962.76
415.574	980.84
415.951	994.17
416.328	1004.11
416.705	1006.37
417.082	1016.32
417.46	1033.72
417.837	1032.81
418.214	1055.41
418.591	1068.97
418.967	1079.82
419.344	1106.71
419.721	1111.68
420.098	1108.29
420.475	1113.26
420.852	1143.54
421.228	1134.5
421.605	1156.65
421.982	1175.63
422.358	1177.44
422.735	1189.19
423.111	1174.95
423.488	1215.86
423.864	1236.65
424.241	1233.03
424.617	1245.01
424.994	1267.61
425.37	1319.36
425.746	1294.73
426.123	1320.94
426.499	1304.22
426.875	1339.24
427.251	1351
427.627	1396.42
428.003	1401.84
428.379	1424.67
428.756	1447.94
429.132	1477.32
429.507	1446.81
429.883	1500.6
430.259	1498.79
430.635	1543.98
431.011	1554.83
431.387	1564.1
431.763	1607.71
432.138	1624.43
432.514	1631.89
432.89	1689.74
433.265	1687.48
433.641	1720.7
434.016	1705.79
434.392	1752.34
434.767	1766.58
435.143	1766.13
435.518	1829.4
435.894	1838.21
436.269	1882.28
436.644	1911.43
437.02	1915.05
437.395	1937.65
437.77	1943.97
438.145	1985.78
438.52	1975.39
438.895	2027.59
439.271	1992.79
439.646	2060.81
440.021	2051.54
440.395	2103.07
440.77	2069.17
441.145	2144.87
441.52	2185.55
441.895	2195.95
442.27	2176.96
442.645	2199.11
443.019	2218.09
443.394	2212.67
443.769	2232.55
444.143	2200.46
444.518	2251.31
444.892	2284.98
445.267	2275.72
445.641	2308.94
446.016	2339.44
446.39	2389.39
446.764	2358.2
447.139	2358.43
447.513	2378.54
447.887	2398.2
448.262	2422.61
448.636	2422.61
449.01	2473.9
449.384	2486.11
449.758	2510.51
450.132	2514.13
450.506	2567.23
450.88	2555.94
451.254	2569.95
451.628	2622.83
452.002	2623.28
452.376	2666.22
452.75	2704.86
453.123	2712.32
453.497	2781.69
453.871	2767.23
454.244	2851.75
454.618	2840.45
454.992	2892.65
455.365	2911.18
455.739	2975.81
456.112	3042.48
456.486	3049.48
456.859	3078.63
457.232	3125.19
457.606	3125.64
457.979	3153.21
458.352	3280.44
458.725	3300.1
459.099	3342.58
459.472	3381
459.845	3424.61
460.218	3430.04
460.591	3488.79
460.964	3546.87
461.337	3592.29
461.71	3657.6
462.083	3655.12
462.456	3702.8
462.829	3692.63
463.201	3794.1
463.574	3790.93
463.947	3854.66
464.32	3924.71
464.692	3930.36
465.065	3974.88
465.438	4001.77
465.81	4065.73
466.183	4110.7
466.555	4193.63
466.928	4239.96
467.3	4238.15
467.672	4312.95
468.045	4359.96
468.417	4387.98
468.789	4434.08
469.161	4510.01
469.534	4525.15
469.906	4657.8
470.278	4690.79
470.65	4740.96
471.022	4799.27
471.394	4900.05
471.766	4929.66
472.138	4999.04
472.51	5129.88
472.882	5161.74
473.253	5142.08
473.625	5257.11
473.997	5401.74
474.369	5408.06
474.74	5479.93
475.112	5616.42
475.484	5658.68
475.855	5739.13
476.227	5778.22
476.598	5893.02
476.97	6059.57
477.341	6173.02
477.713	6260.47
478.084	6319
478.455	6453.69
478.827	6520.8
479.198	6655.26
479.569	6732.1
479.94	6901.81
480.311	6934.13
480.682	7115.59
481.053	7257.51
481.424	7372.76
481.795	7522.81
482.166	7608.91
482.537	7722.58
482.908	7861.11
483.279	7965.51
483.65	8149.69
484.021	8275.33
484.391	8388.55
484.762	8518.94
485.133	8683.23
485.503	8768.43
485.874	8945.37
486.244	9036.67
486.615	9235.53
486.985	9423.1
487.356	9565.02
487.726	9659.48
488.097	9861.51
488.467	9947.83
488.837	10162.74
489.207	10278.67
489.578	10417.65
489.948	10604.09
490.318	10707.36
490.688	10790.3
491.058	11040.91
491.428	11262.15
491.798	11387.79
492.168	11675.02
492.538	11728.58
492.908	11911.17
493.278	12012.18
493.648	12211.5
494.017	12367.88
494.387	12502.34
494.757	12556.8
495.126	12719.28
495.496	12858.04
495.866	13026.17
496.235	13170.35
496.605	13320.4
496.974	13440.85
497.344	13572.6
497.713	13725.59
498.082	13886.03
498.452	13945.69
498.821	14158.57
499.19	14220.04
499.559	14408.05
499.928	14532.12
500.298	14608.5
500.667	14787.93
501.036	14703.41
501.405	15009.85
501.774	14996.51
502.143	15238.77
502.512	15384.3
502.88	15506.56
503.249	15520.34
503.618	15648.47
503.987	15789.71
504.356	16001.01
504.724	16010.05
505.093	16186.54
505.462	16259.08
505.83	16420.2
506.199	16510.37
506.567	16679.18
506.936	16680.31
507.304	16985.39
507.672	17020.64
508.041	17178.15
508.409	17242.78
508.777	17417.69
509.145	17637.57
509.514	17626.73
509.882	17789.66
510.25	17862.43
510.618	18017
510.986	17991.24
511.354	18173.6
511.722	18409.3
512.09	18505.57
512.458	18416.99
512.826	18739.92
513.193	18877.77
513.561	18892.23
513.929	18981.94
514.297	19135.61
514.664	19224.2
515.032	19372.89
515.4	19431.88
515.767	19503.51
516.135	19646.33
516.502	19557.3
516.869	19921.58
517.237	20071.18
517.604	19963.61
517.972	20280.67
518.339	20286.77
518.706	20322.02
519.073	20441.12
519.44	20619.87
519.808	20735.8
520.175	20838.84
520.542	21002.68
520.909	21155.9
521.276	21264.37
521.643	21540.97
522.009	21593.4
522.376	21709.1
522.743	21828.42
523.11	22039.27
523.477	22104.12
523.843	22237.23
524.21	22567.16
524.577	22611.68
524.943	22719.93
525.31	22807.15
525.676	23073.81
526.043	23206.92
526.409	23257.76
526.776	23440.36
527.142	23578.21
527.508	23642.39
527.874	23826.56
528.241	23867.01
528.607	23943.85
528.973	24215.25
529.339	24267.23
529.705	24423.38
530.071	24507.9
530.437	24667.9
530.803	24714.9
531.169	24886.87
531.535	24914.67
531.901	25003.48
532.267	25024.5
532.632	25245.96
532.998	25359.86
533.364	25427.65
533.73	25457.71
534.095	25638.49
534.461	25653.18
534.826	25804.59
535.192	25818.83
535.557	25955.55
535.923	25852.72
536.288	26074.87
536.653	26003.91
537.019	26067.18
537.384	26090.46
537.749	26149.44
538.114	26134.75
538.479	26160.06
538.845	26216.78
539.21	26133.85
539.575	26205.94
539.94	26308.76
540.305	26419.04
540.67	26267.4
541.034	26402.77
541.399	26327.51
541.764	26306.95
542.129	26449.77
542.494	26431.47
542.858	26418.13
543.223	26450.9
543.587	26618.58
543.952	26490.9
544.316	26631.91
544.681	26549.88
545.045	26625.59
545.41	26697
545.774	26511.01
546.138	26621.97
546.503	26707.62
546.867	26684.57
547.231	26724.79
547.595	26703.32
547.959	26709.65
548.324	26646.15
548.688	26677.34
549.052	26627.17
549.416	26742.64
549.779	26711.91
550.143	26750.55
550.507	26740.61
550.871	26733.83
551.235	26743.1
551.599	26910.55
551.962	26772.7
552.326	26791.46
552.689	26843.21
553.053	26727.5
553.417	26824.68
553.78	27017.67
554.143	26985.58
554.507	26933.37
554.87	26925.46
555.234	27186.02
555.597	26923.88
555.96	26963.2
556.323	27104.44
556.686	26949.64
557.05	27138.57
557.413	27147.61
557.776	27075.29
558.139	27326.36
558.502	27171.56
558.865	27132.24
559.228	27233.93
559.59	27291.1
559.953	27306.02
560.316	27462.4
560.679	27454.72
561.041	27477.31
561.404	27633.92
561.767	27728.61
562.129	27479.12
562.492	27683.64
562.854	27694.26
563.217	27700.81
563.579	27979.45
563.941	27941.26
564.304	27953.01
564.666	28222.61
565.028	28023.74
565.39	28146
565.753	28332.88
566.115	28268.48
566.477	28389.83
566.839	28399.32
567.201	28724.51
567.563	28584.86
567.925	28703.72
568.287	28709.6
568.648	28799.77
569.01	28999.08
569.372	29141.23
569.734	29136.93
570.095	29309.58
570.457	29387.32
570.819	29381.9
571.18	29368.11
571.542	29480.2
571.903	29497.83
572.265	29711.83
572.626	29804.48
572.987	29786.63
573.349	29895.78
573.71	30023.24
574.071	30204.7
574.432	30175.77
574.794	30401.08
575.155	30409.21
575.516	30442.43
575.877	30620.51
576.238	30611.24
576.599	30583.45
576.96	30694.18
577.32	30794.74
577.681	30865.25
578.042	31143.21
578.403	31126.26
578.763	31232.7
579.124	31176.43
579.485	31302.52
579.845	31344.11
580.206	31367.16
580.566	31296.2
580.927	31432.46
581.287	31484.89
581.648	31536.87
582.008	31634.04
582.368	31707.94
582.728	31740.25
583.089	31764.43
583.449	31833.36
583.809	31801.49
584.169	32048.49
584.529	32006.91
584.889	32258.21
585.249	32067.93
585.609	31858.89
585.969	32292.78
586.329	32098.89
586.688	32352.67
587.048	32390.41
587.408	32355.38
587.768	32346.11
588.127	32551.08
588.487	32458.43
588.846	32686.89
589.206	32413.91
589.565	32492.55
589.925	32788.81
590.284	32738.87
590.643	32795.59
591.003	32911.07
591.362	33017.73
591.721	33049.82
592.08	32838.76
592.44	33319.87
592.799	33164.17
593.158	33216.82
593.517	33157.39
593.876	33335.01
594.235	33370.27
594.593	33298.4
594.952	33540.43
595.311	33421.34
595.67	33500.43
596.029	33672.63
596.387	33920.99
596.746	33932.29
597.104	33834.89
597.463	33754.44
597.822	33967.31
598.18	33902.91
598.538	34040.98
598.897	34112.85
599.255	34016.8
599.613	34287.3
599.972	34290.24
600.33	34290.92
600.688	34236.91
601.046	34387.64
601.404	34560.74
601.762	34452.5
602.12	34613.62
602.478	34713.28
602.836	34755.09
603.194	34576.79
603.552	34709.21
603.91	34638.03
604.268	34904.24
604.625	34905.14
604.983	35012.48
605.341	34782.66
605.698	35094.97
606.056	35277.11
606.413	35059.49
606.771	35376.32
607.128	35273.27
607.485	35246.6
607.843	35219.71
608.2	35360.72
608.557	35513.04
608.914	35470.1
609.272	35699.47
609.629	35887.04
609.986	35809.3
610.343	35835.29
610.7	36088.39
611.057	36038.67
611.414	36045.22
611.771	36116.18
612.127	36217.65
612.484	36252
612.841	36468.94
613.198	36339.45
613.554	36274.37
613.911	36609.5
614.267	36619.9
614.624	36543.06
614.98	36679.11
615.337	36904.41
615.693	36881.13
616.05	36915.03
616.406	37105.31
616.762	36941.02
617.118	36995.93
617.475	36993.22
617.831	37263.95
618.187	37310.05
618.543	37327.22
618.899	37490.38
619.255	37483.15
619.611	37341.24
619.967	37598.18
620.323	37633.21
620.678	37712.75
621.034	37550.04
621.39	37565.41
621.746	37680.89
622.101	38142.12
622.457	37762.02
622.812	37924.05
623.168	37900.77
623.523	37952.97
623.879	38014.44
624.234	37769.25
624.589	38029.58
624.945	37956.59
625.3	37990.03
625.655	38032.74
626.01	38062.35
626.365	38091.72
626.72	37996.36
627.075	37940.32
627.43	38046.08
627.785	38124.04
628.14	37970.15
628.495	38029.81
628.85	37909.36
629.205	37903.71
629.559	38047.66
629.914	37948.9
630.269	37954.78
630.623	37581
630.978	37747.78
631.332	38020.54
631.687	38128.33
632.041	37923.59
632.396	37929.69
632.75	37719.76
633.104	37875.01
633.459	37683.6
633.813	37741.45
634.167	37725.18
634.521	37709.59
634.875	37723.37
635.229	37535.81
635.583	37376.04
635.937	37384.4
636.291	37434.57
636.645	37326.09
636.999	37157.51
637.352	37363.38
637.706	37073.67
638.06	37164.29
638.413	37139.66
638.767	37084.29
639.121	37143.27
639.474	37073.45
639.828	36992.09
640.181	36945.54
640.534	37045.88
640.888	36897.86
641.241	36730.18
641.594	36753.45
641.947	37004.97
642.301	36840.01
642.654	36992.09
643.007	36932.43
643.36	36903.96
643.713	36833.45
644.066	36859.67
644.419	36846.79
644.771	36476.4
645.124	36113.25
645.477	35936.07
645.83	35942.63
646.182	35897.88
646.535	35826.25
646.888	36072.57
647.24	35769.75
647.593	36047.03
647.945	35874.16
648.298	35805.68
648.65	35628.29
649.002	35433.49
649.355	35501.51
649.707	35340.61
650.059	35468.52
650.411	35947.15
650.763	36218.55
651.115	36664.64
651.467	36499.45
651.819	36489.05
652.171	36367.7
652.523	36356.18
652.875	36581.03
653.227	36445.21
653.578	36640.46
653.93	36573.8
654.282	36501.71
654.633	36395.72
654.985	36485.21
655.337	36626.68
655.688	36484.99
656.039	36700.8
656.391	36197.31
656.742	36471.43
657.094	36474.14
657.445	36631.65
657.796	36594.14
658.147	36570.86
658.498	36659.67
658.849	36806.56
659.2	36586.68
659.551	36639.79
659.902	36836.62
660.253	36715.49
660.604	36881.13
660.955	36750.06
661.306	36960.45
661.656	36845.66
662.007	36822.15
662.358	36926.78
662.708	36999.78
663.059	36902.38
663.409	36688.6
663.76	37038.64
664.11	37040
664.461	36961.36
664.811	37061.92
665.161	37016.95
665.511	36933.56
665.862	37151.18
666.212	37054.46
666.562	37182.37
666.912	37079.77
667.262	37087.01
667.612	37047.01
667.962	37041.81
668.312	37009.27
668.662	37297.4
669.011	37120
669.361	37109.38
669.711	37198.41
670.06	37017.63
670.41	37044.52
670.76	37000
671.109	37064.86
671.459	36978.99
671.808	37051.07
672.157	37099.43
672.507	36883.39
672.856	36893.56
673.205	36928.14
673.554	36938.53
673.904	36830.74
674.253	37030.74
674.602	36787.35
674.951	36427.14
675.3	36179.23
675.649	36757.52
675.998	36747.13
676.346	36549.17
676.695	36774.7
677.044	36550.75
677.393	36584.42
677.741	36777.63
678.09	36531.77
678.438	36452.9
678.787	36520.92
679.135	36456.97
679.484	36265.33
679.832	36491.54
680.181	36253.81
680.529	36342.39
680.877	36223.75
681.225	36206.58
681.573	36457.87
681.922	36100.82
682.27	36085.68
682.618	36027.6
682.966	35921.84
683.314	35961.61
683.661	35927.26
684.009	35666.25
684.357	35678.68
684.705	35573.6
685.053	35510.1
685.4	35306.94
685.748	35238.01
686.095	35213.61
686.443	35102.88
686.79	35108.53
687.138	35149.43
687.485	35086.61
687.832	34798.03
688.18	34800.29
688.527	34568.43
688.874	34620.86
689.221	34587.41
689.568	34443.01
689.915	34291.82
690.262	34394.65
690.609	34189
690.956	33953.3
691.303	33925.05
691.65	33660.43
691.997	33662.01
692.344	33598.06
692.69	33332.75
693.037	33495.91
693.383	33239.65
693.73	33224.96
694.077	32888.02
694.423	32814.8
694.769	32723.28
695.116	32683.51
695.462	32475.15
695.808	32482.61
696.155	32402.16
696.501	32067.02
696.847	32037.19
697.193	31882.4
697.539	31912.45
697.885	31739.58
698.231	31437.44
698.577	31435.63
698.923	31290.1
699.269	31140.27
699.614	31027.73
699.96	30803.1
700.306	30914.51
700.651	30531.92
700.997	30511.36
701.342	30511.13
701.688	30305.26
702.033	30184.14
702.379	30232.04
702.724	30127.41
703.069	30112.5
703.415	29778.5
703.76	29665.05
704.105	29710.48
704.45	29538.95
704.795	29393.65
705.14	29220.55
705.485	29156.14
705.83	28936.03
706.175	28998.63
706.52	28944.17
706.865	28824.85
707.209	28752.53
707.554	28627.34
707.899	28620.11
708.243	28444.52
708.588	28449.27
708.932	28187.58
709.277	28381.92
709.621	28144.42
709.966	28121.59
710.31	27975.15
710.654	27820.13
710.998	27916.4
711.342	27794.59
711.687	27705.78
712.031	27572.23
712.375	27534.04
712.719	27505.34
713.063	27335.85
713.407	27632.11
713.75	27309.18
714.094	27396.41
714.438	27307.38
714.782	27132.69
715.125	27102.18
715.469	27251.78
715.812	27086.59
716.156	26990.1
716.499	26983.32
716.843	27021.06
717.186	26918.91
717.53	27019.93
717.873	27084.56
718.216	26949.64
718.559	26862.19
718.902	26553.27
719.246	26795.75
719.589	26748.97
719.932	26627.39
720.275	26623.78
720.617	26713.94
720.96	26693.15
721.303	26699.03
721.646	26742.87
721.989	26685.7
722.331	26799.14
722.674	26696.32
723.016	26690.44
723.359	26596.89
723.701	26644.79
724.044	26472.59
724.386	26486.15
724.729	26694.28
725.071	26559.82
725.413	26602.08
725.755	26610.44
726.097	26427.85
726.439	26557.34
726.782	26554.17
727.124	26636.88
727.465	26520.05
727.807	26524.34
728.149	26677.11
728.491	26531.12
728.833	26678.92
729.175	26596.89
729.516	26537.9
729.858	26587.17
730.199	26843.21
730.541	26642.31
730.882	26527.96
731.224	26708.52
731.565	26665.13
731.906	26751.46
732.248	26890.44
732.589	26814.73
732.93	26685.24
733.271	26659.93
733.612	26735.19
733.953	26861.74
734.294	26882.3
734.635	26921.17
734.976	27056.76
735.317	26943.09
735.658	26951.68
735.999	26974.95
736.339	27098.57
736.68	27071.22
737.021	27101.28
737.361	27178.57
737.702	27277.09
738.042	27292.01
738.383	27432.57
738.723	27563.19
739.063	27399.8
739.404	27572.45
739.744	27665.56
740.084	27655.84
740.424	27824.65
740.764	27786.01
741.104	27947.81
741.444	28001.37
741.784	28049.5
742.124	28162.72
742.464	28198.88
742.804	28404.97
743.143	28518.87
743.483	28543.5
743.823	28542.6
744.162	28696.04
744.502	28946.43
744.841	28949.37
745.181	29170.6
745.52	29222.35
745.86	29289.7
746.199	29474.1
746.538	29665.51
746.877	29864.37
747.216	29912.28
747.556	30021.2
747.895	30093.29
748.234	30233.17
748.573	30533.05
748.911	30517.69
749.25	30911.8
749.589	30710.9
749.928	31041.06
750.267	31321.96
750.605	31410.32
750.944	31579.58
751.283	31712.01
751.621	31913.81
751.96	31915.39
752.298	32180.92
752.636	32442.61
752.975	32541.81
753.313	32631.98
753.651	32999.2
753.989	33070.16
754.327	33311.96
