Data from 15-5210_FLMS001491_009.txt Node
Date: Thu Apr 19 16:48:33 BST 2018
User: hsy
Spectrometer: FLMS00149
Trigger mode: 0
Integration Time (sec): 1.000000E-2
Scans to average: 10
Electric dark correction enabled: true
Nonlinearity correction enabled: false
Boxcar width: 0
XAxis mode: Wavelengths
Number of Pixels in Spectrum: 2048
>>>>>Begin Spectral Data<<<<<
341.393	-10.24
341.776	-10.24
342.16	-10.24
342.543	-54.08
342.927	-81.42
343.31	-82.1
343.693	-71.03
344.077	-69.9
344.46	-40.75
344.843	-66.96
345.226	-39.84
345.61	-20.64
345.993	-33.52
346.376	-3.46
346.759	6.03
347.142	12.13
347.525	53.04
347.908	43.54
348.291	76.31
348.674	106.37
349.057	130.77
349.44	125.58
349.823	129.19
350.206	169.19
350.588	231.34
350.971	236.53
351.354	243.54
351.737	264.56
352.119	284.67
352.502	295.51
352.884	286.02
353.267	320.6
353.65	316.31
354.032	343.88
354.414	344.55
354.797	351.56
355.179	351.33
355.562	335.97
355.944	363.54
356.326	366.7
356.709	359.92
357.091	359.47
357.473	378
357.855	368.06
358.238	385
358.62	375.74
359.002	382.07
359.384	398.11
359.766	381.39
360.148	378.22
360.53	361.95
360.912	369.86
361.294	369.64
361.676	371.45
362.057	369.86
362.439	349.52
362.821	369.86
363.203	361.73
363.584	362.41
363.966	355.4
364.348	375.06
364.729	352.24
365.111	367.6
365.493	384.78
365.874	359.92
366.256	356.3
366.637	357.43
367.019	354.5
367.4	352.69
367.781	350.88
368.163	362.86
368.544	361.5
368.925	365.34
369.306	361.05
369.688	364.89
370.069	367.6
370.45	373.03
370.831	371.9
371.212	377.32
371.593	367.15
371.974	361.05
372.355	378.9
372.736	356.08
373.117	365.12
373.498	366.7
373.879	366.02
374.26	371.22
374.641	342.75
375.021	342.07
375.402	368.96
375.783	364.44
376.163	385
376.544	416.64
376.925	397.21
377.305	379.81
377.686	397.89
378.066	402.18
378.447	416.87
378.827	403.99
379.208	384.1
379.588	396.76
379.968	409.18
380.349	392.91
380.729	389.98
381.109	390.88
381.489	407.83
381.87	416.87
382.25	423.2
382.63	415.29
383.01	438.56
383.39	435.4
383.77	416.87
384.15	425.91
384.53	402.4
384.91	417.09
385.29	432.91
385.67	441.5
386.049	450.54
386.429	450.76
386.809	454.83
387.189	436.98
387.568	476.53
387.948	460.03
388.328	449.18
388.707	474.95
389.087	467.04
389.466	487.6
389.846	487.83
390.225	485.79
390.605	494.38
390.984	487.6
391.363	483.76
391.743	491.44
392.122	500.26
392.501	491.44
392.881	493.7
393.26	515.62
393.639	498.9
394.018	502.52
394.397	535.73
394.776	516.98
395.155	533.7
395.534	508.62
395.913	529.86
396.292	515.62
396.671	548.84
397.05	541.38
397.429	564.89
397.808	592.23
398.186	575.73
398.565	580.25
398.944	574.6
399.323	570.76
399.701	577.09
400.08	587.03
400.458	575.06
400.837	580.48
401.215	600.37
401.594	593.59
401.972	587.03
402.351	630.87
402.729	638.1
403.107	629.74
403.486	620.7
403.864	638.33
404.242	634.94
404.62	636.07
404.999	637.43
405.377	685.56
405.755	653.25
406.133	686.69
406.511	692.57
406.889	689.4
407.267	704.77
407.645	730.08
408.023	737.31
408.401	745.67
408.779	743.86
409.156	777.31
409.534	802.17
409.912	814.6
410.29	791.77
410.667	831.09
411.045	848.72
411.422	821.15
411.8	837.87
412.178	852.79
412.555	888.49
412.933	895.05
413.31	884.65
413.687	934.37
414.065	925.78
414.442	943.86
414.819	929.62
415.197	982.28
415.574	975.5
415.951	961.94
416.328	979.56
416.705	997.87
417.082	1000.13
417.46	1003.74
417.837	1012.56
418.214	1050.75
418.591	1050.07
418.967	1063.63
419.344	1066.12
419.721	1079.9
420.098	1099.79
420.475	1088.04
420.852	1122.84
421.228	1129.39
421.605	1149.73
421.982	1141.14
422.358	1165.77
422.735	1172.55
423.111	1162.84
423.488	1200.12
423.864	1205.55
424.241	1233.34
424.617	1246.22
424.994	1237.86
425.37	1276.28
425.746	1275.38
426.123	1320.12
426.499	1299.1
426.875	1320.12
427.251	1329.84
427.627	1375.03
428.003	1399.89
428.379	1372.77
428.756	1431.76
429.132	1464.07
429.507	1474.24
429.883	1465.2
430.259	1486.9
430.635	1486.44
431.011	1514.01
431.387	1553.56
431.763	1601.92
432.138	1589.27
432.514	1621.36
432.89	1620.45
433.265	1667.23
433.641	1682.82
434.016	1676.72
434.392	1723.05
434.767	1785.65
435.143	1799.88
435.518	1782.48
435.894	1805.76
436.269	1814.12
436.644	1873.55
437.02	1892.76
437.395	1886.66
437.77	1912.2
438.145	1929.6
438.52	1936.6
438.895	2007.33
439.271	1973.44
439.646	2026.54
440.021	2047.33
440.395	2062.7
440.77	2040.78
441.145	2053.43
441.52	2113.77
441.895	2093.21
442.27	2124.62
442.645	2148.12
443.019	2154
443.394	2186.09
443.769	2202.36
444.143	2186.09
444.518	2252.53
444.892	2228.57
445.267	2252.53
445.641	2269.7
446.016	2280.55
446.39	2293.65
446.764	2332.52
447.139	2290.94
447.513	2349.92
447.887	2376.14
448.262	2349.7
448.636	2373.2
449.01	2432.41
449.384	2446.87
449.758	2468.79
450.132	2534.33
450.506	2522.8
450.88	2512.63
451.254	2544.5
451.628	2568.22
452.002	2595.79
452.376	2619.3
452.75	2668.56
453.123	2678.05
453.497	2694.32
453.871	2735
454.244	2813.64
454.618	2833.98
454.992	2859.29
455.365	2859.29
455.739	2937.25
456.112	2976.12
456.486	2989.46
456.859	2979.74
457.232	3106.29
457.606	3080.75
457.979	3116.23
458.352	3194.87
458.725	3193.29
459.099	3221.77
459.472	3294.31
459.845	3376.11
460.218	3391.7
460.591	3407.3
460.964	3423.79
461.337	3478.03
461.71	3597.8
462.083	3646.16
462.456	3604.58
462.829	3629.44
463.201	3711.7
463.574	3741.98
463.947	3804.12
464.32	3842.09
464.692	3901.52
465.065	3904.23
465.438	4009.99
465.81	4001.86
466.183	4005.93
466.555	4131.57
466.928	4174.06
467.3	4138.13
467.672	4254.96
468.045	4312.13
468.417	4309.19
468.789	4368.4
469.161	4417.89
469.534	4435.74
469.906	4580.6
470.278	4593.48
470.65	4618.34
471.022	4702.4
471.394	4783.31
471.766	4843.42
472.138	4934.94
472.51	5016.75
472.882	5081.15
473.253	5084.54
473.625	5226.01
473.997	5346.91
474.369	5284.99
474.74	5419.67
475.112	5485.21
475.484	5536.06
475.855	5689.05
476.227	5679.33
476.598	5854.24
476.97	5936.72
477.341	6033.44
477.713	6138.75
478.084	6202.7
478.455	6308.01
478.827	6407.67
479.198	6580.55
479.569	6611.96
479.94	6740.77
480.311	6819.19
480.682	6982.8
481.053	7148.89
481.424	7287.2
481.795	7353.63
482.166	7462.11
482.537	7556.34
482.908	7746.17
483.279	7806.96
483.65	7979.83
484.021	8142.77
484.391	8254.18
484.762	8326.72
485.133	8506.15
485.503	8583.21
485.874	8768.51
486.244	8861.17
486.615	9060.03
486.985	9236.07
487.356	9364.43
487.726	9463.64
488.097	9701.6
488.467	9820.01
488.837	10016.39
489.207	10152.66
489.578	10269.49
489.948	10485.08
490.318	10582.48
490.688	10652.3
491.058	10925.29
491.428	11044.84
491.798	11178.62
492.168	11401.66
492.538	11466.75
492.908	11607.76
493.278	11824.48
493.648	11929.33
494.017	12089.1
494.387	12308.76
494.757	12341.98
495.126	12490.45
495.496	12585.36
495.866	12731.12
496.235	12926.82
496.605	13010.89
496.974	13173.59
497.344	13300.14
497.713	13485.22
498.082	13520.7
498.452	13727.7
498.821	13897.19
499.19	13899
499.559	14098.77
499.928	14190.74
500.298	14315.71
500.667	14551.86
501.036	14514.8
501.405	14722.25
501.774	14801.35
502.143	14976.48
502.512	15048.57
502.88	15248.57
503.249	15307.78
503.618	15484.04
503.987	15550.03
504.356	15662.79
504.724	15720.65
505.093	15881.77
505.462	15997.93
505.83	16058.26
506.199	16209.45
506.567	16363.57
506.936	16480.4
507.304	16703.9
507.672	16800.62
508.041	16834.29
508.409	16932.14
508.777	17153.83
509.145	17288.74
509.514	17304.33
509.882	17396.31
510.25	17481.05
510.618	17654.38
510.986	17706.13
511.354	17865.9
511.722	17945.22
512.09	18218.89
512.458	18150.41
512.826	18271.99
513.193	18347.24
513.561	18511.99
513.929	18563.74
514.297	18731.87
514.664	18843.5
515.032	19004.85
515.4	19059.99
515.767	19166.66
516.135	19328.46
516.502	19227.67
516.869	19524.84
517.237	19655.46
517.604	19476.48
517.972	19883.25
518.339	19941.1
518.706	20036.01
519.073	20111.94
519.44	20177.03
519.808	20441.43
520.175	20381.77
520.542	20751.93
520.909	20727.75
521.276	20805.94
521.643	20993.05
522.009	21135.64
522.376	21187.85
522.743	21394.17
523.11	21664.22
523.477	21713.93
523.843	21883.87
524.21	22186.24
524.577	22225.11
524.943	22336.97
525.31	22368.15
525.676	22616.28
526.043	22760.23
526.409	22701.93
526.776	22985.31
527.142	22974.01
527.508	23053.11
527.874	23403.38
528.241	23391.63
528.607	23501.91
528.973	23731.28
529.339	23765.18
529.705	24023.7
530.071	24137.15
530.437	24180.76
530.803	24320.19
531.169	24511.38
531.535	24397.71
531.901	24585.5
532.267	24501.66
532.632	24650.35
532.998	24758.15
533.364	24920.86
533.73	24915.88
534.095	25134.18
534.461	25052.38
534.826	25142.77
535.192	25137.57
535.557	25318.81
535.923	25241.98
536.288	25409.2
536.653	25492.37
537.019	25371.92
537.384	25520.61
537.749	25537.79
538.114	25571.01
538.479	25575.75
538.845	25735.07
539.21	25571.91
539.575	25588.64
539.94	25610.78
540.305	25820.72
540.67	25660.5
541.034	25773.94
541.399	25800.38
541.764	25813.04
542.129	25808.29
542.494	25922.64
542.858	25858.91
543.223	25736.2
543.587	25946.37
543.952	25963.99
544.316	25892.36
544.681	25802.41
545.045	26026.82
545.41	26064.78
545.774	25822.98
546.138	25879.93
546.503	25961.51
546.867	25940.04
547.231	26065.01
547.595	26081.96
547.959	26090.77
548.324	25943.2
548.688	25974.16
549.052	25994.95
549.416	25930.77
549.779	25935.07
550.143	25922.64
550.507	26042.18
550.871	26064.33
551.235	25964.9
551.599	26117.21
551.962	26155.17
552.326	26146.59
552.689	26096.42
553.053	25941.62
553.417	26115.85
553.78	26223.87
554.143	26227.26
554.507	26112.24
554.87	26221.84
555.234	26419.12
555.597	26071.11
555.96	26291.22
556.323	26184.1
556.686	26088.28
557.05	26393.59
557.413	26308.84
557.776	26259.13
558.139	26446.01
558.502	26356.75
558.865	26313.59
559.228	26495.96
559.59	26500.25
559.953	26454.15
560.316	26628.61
560.679	26668.38
561.041	26717.87
561.404	26768.72
561.767	26912.44
562.129	26852.33
562.492	26831.54
562.854	26860.69
563.217	26952.44
563.579	26886.68
563.941	27116.05
564.304	27149.27
564.666	27330.96
565.028	27238.54
565.39	27151.53
565.753	27424.97
566.115	27338.19
566.477	27492.31
566.839	27625.42
567.201	27759.65
567.563	27680.56
567.925	27730.5
568.287	27784.51
568.648	27758.52
569.01	28017.27
569.372	28202.35
569.734	28150.83
570.095	28260.43
570.457	28332.07
570.819	28478.28
571.18	28281.22
571.542	28569.35
571.903	28629.46
572.265	28647.76
572.626	28772.73
572.987	28706.75
573.349	28874.88
573.71	29027.19
574.071	28996.23
574.432	29243.68
574.794	29332.94
575.155	29270.57
575.516	29250.23
575.877	29510.11
576.238	29514.86
576.599	29623.11
576.96	29704.01
577.32	29675.53
577.681	29828.98
578.042	29900.84
578.403	29893.15
578.763	29904.68
579.124	29937.45
579.485	30155.75
579.845	30161.4
580.206	30209.98
580.566	30306.7
580.927	30133.6
581.287	30390.99
581.648	30357.32
582.008	30574.04
582.368	30466.7
582.728	30514.83
583.089	30580.59
583.449	30625.56
583.809	30797.99
584.169	30810.87
584.529	30744.66
584.889	30978.32
585.249	30902.62
585.609	30796.41
585.969	30971.32
586.329	31033.24
586.688	31270.52
587.048	31125.66
587.408	31083.63
587.768	31221.93
588.127	31301.03
588.487	31338.54
588.846	31564.3
589.206	31319.78
589.565	31539.21
589.925	31603.17
590.284	31625.76
590.643	31742.37
591.003	31676.38
591.362	31999.09
591.721	31948.47
592.08	31929.49
592.44	32114.79
592.799	32051.29
593.158	32059.43
593.517	32123.38
593.876	32266.2
594.235	32387.55
594.593	32305.75
594.952	32495.8
595.311	32418.96
595.67	32552.75
596.029	32726.53
596.387	32794.32
596.746	32967.2
597.104	32738.96
597.463	32792.51
597.822	32990.47
598.18	32897.37
598.538	32885.84
598.897	33129.23
599.255	32998.16
599.613	33366.51
599.972	33291.94
600.33	33307.75
600.688	33206.74
601.046	33334.19
601.404	33643.11
601.762	33374.87
602.12	33740.74
602.478	33846.72
602.836	33834.75
603.194	33635.2
603.552	33864.8
603.91	33777.57
604.268	33908.64
604.625	33945.48
604.983	34226.37
605.341	33979.37
605.698	34141.86
606.056	34357.9
606.413	34167.17
606.771	34320.16
607.128	34355.41
607.485	34402.64
607.843	34437.67
608.2	34638.79
608.557	34705.91
608.914	34743.87
609.272	34870.65
609.629	35090.76
609.986	35090.08
610.343	35086.46
610.7	35349.06
611.057	35225.22
611.414	35256.18
611.771	35414.59
612.127	35577.07
612.484	35495.49
612.841	35549.96
613.198	35434.03
613.554	35449.84
613.911	35849.61
614.267	35774.81
614.624	35820.91
614.98	35876.05
615.337	36031.75
615.693	36028.13
616.05	36035.82
616.406	36155.59
616.762	36106.55
617.118	36194.01
617.475	36103.39
617.831	36285.75
618.187	36383.61
618.543	36342.93
618.899	36575.01
619.255	36524.17
619.611	36454.34
619.967	36631.28
620.323	36803.48
620.678	36671.06
621.034	36643.49
621.39	36629.7
621.746	36555.58
622.101	37084.83
622.457	36766.19
622.812	36866.3
623.168	37008.67
623.523	37038.05
623.879	37127.99
624.234	36950.14
624.589	37080.08
624.945	37153.08
625.3	37135.22
625.655	37174.09
626.01	37156.47
626.365	37182.45
626.72	37113.76
627.075	36999.41
627.43	37095
627.785	37148.78
628.14	37182.45
628.495	37220.19
628.85	37166.64
629.205	37114.43
629.559	37180.87
629.914	36987.88
630.269	37092.97
630.623	36954.89
630.978	36968.45
631.332	37108.11
631.687	36989.01
632.041	37039.86
632.396	37030.59
632.75	36938.62
633.104	37061.1
633.459	36772.97
633.813	36885.74
634.167	36865.85
634.521	36940.43
634.875	36796.25
635.229	36802.13
635.583	36618.18
635.937	36625.63
636.291	36661.34
636.645	36601.9
636.999	36476.26
637.352	36621.11
637.706	36324.4
638.06	36593.32
638.413	36528.01
638.767	36329.14
639.121	36524.62
639.474	36290.5
639.828	36358.97
640.181	36391.29
640.534	36309.48
640.888	36238.75
641.241	36066.55
641.594	36054.35
641.947	36259.99
642.301	36184.29
642.654	36164.63
643.007	36075.59
643.36	36125.76
643.713	36080.34
644.066	36223.16
644.419	36017.29
644.771	35660.91
645.124	35338.44
645.477	35244.88
645.83	35087.14
646.182	35089.4
646.535	35165.11
646.888	35210.53
647.24	35216.63
647.593	35311.77
647.945	35118.78
648.298	35164.43
648.65	34865.23
649.002	34795.4
649.355	34661.62
649.707	34667.27
650.059	34698.23
650.411	35163.07
650.763	35397.64
651.115	35970.51
651.467	35877.86
651.819	35810.97
652.171	35686
652.523	35714.47
652.875	35672.21
653.227	35522.84
653.578	35829.5
653.93	35767.35
654.282	35661.82
654.633	35688.71
654.985	35605.32
655.337	35757.18
655.688	35777.29
656.039	35908.59
656.391	35602.38
656.742	35728.26
657.094	35631.08
657.445	35780.01
657.796	35800.8
658.147	35702.95
658.498	35877.18
658.849	35944.07
659.2	35919.44
659.551	35725.09
659.902	35949.72
660.253	35794.69
660.604	35898.42
660.955	35861.36
661.306	36019.32
661.656	35929.83
662.007	35996.72
662.358	35926.67
662.708	36208.24
663.059	36113.56
663.409	35853.22
663.76	36128.92
664.11	36190.62
664.461	36171.63
664.811	36322.36
665.161	36306.55
665.511	36244.85
665.862	36244.17
666.212	36300.22
666.562	36259.54
666.912	36411.4
667.262	36263.83
667.612	36205.98
667.962	36325.53
668.312	36280.56
668.662	36398.52
669.011	36315.13
669.361	36252.08
669.711	36306.32
670.06	36271.74
670.41	36211.63
670.76	36150.39
671.109	36337.05
671.459	36223.16
671.808	36170.28
672.157	36173.89
672.507	36032.65
672.856	36081.24
673.205	36162.82
673.554	36154.68
673.904	35972.99
674.253	36169.83
674.602	35950.4
674.951	35613
675.3	35428.15
675.649	35989.27
675.998	35961.7
676.346	35961.24
676.695	36092.77
677.044	35759.67
677.393	35692.78
677.741	35869.49
678.09	35788.82
678.438	35629.95
678.787	35780.68
679.135	35702.95
679.484	35494.36
679.832	35568.94
680.181	35453.01
680.529	35546.79
680.877	35393.35
681.225	35301.83
681.573	35626.11
681.922	35302.96
682.27	35192.45
682.618	35216.63
682.966	35104.32
683.314	34993.59
683.661	35031.78
684.009	34795.85
684.357	34790.65
684.705	34651
685.053	34759.02
685.4	34630.66
685.748	34511.56
686.095	34499.59
686.443	34272.47
686.79	34192.25
687.138	34270.44
687.485	34192.93
687.832	33995.19
688.18	34173.72
688.527	33874.29
688.874	33853.5
689.221	33821.41
689.568	33656.22
689.915	33506.62
690.262	33554.53
690.609	33387.53
690.956	33156.8
691.303	33239.96
691.65	32936.46
691.997	32891.95
692.344	32731.27
692.69	32621.44
693.037	32705.28
693.383	32286.09
693.73	32408.34
694.077	32235.47
694.423	32319.98
694.769	32013.32
695.116	32002.93
695.462	31767.46
695.808	31800.9
696.155	31644.07
696.501	31474.36
696.847	31545.31
697.193	31165.66
697.539	31171.09
697.885	30932
698.231	30799.57
698.577	30813.81
698.923	30736.07
699.269	30441.39
699.614	30370.43
699.96	30330.88
700.306	30191.45
700.651	30155.29
700.997	29921.63
701.342	29816.55
701.688	29699.94
702.033	29565.93
702.379	29546.95
702.724	29332.04
703.069	29240.29
703.415	29016.79
703.76	28922.78
704.105	28967.76
704.45	28811.38
704.795	28626.97
705.14	28669.23
705.485	28500.2
705.83	28342.46
706.175	28460.65
706.52	28245.06
706.865	28250.49
707.209	28021.11
707.554	27920.55
707.899	27913.09
708.243	27865.64
708.588	27702.25
708.932	27604.18
709.277	27704.96
709.621	27540.22
709.966	27359.21
710.31	27392.88
710.654	27166.67
710.998	27142.49
711.342	27191.08
711.687	27106.34
712.031	26924.87
712.375	26843.97
712.719	26853.01
713.063	26840.81
713.407	26978.2
713.75	26771.2
714.094	26737.76
714.438	26598.55
714.782	26616.63
715.125	26510.64
715.469	26559.23
715.812	26331.21
716.156	26328.5
716.499	26380.25
716.843	26309.29
717.186	26265.91
717.53	26548.16
717.873	26480.14
718.216	26308.84
718.559	26224.78
718.902	26175.06
719.246	26182.74
719.589	26092.8
719.932	25982.3
720.275	26026.36
720.617	26097.1
720.96	26119.24
721.303	26137.32
721.646	26175.29
721.989	26029.75
722.331	26123.31
722.674	26107.72
723.016	26003.09
723.359	25952.24
723.701	25976.87
724.044	26019.81
724.386	25972.13
724.729	25969.42
725.071	25990.21
725.413	26016.65
725.755	25963.31
726.097	25987.04
726.439	25916.76
726.782	25930.77
727.124	26145.91
727.465	25978
727.807	25974.16
728.149	25923.32
728.491	25897.78
728.833	26079.7
729.175	26042.86
729.516	26031.56
729.858	25969.19
730.199	26127.15
730.541	26196.98
730.882	26101.84
731.224	26242.86
731.565	26093.93
731.906	26168.96
732.248	26263.65
732.589	26255.51
732.93	26189.07
733.271	26288.05
733.612	26316.3
733.953	26461.38
734.294	26345.23
734.635	26269.97
734.976	26474.26
735.317	26502.06
735.658	26452.12
735.999	26402.85
736.339	26547.93
736.68	26586.8
737.021	26672.45
737.361	26651.43
737.702	26890.97
738.042	26860.92
738.383	26975.04
738.723	26969.84
739.063	26998.32
739.404	27253
739.744	27153.79
740.084	27165.77
740.424	27278.76
740.764	27211.19
741.104	27484.86
741.444	27521.01
741.784	27567.11
742.124	27721.69
742.464	27732.53
742.804	27806.43
743.143	27962.81
743.483	28051.85
743.823	28024.5
744.162	28190.6
744.502	28305.17
744.841	28472.63
745.181	28682.79
745.52	28638.95
745.86	28808.89
746.199	29081.65
746.538	28939.06
746.877	29315.09
747.216	29409.55
747.556	29490.68
747.895	29707.85
748.234	29821.29
748.573	29956.43
748.911	30112.81
749.25	30331.79
749.589	30275.52
749.928	30596.41
750.267	30756.63
750.605	30770.19
750.944	30997.98
751.283	31132.67
751.621	31512.55
751.96	31491.08
752.298	31576.05
752.636	31974.91
752.975	32018.07
753.313	32140.78
753.651	32387.33
753.989	32564.72
754.327	32674.55
