Data from 15-5210_FLMS001491_006.txt Node
Date: Thu Apr 19 16:48:27 BST 2018
User: hsy
Spectrometer: FLMS00149
Trigger mode: 0
Integration Time (sec): 1.000000E-2
Scans to average: 10
Electric dark correction enabled: true
Nonlinearity correction enabled: false
Boxcar width: 0
XAxis mode: Wavelengths
Number of Pixels in Spectrum: 2048
>>>>>Begin Spectral Data<<<<<
341.393	-24.6
341.776	-24.6
342.16	-24.6
342.543	-49.01
342.927	-70.7
343.31	-69.8
343.693	-75.68
344.077	-73.19
344.46	-64.6
344.843	-54.43
345.226	-32.06
345.61	-56.92
345.993	-2.01
346.376	-15.11
346.759	24.43
347.142	20.14
347.525	42.96
347.908	68.05
348.291	76.86
348.674	102.62
349.057	108.73
349.44	130.65
349.823	142.85
350.206	184.43
350.588	204.77
350.971	261.94
351.354	261.04
351.737	274.6
352.119	303.98
352.502	330.42
352.884	299.23
353.267	318.89
353.65	338.78
354.032	339.68
354.414	350.08
354.797	366.57
355.179	346.46
355.562	376.29
355.944	367.48
356.326	370.19
356.709	367.48
357.091	390.3
357.473	358.66
357.855	388.49
358.238	397.08
358.62	410.41
359.002	390.3
359.384	404.99
359.766	373.8
360.148	376.97
360.53	376.74
360.912	387.36
361.294	361.15
361.676	379.91
362.057	370.64
362.439	398.66
362.821	366.8
363.203	372.45
363.584	393.46
363.966	368.15
364.348	367.7
364.729	367.02
365.111	366.12
365.493	382.39
365.874	376.06
366.256	381.49
366.637	369.96
367.019	352.56
367.4	358.21
367.781	367.48
368.163	353.69
368.544	372.9
368.925	353.92
369.306	387.59
369.688	358.66
370.069	376.29
370.45	369.06
370.831	361.37
371.212	371.32
371.593	372.22
371.974	379.68
372.355	362.28
372.736	385.1
373.117	387.36
373.498	376.52
373.879	363.86
374.26	370.41
374.641	379
375.021	374.26
375.402	380.81
375.783	391.88
376.163	387.36
376.544	381.04
376.925	386.91
377.305	391.66
377.686	412.9
378.066	402.73
378.447	389.17
378.827	411.54
379.208	415.16
379.588	370.87
379.968	395.27
380.349	396.85
380.729	412.9
381.109	420.81
381.489	427.81
381.87	408.61
382.25	407.93
382.63	402.28
383.01	405.44
383.39	424.2
383.77	436.4
384.15	405.89
384.53	453.12
384.91	451.54
385.29	454.03
385.67	440.24
386.049	461.49
386.429	434.59
386.809	457.42
387.189	465.33
387.568	470.07
387.948	475.95
388.328	488.38
388.707	466.46
389.087	487.93
389.466	494.03
389.846	484.99
390.225	474.59
390.605	488.6
390.984	497.19
391.363	471.2
391.743	491.54
392.122	505.33
392.501	511.43
392.881	508.72
393.26	499.45
393.639	511.2
394.018	502.16
394.397	508.72
394.776	530.41
395.155	526.79
395.534	550.52
395.913	542.84
396.292	549.84
396.671	549.84
397.05	534.48
397.429	563.18
397.808	555.95
398.186	571.54
398.565	571.31
398.944	561.6
399.323	566.12
399.701	587.13
400.08	601.14
400.458	601.82
400.837	603.63
401.215	608.6
401.594	608.6
401.972	603.4
402.351	643.18
402.729	629.16
403.107	619.22
403.486	647.69
403.864	646.79
404.242	635.94
404.62	652.44
404.999	656.73
405.377	682.95
405.755	681.14
406.133	665.77
406.511	684.08
406.889	695.83
407.267	706.45
407.645	715.72
408.023	734.7
408.401	736.73
408.779	739.22
409.156	756.62
409.534	774.25
409.912	786.22
410.29	797.75
410.667	793.23
411.045	817.18
411.422	830.06
411.8	829.16
412.178	882.94
412.555	899.21
412.933	902.6
413.31	902.83
413.687	904.19
414.065	906.22
414.442	950.74
414.819	944.64
415.197	949.16
415.574	956.61
415.951	978.31
416.328	979.21
416.705	984.64
417.082	1009.49
417.46	1035.03
417.837	1016.27
418.214	1047.01
418.591	1056.95
418.967	1067.34
419.344	1058.98
419.721	1081.58
420.098	1082.94
420.475	1087.91
420.852	1120.68
421.228	1102.82
421.605	1138.76
421.982	1145.99
422.358	1166.78
422.735	1178.98
423.111	1182.37
423.488	1217.4
423.864	1201.58
424.241	1223.05
424.617	1251.07
424.994	1249.03
425.37	1260.33
425.746	1242.93
426.123	1316.38
426.499	1291.97
426.875	1340.11
427.251	1340.78
427.627	1362.25
428.003	1388.01
428.379	1414.23
428.756	1404.06
429.132	1432.76
429.507	1447
429.883	1491.06
430.259	1488.12
430.635	1522.25
431.011	1518.41
431.387	1538.52
431.763	1576.26
432.138	1567.67
432.514	1577.61
432.89	1588.24
433.265	1676.14
433.641	1697.16
434.016	1668.46
434.392	1700.1
434.767	1747.1
435.143	1729.93
435.518	1757.5
435.894	1799.75
436.269	1839.75
436.644	1869.81
437.02	1894.22
437.395	1882.24
437.77	1897.38
438.145	1910.49
438.52	1950.26
438.895	1973.31
439.271	1981.45
439.646	2026.64
440.021	2021.67
440.395	2055.79
440.77	2044.72
441.145	2084.49
441.52	2105.96
441.895	2104.83
442.27	2129.69
442.645	2122.68
443.019	2154.55
443.394	2166.07
443.769	2175.11
444.143	2172.17
444.518	2233.87
444.892	2244.04
445.267	2217.6
445.641	2267.77
446.016	2279.97
446.39	2287.65
446.764	2323.13
447.139	2289.01
447.513	2335.11
447.887	2331.04
448.262	2354.99
448.636	2384.15
449.01	2416.46
449.384	2419.17
449.758	2430.02
450.132	2490.13
450.506	2529.45
450.88	2511.83
451.254	2482.45
451.628	2552.73
452.002	2573.75
452.376	2634.31
452.75	2629.34
453.123	2655.33
453.497	2684.25
453.871	2689.45
454.244	2757.02
454.618	2810.12
454.992	2841.54
455.365	2867.52
455.739	2920.4
456.112	2969.89
456.486	2932.15
456.859	2996.11
457.232	3085.82
457.606	3066.84
457.979	3109.1
458.352	3172.15
458.725	3208.76
459.099	3255.31
459.472	3256.67
459.845	3296.21
460.218	3364.23
460.591	3394.06
460.964	3398.81
461.337	3473.38
461.71	3554.74
462.083	3585.7
462.456	3582.53
462.829	3604.91
463.201	3676.32
463.574	3700.27
463.947	3757.9
464.32	3818.01
464.692	3858.68
465.065	3891.45
465.438	3933.94
465.81	3926.93
466.183	3996.08
466.555	4067.49
466.928	4131.67
467.3	4085.8
467.672	4194.04
468.045	4272.46
468.417	4286.7
468.789	4283.53
469.161	4367.6
469.534	4427.93
469.906	4508.84
470.278	4585.67
470.65	4586.57
471.022	4692.56
471.394	4769.17
471.766	4791.31
472.138	4881.71
472.51	4974.36
472.882	5029.95
473.253	5071.99
473.625	5114.02
473.997	5203.73
474.369	5273.56
474.74	5309.72
475.112	5437.4
475.484	5504.52
475.855	5615.93
476.227	5606.21
476.598	5811.4
476.97	5875.35
477.341	5983.15
477.713	6032.41
478.084	6073.09
478.455	6284.61
478.827	6353.08
479.198	6535
479.569	6487.77
479.94	6711.94
480.311	6815.67
480.682	6915.33
481.053	7080.29
481.424	7200.52
481.795	7298.14
482.166	7420.85
482.537	7445.03
482.908	7673.72
483.279	7742.42
483.65	7933.6
484.021	8077.1
484.391	8158.46
484.762	8320.49
485.133	8249.08
485.503	8457.43
485.874	8710.53
486.244	8790.31
486.615	8968.15
486.985	9075.5
487.356	9278.2
487.726	9374.7
488.097	9600.45
488.467	9682.26
488.837	9863.95
489.207	9986.43
489.578	10168.8
489.948	10336.71
490.318	10552.52
490.688	10579.41
491.058	10794.09
491.428	11000.87
491.798	10980.3
492.168	11247.64
492.538	11462.78
492.908	11561.08
493.278	11717.69
493.648	11722.66
494.017	12055.53
494.387	12130.33
494.757	12234.51
495.126	12436.76
495.496	12557.44
495.866	12735.51
496.235	12776.19
496.605	13024.54
496.974	13106.12
497.344	13260.92
497.713	13386.79
498.082	13509.96
498.452	13661.14
498.821	13802.6
499.19	13948.36
499.559	14063.16
499.928	14108.36
500.298	14236.94
500.667	14444.62
501.036	14490.27
501.405	14726.19
501.774	14807.1
502.143	14941.78
502.512	15089.57
502.88	15103.81
503.249	15273.3
503.618	15412.28
503.987	15417.93
504.356	15568.21
504.724	15688.66
505.093	15801.42
505.462	15939.5
505.83	15932.72
506.199	16151.02
506.567	16435.3
506.936	16422.42
507.304	16673.26
507.672	16621.51
508.041	16826.25
508.409	16971.79
508.777	17071.9
509.145	17263.53
509.514	17200.93
509.882	17472.34
510.25	17445.67
510.618	17622.39
510.986	17727.47
511.354	17839.56
511.722	18020.12
512.09	18213.56
512.458	18099.44
512.826	18330.39
513.193	18397.74
513.561	18571.74
513.929	18648.35
514.297	18813.09
514.664	18983.26
515.032	19016.93
515.4	19194.55
515.767	19330.37
516.135	19251.95
516.502	19284.49
516.869	19651.04
517.237	19649.68
517.604	19659.4
517.972	19968.54
518.339	19981.65
518.706	20163.11
519.073	20239.5
519.44	20265.26
519.808	20555.19
520.175	20483.56
520.542	20867.95
520.909	20691.01
521.276	20966.26
521.643	21035.18
522.009	21239.24
522.376	21354.72
522.743	21485.57
523.11	21631.1
523.477	21865.44
523.843	21918.32
524.21	22076.06
524.577	22292.1
524.943	22399.44
525.31	22456.61
525.676	22794.01
526.043	22765.53
526.409	22879.43
526.776	23099.99
527.142	23138.85
527.508	23223.82
527.874	23562.8
528.241	23523.7
528.607	23629.69
528.973	23840.31
529.339	23850.93
529.705	24001.43
530.071	24166.85
530.437	24226.74
530.803	24403
531.169	24467.41
531.535	24523
531.901	24507.41
532.267	24690.45
532.632	24819.04
532.998	24873.05
533.364	25017.9
533.73	25133.38
534.095	25212.7
534.461	25131.12
534.826	25271
535.192	25329.31
535.557	25404.33
535.923	25493.37
536.288	25476.42
536.653	25536.76
537.019	25595.06
537.384	25583.76
537.749	25715.06
538.114	25844.77
538.479	25842.96
538.845	25755.28
539.21	25675.51
539.575	25764.77
539.94	25814.26
540.305	25940.14
540.67	25908.73
541.034	25894.71
541.399	25894.49
541.764	25924.77
542.129	26047.7
542.494	25994.82
542.858	26050.42
543.223	25998.67
543.587	26018.78
543.952	26070.08
544.316	25967.26
544.681	26121.6
545.045	26131.54
545.41	26095.16
545.774	25962.74
546.138	25943.75
546.503	26077.08
546.867	26033.47
547.231	26136.29
547.595	26272.56
547.959	26203.18
548.324	26090.19
548.688	26156.18
549.052	26172.22
549.416	26113.92
549.779	26087.48
550.143	26207.7
550.507	26280.69
550.871	26277.53
551.235	26141.71
551.599	26404.08
551.962	26173.8
552.326	26266.46
552.689	26430.97
553.053	26099
553.417	26291.09
553.78	26327.92
554.143	26359.56
554.507	26353.01
554.87	26373.12
555.234	26479.11
555.597	26377.19
555.96	26367.24
556.323	26462.84
556.686	26422.38
557.05	26514.13
557.413	26517.3
557.776	26483.63
558.139	26678.2
558.502	26615.15
558.865	26520.46
559.228	26686.56
559.59	26710.96
559.953	26803.84
560.316	26793.67
560.679	26871.64
561.041	26943.05
561.404	27010.39
561.767	27172.42
562.129	26981.92
562.492	27173.78
562.854	27029.15
563.217	27088.13
563.579	27190.27
563.941	27279.99
564.304	27412.41
564.666	27644.73
565.028	27560.21
565.39	27592.98
565.753	27662.13
566.115	27688.57
566.477	27761.56
566.839	27877.26
567.201	27994.32
567.563	27972.4
567.925	28148.67
568.287	27994.09
568.648	28321.54
569.01	28357.02
569.372	28526.28
569.734	28432.28
570.095	28703.68
570.457	28595.43
570.819	28649.9
571.18	28780.51
571.542	28991.81
571.903	28818.03
572.265	29070.9
572.626	29189.32
572.987	29174.63
573.349	29405.36
573.71	29406.71
574.071	29554.28
574.432	29658.68
574.794	29820.04
575.155	29706.37
575.516	29737.55
575.877	29744.78
576.238	29888.06
576.599	30023.65
576.96	30067.26
577.32	30128.95
577.681	30216.86
578.042	30432
578.403	30384.54
578.763	30366.24
579.124	30475.39
579.485	30636.74
579.845	30795.83
580.206	30637.41
580.566	30737.07
580.927	30722.16
581.287	30845.54
581.648	30675.15
582.008	30896.17
582.368	31063.17
582.728	31109.27
583.089	31014.81
583.449	31116.05
583.809	31147.68
584.169	31389.71
584.529	31150.62
584.889	31553.1
585.249	31371.63
585.609	31380.45
585.969	31544.28
586.329	31545.41
586.688	31561.23
587.048	31589.03
587.408	31710.61
587.768	31657.05
588.127	31785.41
588.487	31793.77
588.846	31997.15
589.206	31801.23
589.565	31984.05
589.925	32153.53
590.284	32070.6
590.643	32103.14
591.003	32234.66
591.362	32357.37
591.721	32314.43
592.08	32383.81
592.44	32486.41
592.799	32464.03
593.158	32517.37
593.517	32467.42
593.876	32665.38
594.235	32636.91
594.593	32710.35
594.952	32861.76
595.311	32809.11
595.67	32937.69
596.029	33164.35
596.387	33126.16
596.746	33318.47
597.104	33092.72
597.463	33020.4
597.822	33265.37
598.18	33078.25
598.538	33243.9
598.897	33286.84
599.255	33198.7
599.613	33653.38
599.972	33445.7
600.33	33586.49
600.688	33569.09
601.046	33589.2
601.404	33847.05
601.762	33756.88
602.12	33896.99
602.478	33873.94
602.836	33991.9
603.194	33700.16
603.552	33899.48
603.91	33870.32
604.268	34089.53
604.625	33991.45
604.983	34208.85
605.341	33987.61
605.698	34357.09
606.056	34326.58
606.413	34324.55
606.771	34610.64
607.128	34423.98
607.485	34406.13
607.843	34499.01
608.2	34649.29
608.557	34757.98
608.914	34790.53
609.272	34912.1
609.629	35007.47
609.986	35040.24
610.343	35023.74
610.7	35342.15
611.057	35310.29
611.414	35166.56
611.771	35305.09
612.127	35369.04
612.484	35517.29
612.841	35687.9
613.198	35496.95
613.554	35391.87
613.911	35804.74
614.267	35807.9
614.624	35826.66
614.98	35938.52
615.337	36150.49
615.693	36034.11
616.05	36128.8
616.406	36180.77
616.762	36197.72
617.118	36065.52
617.475	36160.21
617.831	36362.91
618.187	36403.82
618.543	36443.82
618.899	36616.92
619.255	36459.86
619.611	36446.75
619.967	36738.27
620.323	36775.78
620.678	36628.9
621.034	36651.49
621.39	36530.59
621.746	36780.53
622.101	37039.73
622.457	36829.57
622.812	37009
623.168	37079.51
623.523	36900.07
623.879	37023.01
624.234	36933.97
624.589	37009.9
624.945	37070.01
625.3	37095.55
625.655	37159.28
626.01	37067.98
626.365	37194.08
626.72	37118.83
627.075	36945.27
627.43	37063.01
627.785	37157.02
628.14	37239.5
628.495	37211.48
628.85	37135.1
629.205	37203.12
629.559	37221.65
629.914	37055.1
630.269	37154.76
630.623	36935.1
630.978	36864.37
631.332	37167.19
631.687	37137.81
632.041	36927.19
632.396	37016.68
632.75	36903.24
633.104	36947.76
633.459	36762.45
633.813	36675.67
634.167	36672.28
634.521	36743.02
634.875	36757.48
635.229	36619.86
635.583	36557.71
635.937	36498.28
636.291	36524.72
636.645	36539.18
636.999	36536.92
637.352	36506.19
637.706	36344.16
638.06	36518.62
638.413	36351.84
638.767	36279.98
639.121	36274.78
639.474	36146.87
639.828	36224.39
640.181	36154.78
640.534	36224.84
640.888	36110.27
641.241	35918.63
641.594	36059.19
641.947	36095.35
642.301	36101.45
642.654	36059.42
643.007	35890.84
643.36	36108.68
643.713	35905.07
644.066	36122.02
644.419	35966.31
644.771	35515.03
645.124	35249.04
645.477	35237.07
645.83	35007.92
646.182	34991.65
646.535	34901.48
646.888	34970.41
647.24	34895.38
647.593	35241.36
647.945	35078.88
648.298	34848.83
648.65	34678.44
649.002	34505.79
649.355	34463.75
649.707	34481.61
650.059	34513.92
650.411	34951.88
650.763	35147.58
651.115	35649.94
651.467	35647
651.819	35682.25
652.171	35566.32
652.523	35549.15
652.875	35714.8
653.227	35504.63
653.578	35766.55
653.93	35665.98
654.282	35373.56
654.633	35510.73
654.985	35676.15
655.337	35633.67
655.688	35571.3
656.039	35808.58
656.391	35383.5
656.742	35591.63
657.094	35504.41
657.445	35696.26
657.796	35791.4
658.147	35451.53
658.498	35692.65
658.849	35885.19
659.2	35804.06
659.551	35679.77
659.902	35876.37
660.253	35827.79
660.604	35926.54
660.955	35703.04
661.306	36068.01
661.656	35729.03
662.007	35982.13
662.358	35917.5
662.708	35822.36
663.059	35884.28
663.409	35774.23
663.76	35977.16
664.11	35991.85
664.461	36083.37
664.811	35995.24
665.161	36077.95
665.511	36011.51
665.862	36124.95
666.212	36061.23
666.562	36209.25
666.912	36117.72
667.262	35987.78
667.612	36058.29
667.962	36213.31
668.312	36141.68
668.662	36296.48
669.011	36298.73
669.361	36215.8
669.711	36327.66
670.06	36171.05
670.41	36057.84
670.76	36149.13
671.109	36244.72
671.459	36023.04
671.808	36054.45
672.157	36195.01
672.507	36043.6
672.856	35966.54
673.205	35889.03
673.554	36030.95
673.904	35925.19
674.253	36193.43
674.602	35912.98
674.951	35405.65
675.3	35281.13
675.649	36001.79
675.998	35912.3
676.346	35873.66
676.695	35969.03
677.044	35647.68
677.393	35738.98
677.741	35861.23
678.09	35722.48
678.438	35611.52
678.787	35682.03
679.135	35631.86
679.484	35379.44
679.832	35525.2
680.181	35400.23
680.529	35345.09
680.877	35309.61
681.225	35268.93
681.573	35591.86
681.922	35298.54
682.27	35129.73
682.618	35106.45
682.966	35125.43
683.314	35070.74
683.661	34966.57
684.009	34770.87
684.357	34754.82
684.705	34621.49
685.053	34666.01
685.4	34457.88
685.748	34402.29
686.095	34259.24
686.443	34022.64
686.79	34178.11
687.138	34136.08
687.485	34139.47
687.832	33876.2
688.18	33813.6
688.527	33736.77
688.874	33690.44
689.221	33573.16
689.568	33369.55
689.915	33254.52
690.262	33412.71
690.609	33249.55
690.956	32984.92
691.303	33107.86
691.65	32808.66
691.997	32724.37
692.344	32662.22
692.69	32526.86
693.037	32549.91
693.383	32329.8
693.73	32355.56
694.077	32078.05
694.423	32047.32
694.769	31856.82
695.116	31854.11
695.462	31626.99
695.808	31532.31
696.155	31630.16
696.501	31344.97
696.847	31343.61
697.193	30989.04
697.539	31041.92
697.885	30725.32
698.231	30637.41
698.577	30606.23
698.923	30575.04
699.269	30335.5
699.614	30134.38
699.96	30086.24
700.306	30001.5
700.651	29878.34
700.997	29793.14
701.342	29667.27
701.688	29678.12
702.033	29466.15
702.379	29451.01
702.724	29145.02
703.069	29137.57
703.415	28921.08
703.76	28848.54
704.105	28775.54
704.45	28555.66
704.795	28531.71
705.14	28366.29
705.485	28456.46
705.83	28118.38
706.175	28258.04
706.52	28167.42
706.865	27991.38
707.209	27999.97
707.554	27929.24
707.899	27852.18
708.243	27732.18
708.588	27532.86
708.932	27361.12
709.277	27501.9
709.621	27386.88
709.966	27178.97
710.31	27299.65
710.654	26998.41
710.998	27060.11
711.342	27070.73
711.687	26900.79
712.031	26802.49
712.375	26760.68
712.719	26708.03
713.063	26563.85
713.407	26731.98
713.75	26602.27
714.094	26763.62
714.438	26440.24
714.782	26437.07
715.125	26323.18
715.469	26491.31
715.812	26289.51
716.156	26218.32
716.499	26296.74
716.843	26307.13
717.186	26100.81
717.53	26225.55
717.873	26225.78
718.216	26189.62
718.559	26147.36
718.902	25950.08
719.246	25995.5
719.589	26008.16
719.932	25787.15
720.275	25880.48
720.617	25943.98
720.96	25833.47
721.303	25905.56
721.646	25902.85
721.989	25772.91
722.331	25943.75
722.674	25850.2
723.016	25911.89
723.359	25761.16
723.701	25879.35
724.044	25882.29
724.386	25736.07
724.729	25832.34
725.071	25775.62
725.413	25834.15
725.755	25888.61
726.097	25655.62
726.439	25677.77
726.782	25633.25
727.124	25784.89
727.465	25808.62
727.807	25696.08
728.149	25785.34
728.491	25729.52
728.833	26005.67
729.175	25902.4
729.516	25788.5
729.858	25781.95
730.199	25938.78
730.541	25784.66
730.882	25834.15
731.224	25991.66
731.565	25899.01
731.906	25993.47
732.248	26154.14
732.589	26062.85
732.93	25946.24
733.271	26064.88
733.612	26127.25
733.953	26164.54
734.294	26147.82
734.635	26151.43
734.976	26293.12
735.317	26192.56
735.658	26339.45
735.999	26218.32
736.339	26419.9
736.68	26417.64
737.021	26303.97
737.361	26357.98
737.702	26626.22
738.042	26642.49
738.383	26703.05
738.723	26705.99
739.063	26818.53
739.404	26899.21
739.744	26894.69
740.084	26920.9
740.424	27065.98
740.764	27065.98
741.104	27377.84
741.444	27213.55
741.784	27318.63
742.124	27549.59
742.464	27584.84
742.804	27692.18
743.143	27723.82
743.483	27689.7
743.823	27861.67
744.162	27908.22
744.502	28014.66
744.841	28173.98
745.181	28452.61
745.52	28401.77
745.86	28571.93
746.199	28800.17
746.538	28855.77
746.877	28995.65
747.216	29104.8
747.556	29191.58
747.895	29469.31
748.234	29402.87
748.573	29581.85
748.911	29834.27
749.25	29925.34
749.589	30126.02
749.928	30327.37
750.267	30567.81
750.605	30566
750.944	30697.75
751.283	30854.13
751.621	31194.01
751.96	31282.14
752.298	31438.98
752.636	31693.66
752.975	31797.61
753.313	31900.66
753.651	32382.68
753.989	32323.7
754.327	32563.24
