Data from 15-5210_FLMS001491_007.txt Node
Date: Thu Apr 19 16:48:29 BST 2018
User: hsy
Spectrometer: FLMS00149
Trigger mode: 0
Integration Time (sec): 1.000000E-2
Scans to average: 10
Electric dark correction enabled: true
Nonlinearity correction enabled: false
Boxcar width: 0
XAxis mode: Wavelengths
Number of Pixels in Spectrum: 2048
>>>>>Begin Spectral Data<<<<<
341.393	-4.76
341.776	-4.76
342.16	-4.76
342.543	-77.53
342.927	-67.36
343.31	-90.63
343.693	-67.13
344.077	-64.65
344.46	-77.07
344.843	-39.34
345.226	-50.18
345.61	-21.93
345.993	-10.64
346.376	-0.01
346.759	12.19
347.142	33.66
347.525	40.66
347.908	46.99
348.291	86.54
348.674	90.15
349.057	111.4
349.44	120.43
349.823	121.56
350.206	178.51
350.588	207.66
350.971	221.22
351.354	276.14
351.737	287.66
352.119	274.55
352.502	293.54
352.884	309.36
353.267	315.91
353.65	320.66
354.032	335.12
354.414	366.98
354.797	352.74
355.179	340.77
355.562	368.56
355.944	368.11
356.326	366.76
356.709	377.6
357.091	400.88
357.473	362.91
357.855	368.56
358.238	385.96
358.62	380.54
359.002	370.37
359.384	377.38
359.766	365.4
360.148	363.59
360.53	378.51
360.912	369.69
361.294	391.16
361.676	380.99
362.057	364.04
362.439	366.3
362.821	376.7
363.203	345.06
363.584	368.34
363.966	348.45
364.348	349.58
364.729	367.43
365.111	374.89
365.493	385.06
365.874	350.26
366.256	359.98
366.637	339.19
367.019	344.16
367.4	373.08
367.781	354.1
368.163	348
368.544	340.09
368.925	372.86
369.306	359.3
369.688	365.4
370.069	372.41
370.45	361.11
370.831	357.72
371.212	369.24
371.593	369.47
371.974	354.78
372.355	350.71
372.736	373.54
373.117	367.21
373.498	366.08
373.879	382.35
374.26	373.08
374.641	355
375.021	385.06
375.402	376.93
375.783	372.18
376.163	386.19
376.544	395
376.925	392.07
377.305	385.06
377.686	381.67
378.066	406.08
378.447	376.25
378.827	401.11
379.208	396.59
379.588	395.68
379.968	395.46
380.349	414.44
380.729	406.98
381.109	397.94
381.489	398.17
381.87	402.91
382.25	439.75
382.63	436.36
383.01	418.51
383.39	424.61
383.77	426.19
384.15	407.43
384.53	440.65
384.91	423.7
385.29	410.6
385.67	449.69
386.049	455.57
386.429	449.92
386.809	437.04
387.189	463.02
387.568	472.52
387.948	473.87
388.328	474.1
388.707	466.41
389.087	473.87
389.466	479.97
389.846	486.53
390.225	470.71
390.605	497.6
390.984	491.72
391.363	479.97
391.743	486.3
392.122	487.66
392.501	498.05
392.881	503.93
393.26	499.86
393.639	498.28
394.018	516.36
394.397	502.12
394.776	535.79
395.155	542.12
395.534	550.48
395.913	540.76
396.292	546.86
396.671	567.2
397.05	552.29
397.429	573.76
397.808	574.66
398.186	573.53
398.565	552.06
398.944	566.98
399.323	580.76
399.701	574.89
400.08	607.2
400.458	580.08
400.837	588.67
401.215	607.2
401.594	618.95
401.972	635
402.351	635.9
402.729	632.96
403.107	650.59
403.486	675.45
403.864	668.67
404.242	666.41
404.62	669.35
404.999	650.59
405.377	652.62
405.755	668.89
406.133	690.14
406.511	719.74
406.889	730.14
407.267	732.4
407.645	759.06
408.023	743.02
408.401	763.13
408.779	767.42
409.156	779.17
409.534	804.71
409.912	819.17
410.29	826.18
410.667	829.34
411.045	836.35
411.422	878.61
411.8	874.99
412.178	863.47
412.555	886.52
412.933	887.65
413.31	923.13
413.687	934.65
414.065	959.28
414.442	964.03
414.819	957.7
415.197	999.28
415.574	997.02
415.951	999.06
416.328	1038.6
416.705	1009.45
417.082	1045.83
417.46	1060.07
417.837	1064.59
418.214	1059.85
418.591	1117.92
418.967	1119.5
419.344	1120.63
419.721	1130.13
420.098	1156.79
420.475	1177.58
420.852	1157.47
421.228	1180.29
421.605	1169.9
421.982	1199.05
422.358	1217.58
422.735	1246.51
423.111	1246.28
423.488	1241.54
423.864	1299.61
424.241	1297.13
424.617	1286.51
424.994	1291.25
425.37	1305.26
425.746	1323.79
426.123	1348.88
426.499	1382.77
426.875	1377.35
427.251	1433.62
427.627	1460.29
428.003	1472.26
428.379	1467.07
428.756	1470
429.132	1498.25
429.507	1503
429.883	1549.55
430.259	1556.33
430.635	1580.51
431.011	1576.89
431.387	1644.24
431.763	1630
432.138	1675.87
432.514	1666.38
432.89	1697.12
433.265	1725.59
433.641	1756.1
434.016	1767.17
434.392	1844.91
434.767	1860.73
435.143	1850.33
435.518	1847.17
435.894	1921.29
436.269	1949.99
436.644	1985.24
437.02	1979.14
437.395	1999.03
437.77	2033.38
438.145	2019.59
438.52	2060.5
438.895	2092.59
439.271	2085.35
439.646	2112.47
440.021	2132.36
440.395	2161.51
440.77	2150.66
441.145	2144.56
441.52	2206.26
441.895	2196.99
442.27	2253.26
442.645	2251.9
443.019	2281.96
443.394	2287.61
443.769	2283.54
444.143	2298
444.518	2350.21
444.892	2347.95
445.267	2343.2
445.641	2406.7
446.016	2426.14
446.39	2419.36
446.764	2382.52
447.139	2411
447.513	2453.25
447.887	2446.25
448.262	2507.26
448.636	2513.37
449.01	2540.48
449.384	2556.08
449.758	2583.65
450.132	2607.83
450.506	2630.88
450.88	2645.11
451.254	2634.72
451.628	2712
452.002	2745
452.376	2771.44
452.75	2793.58
453.123	2830.19
453.497	2836.75
453.871	2893.24
454.244	2944.77
454.618	2964.88
454.992	2996.07
455.365	3010.53
455.739	3074.03
456.112	3090.75
456.486	3116.97
456.859	3186.57
457.232	3235.16
457.606	3275.61
457.979	3301.59
458.352	3386.79
458.725	3391.99
459.099	3401.7
459.472	3466.56
459.845	3517.63
460.218	3557.18
460.591	3601.25
460.964	3638.76
461.337	3667.69
461.71	3756.27
462.083	3792.88
462.456	3821.35
462.829	3853.9
463.201	3917.17
463.574	3897.74
463.947	3992.2
464.32	4010.28
464.692	4072.65
465.065	4155.58
465.438	4201.01
465.81	4206.2
466.183	4258.86
466.555	4346.09
466.928	4376.37
467.3	4354.22
467.672	4382.24
468.045	4569.58
468.417	4564.61
468.789	4565.52
469.161	4623.37
469.534	4698.17
469.906	4789.24
470.278	4858.39
470.65	4899.07
471.022	4992.17
471.394	5013.41
471.766	5088.89
472.138	5149.45
472.51	5284.14
472.882	5261.09
473.253	5366.17
473.625	5471.71
473.997	5629.22
474.369	5626.96
474.74	5704.02
475.112	5758.93
475.484	5850.45
475.855	5964.35
476.227	6013.39
476.598	6142.65
476.97	6196.89
477.341	6356.2
477.713	6482.98
478.084	6531.57
478.455	6640.94
478.827	6698.57
479.198	6859.24
479.569	6969.07
479.94	7150.31
480.311	7252
480.682	7397.08
481.053	7509.17
481.424	7677.07
481.795	7751.87
482.166	7832.1
482.537	7923.62
482.908	8144.63
483.279	8242.71
483.65	8421.01
484.021	8602.92
484.391	8710.49
484.762	8852.63
485.133	8835.91
485.503	9054.21
485.874	9307.99
486.244	9413.98
486.615	9585.04
486.985	9631.15
487.356	9862.1
487.726	9988.2
488.097	10207.63
488.467	10326.27
488.837	10505.25
489.207	10568.52
489.578	10887.84
489.948	11056.64
490.318	11231.33
490.688	11251.67
491.058	11439.46
491.428	11680.13
491.798	11712.22
492.168	11971.87
492.538	12099.78
492.908	12255.26
493.278	12474.23
493.648	12571.41
494.017	12776.6
494.387	12909.7
494.757	13006.2
495.126	13226.98
495.496	13257.49
495.866	13442.12
496.235	13577.48
496.605	13805.95
496.974	13840.3
497.344	14026.28
497.713	14229.22
498.082	14326.61
498.452	14542.88
498.821	14667.4
499.19	14685.48
499.559	14863.1
499.928	14895.19
500.298	15143.77
500.667	15317.1
501.036	15331.56
501.405	15541.27
501.774	15559.8
502.143	15780.81
502.512	15882.51
502.88	15997.08
503.249	16035.72
503.618	16209.28
503.987	16315.04
504.356	16489.5
504.724	16561.36
505.093	16624.41
505.462	16736.95
505.83	16892.65
506.199	17112.08
506.567	17329.93
506.936	17308.91
507.304	17499.41
507.672	17584.16
508.041	17681.1
508.409	17818.95
508.777	17974.2
509.145	18116.12
509.514	18131.03
509.882	18253.29
510.25	18395.21
510.618	18613.96
510.986	18549.55
511.354	18673.62
511.722	18985.93
512.09	19116.77
512.458	18966.49
512.826	19322.64
513.193	19305.69
513.561	19411.45
513.929	19605.12
514.297	19600.15
514.664	19823.42
515.032	19932.8
515.4	20058.89
515.767	20154.48
516.135	20417.08
516.502	20199.91
516.869	20505.89
517.237	20643.51
517.604	20474.93
517.972	20916.5
518.339	21018.19
518.706	21087.34
519.073	21096.83
519.44	21270.16
519.808	21408.91
520.175	21517.39
520.542	21761
520.909	21814.33
521.276	21911.95
521.643	22202.34
522.009	22254.09
522.376	22330.7
522.743	22487.08
523.11	22689.78
523.477	22859.72
523.843	22912.83
524.21	23319.15
524.577	23400.73
524.943	23475.53
525.31	23538.58
525.676	23912.13
526.043	23946.02
526.409	23846.36
526.776	24232.8
527.142	24179.01
527.508	24364.09
527.874	24557.08
528.241	24614.93
528.607	24824.87
528.973	25020.57
529.339	24885.89
529.705	25271.64
530.071	25250.17
530.437	25399.09
530.803	25526.32
531.169	25638.86
531.535	25639.09
531.901	25652.42
532.267	25875.92
532.632	26062.35
532.998	26045.18
533.364	26160.2
533.73	26213.08
534.095	26401.78
534.461	26376.47
534.826	26500.98
535.192	26557.48
535.557	26583.69
535.923	26693.07
536.288	26669.57
536.653	26863.91
537.019	26694.43
537.384	26783.46
537.749	26814.2
538.114	26857.81
538.479	26870.69
538.845	26983.23
539.21	26917.92
539.575	26944.14
539.94	26935.55
540.305	27100.74
540.67	27110.23
541.034	27111.36
541.399	27114.08
541.764	27177.12
542.129	27168.76
542.494	27227.29
542.858	27206.28
543.223	27165.83
543.587	27316.78
543.952	27282.66
544.316	27262.32
544.681	27154.3
545.045	27332.37
545.41	27347.74
545.774	27307.52
546.138	27288.31
546.503	27259.61
546.867	27176.9
547.231	27434.97
547.595	27328.08
547.959	27429.77
548.324	27289.66
548.688	27305.03
549.052	27269.55
549.416	27225.48
549.779	27196.78
550.143	27347.74
550.507	27326.27
550.871	27359.72
551.235	27297.35
551.599	27535.76
551.962	27435.87
552.326	27404.01
552.689	27578.02
553.053	27254.64
553.417	27447.63
553.78	27561.97
554.143	27572.59
554.507	27516.78
554.87	27518.13
555.234	27714.96
555.597	27433.39
555.96	27490.34
556.323	27623.21
556.686	27584.57
557.05	27613.27
557.413	27659.6
557.776	27738.47
558.139	27746.37
558.502	27693.95
558.865	27781.85
559.228	27921.51
559.59	27937.78
559.953	27924.68
560.316	28145.46
560.679	27994.73
561.041	28122.86
561.404	28142.52
561.767	28205.35
562.129	28181.84
562.492	28432.01
562.854	28375.96
563.217	28436.07
563.579	28419.58
563.941	28410.09
564.304	28582.96
564.666	28763.52
565.028	28708.16
565.39	28682.62
565.753	28819.57
566.115	28920.81
566.477	29061.59
566.839	29125.77
567.201	29320.8
567.563	29257.97
567.925	29345.88
568.287	29363.28
568.648	29480.57
569.01	29651.18
569.372	29794.46
569.734	29749.94
570.095	29848.69
570.457	29974.79
570.819	29911.97
571.18	29917.84
571.542	30166.42
571.903	30161.45
572.265	30260.66
572.626	30446.87
572.987	30420.43
573.349	30664.04
573.71	30703.59
574.071	30776.58
574.432	30965.05
574.794	31210.01
575.155	31120.3
575.516	31048.66
575.877	31233.74
576.238	31233.29
576.599	31393.96
576.96	31357.81
577.32	31519.38
577.681	31522.09
578.042	31775.2
578.403	31752.6
578.763	31750.56
579.124	31917.11
579.485	31964.57
579.845	32206.82
580.206	32259.48
580.566	32143.32
580.927	32059.48
581.287	32334.95
581.648	32198.24
582.008	32426.03
582.368	32460.83
582.728	32456.08
583.089	32560.03
583.449	32486.14
583.809	32541.96
584.169	32773.59
584.529	32632.57
584.889	32846.58
585.249	32853.13
585.609	32718.22
585.969	32828.95
586.329	32867.14
586.688	33120.47
587.048	33021.72
587.408	33032.56
587.768	33051.77
588.127	33152.11
588.487	33185.1
588.846	33424.42
589.206	33186.23
589.565	33204.99
589.925	33449.28
590.284	33337.87
590.643	33443.63
591.003	33456.73
591.362	33735.37
591.721	33737.63
592.08	33791.64
592.44	33950.51
592.799	33946.44
593.158	34017.4
593.517	33893.78
593.876	34102.37
594.235	34087
594.593	34163.83
594.952	34150.5
595.311	34034.12
595.67	34299.42
596.029	34574.44
596.387	34463.26
596.746	34561.34
597.104	34454.67
597.463	34559.76
597.822	34811.5
598.18	34489.47
598.538	34664.16
598.897	34900.76
599.255	34646.31
599.613	35108.67
599.972	34905.96
600.33	35060.98
600.688	35046.52
601.046	35139.85
601.404	35333.75
601.762	35312.73
602.12	35309.11
602.478	35447.19
602.836	35422.33
603.194	35298.27
603.552	35331.26
603.91	35439.28
604.268	35542.1
604.625	35531.71
604.983	35827.97
605.341	35533.06
605.698	35725.6
606.056	35948.65
606.413	35786.39
606.771	36062.31
607.128	36180.5
607.485	35989.1
607.843	36006.27
608.2	36141.41
608.557	36281.07
608.914	36233.16
609.272	36502.98
609.629	36531.23
609.986	36691.45
610.343	36612.13
610.7	36786.36
611.057	36744.56
611.414	36738
611.771	37030.42
612.127	36986.58
612.484	37034.49
612.841	37173.02
613.198	36943.87
613.554	37130.53
613.911	37267.03
614.267	37377.53
614.624	37285.56
614.98	37443.75
615.337	37711.54
615.693	37580.69
616.05	37677.64
616.406	37773.68
616.762	37678.32
617.118	37670.63
617.475	37771.2
617.831	37907.01
618.187	38087.57
618.543	38111.07
618.899	38240.34
619.255	38142.71
619.611	38163.28
619.967	38224.97
620.323	38462.03
620.678	38368.24
621.034	38272.43
621.39	38318.07
621.746	38398.3
622.101	38727.56
622.457	38527.56
622.812	38565.07
623.168	38650.95
623.523	38529.37
623.879	38791.28
624.234	38494.34
624.589	38637.39
624.945	38635.81
625.3	38604.62
625.655	38699.31
626.01	38712.64
626.365	38871.96
626.72	38661.12
627.075	38623.83
627.43	38721.68
627.785	38671.74
628.14	38655.24
628.495	38695.01
628.85	38722.81
629.205	38696.37
629.559	38806.65
629.914	38542.93
630.269	38774.56
630.623	38505.87
630.978	38491.18
631.332	38652.3
631.687	38539.99
632.041	38619.54
632.396	38456.15
632.75	38485.98
633.104	38521.68
633.459	38165.99
633.813	38314.68
634.167	38283.73
634.521	38364.63
634.875	38472.19
635.229	38172.09
635.583	38097.52
635.937	38006.67
636.291	38020.91
636.645	38165.54
636.999	37930.06
637.352	38024.07
637.706	37868.59
638.06	37971.19
638.413	37946.56
638.767	37764.42
639.121	37921.25
639.474	37742.72
639.828	37698.2
640.181	37684.64
640.534	37768.48
640.888	37559.22
641.241	37451.88
641.594	37473.12
641.947	37551.09
642.301	37406.91
642.654	37615.27
643.007	37430.64
643.36	37473.58
643.713	37554.48
644.066	37605.78
644.419	37411.88
644.771	36878.11
645.124	36617.1
645.477	36621.17
645.83	36477.44
646.182	36405.81
646.535	36375.98
646.888	36512.02
647.24	36347.73
647.593	36522.42
647.945	36390.89
648.298	36452.59
648.65	36215.53
649.002	36147.51
649.355	36006.27
649.707	36067.96
650.059	36027.06
650.411	36549.08
650.763	36756.99
651.115	37249.18
651.467	37064.32
651.819	37152.91
652.171	37066.13
652.523	37141.61
652.875	37106.35
653.227	36817.55
653.578	37385.67
653.93	37152.46
654.282	36904.78
654.633	37047.15
654.985	37201.27
655.337	37159.91
655.688	37036.53
656.039	37314.94
656.391	36954.72
656.742	37219.35
657.094	37110.87
657.445	37246.46
657.796	37133.47
658.147	37205.11
658.498	37275.39
658.849	37436.52
659.2	37386.35
659.551	37265.22
659.902	37432
660.253	37244.43
660.604	37500.24
660.955	37348.38
661.306	37567.13
661.656	37386.8
662.007	37406.69
662.358	37661.59
662.708	37567.59
663.059	37590.41
663.409	37343.64
663.76	37652.33
664.11	37604.19
664.461	37711.08
664.811	37766.22
665.161	37742.27
665.511	37559
665.862	37815.49
666.212	37738.43
666.562	37771.65
666.912	37809.84
667.262	37478.32
667.612	37705.44
667.962	37848.71
668.312	37655.27
668.662	37949.04
669.011	37715.38
669.361	37707.69
669.711	37812.55
670.06	37674.25
670.41	37689.62
670.76	37718.77
671.109	37721.03
671.459	37657.3
671.808	37601.26
672.157	37698.66
672.507	37620.47
672.856	37468.38
673.205	37506.8
673.554	37479
673.904	37567.81
674.253	37757.19
674.602	37482.84
674.951	37024.55
675.3	36841.5
675.649	37491.2
675.998	37394.26
676.346	37376.86
676.695	37422.05
677.044	37207.37
677.393	37187.03
677.741	37209.63
678.09	37138.22
678.438	37152.46
678.787	37175.05
679.135	37118.56
679.484	36862.97
679.832	37002.85
680.181	36949.97
680.529	36833.14
680.877	36733.94
681.225	36734.61
681.573	36807.83
681.922	36774.84
682.27	36612.81
682.618	36579.59
682.966	36570.1
683.314	36415.3
683.661	36471.12
684.009	36375.98
684.357	36197.23
684.705	35994.07
685.053	36044.01
685.4	36020.51
685.748	35918.82
686.095	35918.14
686.443	35610.8
686.79	35612.61
687.138	35737.35
687.485	35694.19
687.832	35401.31
688.18	35309.57
688.527	35245.39
688.874	35242.45
689.221	35066.41
689.568	34824.83
689.915	34785.96
690.262	34834.1
690.609	34770.37
690.956	34488.34
691.303	34434.11
691.65	34292.87
691.997	34283.83
692.344	34108.92
692.69	33958.42
693.037	33989.83
693.383	33561.14
693.73	33619.89
694.077	33537.18
694.423	33466.68
694.769	33167.7
695.116	33310.75
695.462	33047.25
695.808	32948.27
696.155	32956.63
696.501	32659.92
696.847	32634.38
697.193	32372.02
697.539	32340.6
697.885	32083.44
698.231	32019.93
698.577	31948.98
698.923	31869.2
699.269	31572.94
699.614	31454.07
699.96	31301.76
700.306	31348.54
700.651	31161.65
700.997	30999.17
701.342	31092.73
701.688	30862.45
702.033	30821.1
702.379	30653.19
702.724	30385.4
703.069	30519.18
703.415	30152.41
703.76	30061.12
704.105	30106.54
704.45	29901.12
704.795	29797.17
705.14	29632.2
705.485	29615.7
705.83	29504.97
706.175	29494.8
706.52	29325.09
706.865	29254.13
707.209	29067.92
707.554	29024.76
707.899	29023.86
708.243	28877.64
708.588	28715.16
708.932	28617.31
709.277	28576.18
709.621	28500.71
709.966	28276.3
710.31	28413.7
710.654	28072.69
710.998	28111.56
711.342	28297.55
711.687	28122.86
712.031	27985.01
712.375	27838.12
712.719	27915.64
713.063	27849.65
713.407	27953.15
713.75	27599.49
714.094	27822.76
714.438	27598.58
714.782	27563.55
715.125	27490.34
715.469	27661.18
715.812	27301.64
716.156	27412.82
716.499	27440.17
716.843	27512.26
717.186	27380.51
717.53	27390
717.873	27476.78
718.216	27387.97
718.559	27183.45
718.902	27073.4
719.246	27220.29
719.589	27163.34
719.932	27095.77
720.275	27082.21
720.617	27049.67
720.96	27073.62
721.303	27064.13
721.646	27075.43
721.989	26966.06
722.331	27025.26
722.674	26987.75
723.016	27027.07
723.359	26922.67
723.701	27026.17
724.044	26824.82
724.386	26850.13
724.729	27017.13
725.071	26763.8
725.413	26932.16
725.755	26979.16
726.097	26759.28
726.439	26818.26
726.782	26794.99
727.124	26976
727.465	26850.35
727.807	26867.98
728.149	26891.03
728.491	26894.87
728.833	26982.55
729.175	26978.49
729.516	27073.85
729.858	27054.42
730.199	27131.7
730.541	27032.27
730.882	27032.72
731.224	27102.32
731.565	27079.5
731.906	27127.41
732.248	27251.02
732.589	27177.35
732.93	27042.89
733.271	27221.19
733.612	27176.9
733.953	27386.16
734.294	27360.62
734.635	27314.97
734.976	27540.28
735.317	27423.9
735.658	27555.19
735.999	27468.19
736.339	27645.81
736.68	27713.61
737.021	27787.5
737.361	27678.58
737.702	27909.53
738.042	27924
738.383	27900.5
738.723	27979.59
739.063	27914.28
739.404	28179.13
739.744	28126.93
740.084	28142.97
740.424	28278.79
740.764	28294.61
741.104	28525.11
741.444	28518.11
741.784	28516.75
742.124	28724.2
742.464	28714.94
742.804	28770.53
743.143	28905.89
743.483	29087.58
743.823	28944.54
744.162	29219.1
744.502	29502.94
744.841	29448.7
745.181	29580.68
745.52	29594.46
745.86	29890.05
746.199	29852.53
746.538	30090.49
746.877	30247.33
747.216	30358.74
747.556	30491.61
747.895	30668.11
748.234	30645.28
748.573	30775.22
748.911	31042.33
749.25	31321.65
749.589	31295.89
749.928	31583.34
750.267	31706.27
750.605	31774.74
750.944	32050.67
751.283	32197.78
751.621	32357.78
751.96	32470.32
752.298	32648.62
752.636	32783.98
752.975	32859.23
753.313	33163.41
753.651	33454.93
753.989	33474.36
754.327	33833.22
