Data from 15-5210_FLMS001491_004.txt Node
Date: Thu Apr 19 16:48:20 BST 2018
User: hsy
Spectrometer: FLMS00149
Trigger mode: 0
Integration Time (sec): 1.000000E-2
Scans to average: 10
Electric dark correction enabled: true
Nonlinearity correction enabled: false
Boxcar width: 0
XAxis mode: Wavelengths
Number of Pixels in Spectrum: 2048
>>>>>Begin Spectral Data<<<<<
341.393	-7.1
341.776	-7.1
342.16	-7.1
342.543	-54.11
342.927	-85.07
343.31	-81.23
343.693	-61.57
344.077	-71.28
344.46	-46.2
344.843	-41.23
345.226	-35.58
345.61	-40.32
345.993	-39.19
346.376	-3.49
346.759	27.47
347.142	11.43
347.525	35.83
347.908	61.37
348.291	79.67
348.674	97.07
349.057	107.24
349.44	120.8
349.823	134.81
350.206	158.09
350.588	226.34
350.971	223.85
351.354	259.56
351.737	271.08
352.119	307.24
352.502	285.09
352.884	309.95
353.267	307.92
353.65	327.35
354.032	342.72
354.414	331.64
354.797	335.94
355.179	332.77
355.562	352.66
355.944	372.09
356.326	336.39
356.709	335.94
357.091	365.99
357.473	380.91
357.855	382.49
358.238	389.95
358.62	372.77
359.002	365.09
359.384	375.26
359.766	381.81
360.148	380.23
360.53	380.91
360.912	351.98
361.294	380.23
361.676	386.33
362.057	364.19
362.439	355.6
362.821	351.08
363.203	360.34
363.584	333.23
363.966	358.76
364.348	366.67
364.729	367.58
365.111	341.36
365.493	358.31
365.874	355.6
366.256	364.86
366.637	354.47
367.019	381.13
367.4	345.2
367.781	374.13
368.163	344.52
368.544	349.72
368.925	351.98
369.306	362.6
369.688	361.25
370.069	366.22
370.45	363.51
370.831	349.27
371.212	352.66
371.593	375.94
371.974	345.65
372.355	386.56
372.736	363.96
373.117	367.12
373.498	364.19
373.879	365.54
374.26	360.12
374.641	373.9
375.021	344.75
375.402	389.95
375.783	382.72
376.163	387.69
376.544	379.78
376.925	358.54
377.305	382.94
377.686	373.45
378.066	384.07
378.447	373.68
378.827	389.27
379.208	397.18
379.588	384.75
379.968	410.29
380.349	400.12
380.729	408.25
381.109	384.52
381.489	405.31
381.87	412.09
382.25	426.56
382.63	415.26
383.01	420.68
383.39	412.77
383.77	423.17
384.15	445.09
384.53	419.1
384.91	405.31
385.29	436.5
385.67	438.31
386.049	447.57
386.429	442.83
386.809	441.47
387.189	448.93
387.568	432.21
387.948	441.02
388.328	463.17
388.707	472.66
389.087	474.69
389.466	479.21
389.846	474.01
390.225	476.27
390.605	469.27
390.984	487.35
391.363	488.25
391.743	504.29
392.122	504.75
392.501	493.67
392.881	493.67
393.26	518.31
393.639	511.75
394.018	500.68
394.397	507.91
394.776	511.3
395.155	522.15
395.534	545.2
395.913	535.03
396.292	519.89
396.671	545.88
397.05	548.59
397.429	550.85
397.808	538.19
398.186	559.66
398.565	547.23
398.944	572.77
399.323	577.97
399.701	582.94
400.08	562.15
400.458	586.55
400.837	600.79
401.215	596.95
401.594	591.75
401.972	595.37
402.351	602.82
402.729	608.92
403.107	618.42
403.486	633.1
403.864	631.3
404.242	625.42
404.62	650.51
404.999	638.08
405.377	661.8
405.755	664.29
406.133	690.73
406.511	687.34
406.889	703.84
407.267	714.91
407.645	728.02
408.023	723.72
408.401	734.8
408.779	740.45
409.156	754.68
409.534	764.4
409.912	775.47
410.29	807.34
410.667	818.18
411.045	816.38
411.422	836.72
411.8	836.72
412.178	860.44
412.555	857.73
412.933	858.18
413.31	897.73
413.687	900.67
414.065	905.64
414.442	916.94
414.819	937.73
415.197	956.26
415.574	971.63
415.951	1004.39
416.328	956.03
416.705	974.11
417.082	1016.37
417.46	1002.81
417.837	1015.02
418.214	1036.26
418.591	1039.42
418.967	1058.18
419.344	1047.11
419.721	1098.4
420.098	1065.41
420.475	1093.66
420.852	1111.74
421.228	1117.61
421.605	1148.8
421.982	1142.24
422.358	1180.21
422.735	1192.19
423.111	1193.77
423.488	1189.7
423.864	1201.45
424.241	1217.95
424.617	1243.26
424.994	1243.26
425.37	1273.99
425.746	1267.66
426.123	1308.79
426.499	1271.51
426.875	1326.65
427.251	1391.05
427.627	1377.72
428.003	1351.73
428.379	1378.62
428.756	1406.64
429.132	1442.58
429.507	1440.77
429.883	1444.61
430.259	1466.08
430.635	1473.31
431.011	1508.34
431.387	1568.9
431.763	1579.29
432.138	1581.78
432.514	1579.97
432.89	1604.38
433.265	1640.99
433.641	1658.84
434.016	1685.05
434.392	1700.42
434.767	1763.92
435.143	1711.95
435.518	1765.5
435.894	1806.18
436.269	1812.28
436.644	1843.02
437.02	1861.77
437.395	1848.21
437.77	1894.54
438.145	1927.31
438.52	1917.36
438.895	2000.53
439.271	1938.61
439.646	2013.41
440.021	2045.95
440.395	2020.64
440.77	2032.84
441.145	2010.24
441.52	2094.99
441.895	2067.64
442.27	2106.96
442.645	2105.61
443.019	2153.52
443.394	2140.41
443.769	2163.69
444.143	2186.96
444.518	2164.14
444.892	2219.5
445.267	2218.37
445.641	2215.44
446.016	2256.34
446.39	2271.71
446.764	2281.2
447.139	2306.28
447.513	2348.09
447.887	2327.07
448.262	2320.29
448.636	2343.34
449.01	2376.56
449.384	2431.7
449.758	2385.83
450.132	2441.64
450.506	2482.32
450.88	2465.82
451.254	2507.63
451.628	2524.35
452.002	2586.95
452.376	2574.52
452.75	2620.85
453.123	2605.93
453.497	2660.17
453.871	2685.93
454.244	2794.86
454.618	2800.05
454.992	2838.24
455.365	2822.88
455.739	2886.83
456.112	2936.77
456.486	2889.99
456.859	2950.78
457.232	3040.73
457.606	3049.31
457.979	3085.7
458.352	3150.78
458.725	3186.48
459.099	3202.75
459.472	3246.6
459.845	3313.03
460.218	3324.79
460.591	3406.59
460.964	3449.3
461.337	3478.91
461.71	3502.18
462.083	3572.01
462.456	3605
462.829	3581.28
463.201	3701.27
463.574	3670.99
463.947	3746.92
464.32	3794.38
464.692	3820.37
465.065	3872.79
465.438	3950.76
465.81	3974.94
466.183	3985.33
466.555	4026.91
466.928	4094.71
467.3	4077.31
467.672	4190.75
468.045	4271.2
468.417	4245.89
468.789	4263.52
469.161	4341.48
469.534	4445.66
469.906	4470.29
470.278	4535.83
470.65	4585.32
471.022	4687.01
471.394	4721.36
471.766	4819.89
472.138	4808.36
472.51	4935.14
472.882	4994.12
473.253	5045.19
473.625	5094.23
473.997	5211.29
474.369	5258.29
474.74	5319.08
475.112	5374.9
475.484	5473.66
475.855	5606.08
476.227	5664.84
476.598	5780.77
476.97	5869.8
477.341	5929.24
477.713	6068.22
478.084	6093.3
478.455	6257.59
478.827	6301.43
479.198	6521.31
479.569	6500.97
479.94	6664.36
480.311	6726.96
480.682	6953.62
481.053	6976.44
481.424	7133.05
481.795	7208.53
482.166	7377.33
482.537	7430.21
482.908	7633.6
483.279	7736.42
483.65	7888.51
484.021	8057.77
484.391	8110.87
484.762	8287.59
485.133	8317.87
485.503	8456.4
485.874	8684.64
486.244	8786.56
486.615	8981.81
486.985	9051.64
487.356	9226.1
487.726	9365.53
488.097	9578.63
488.467	9660.44
488.837	9823.37
489.207	9997.38
489.578	10126.19
489.948	10288.67
490.318	10478.04
490.688	10524.37
491.058	10783.35
491.428	10920.29
491.798	10977.01
492.168	11284.12
492.538	11336.55
492.908	11558.69
493.278	11722.08
493.648	11750.1
494.017	11989.64
494.387	12119.13
494.757	12273.02
495.126	12404.32
495.496	12508.95
495.866	12698.55
496.235	12832.78
496.605	13025.77
496.974	13014.93
497.344	13187.35
497.713	13385.76
498.082	13505.99
498.452	13656.49
498.821	13829.37
499.19	13858.97
499.559	13945.3
499.928	14093.54
500.298	14235.69
500.667	14337.38
501.036	14425.06
501.405	14543.93
501.774	14634.77
502.143	14814.43
502.512	14919.28
502.88	15142.33
503.249	15139.39
503.618	15319.27
503.987	15422.77
504.356	15467.29
504.724	15723.78
505.093	15714.06
505.462	15825.47
505.83	15913.16
506.199	16080.83
506.567	16331.45
506.936	16340.71
507.304	16547.04
507.672	16607.15
508.041	16698.22
508.409	16916.52
508.777	16996.97
509.145	17248.71
509.514	17111.99
509.882	17247.58
510.25	17343.63
510.618	17495.49
510.986	17622.26
511.354	17810.73
511.722	17881.24
512.09	17985.87
512.458	18008.02
512.826	18185.86
513.193	18333.88
513.561	18402.58
513.929	18536.14
514.297	18652.52
514.664	18799.41
515.032	18901.78
515.4	19043.92
515.767	19033.3
516.135	19202.79
516.502	19057.93
516.869	19455.21
517.237	19558.93
517.604	19440.75
517.972	19802.32
518.339	19942.65
518.706	19981.75
519.073	19955.76
519.44	20022.88
519.808	20276.88
520.175	20259.26
520.542	20616.76
520.909	20556.87
521.276	20729.53
521.643	20928.39
522.009	21060.82
522.376	21182.4
522.743	21221.26
523.11	21541.26
523.477	21691.76
523.843	21736.73
524.21	21934.01
524.577	22166.78
524.943	22152.09
525.31	22310.5
525.676	22397.73
526.043	22626.42
526.409	22757.95
526.776	22939.18
527.142	22956.13
527.508	23087.2
527.874	23284.94
528.241	23343.02
528.607	23392.05
528.973	23660.3
529.339	23571.71
529.705	23934.64
530.071	24014.41
530.437	24154.97
530.803	24243.11
531.169	24281.52
531.535	24331.24
531.901	24395.19
532.267	24506.6
532.632	24625.92
532.998	24627.28
533.364	24790.44
533.73	24802.64
534.095	24994.95
534.461	24876.76
534.826	25025.91
535.192	25107.49
535.557	25221.84
535.923	25110.88
536.288	25360.82
536.653	25426.13
537.019	25416.63
537.384	25358.56
537.749	25436.07
538.114	25590.64
538.479	25483.98
538.845	25678.32
539.21	25420.48
539.575	25556.52
539.94	25687.36
540.305	25813.69
540.67	25691.65
541.034	25715.38
541.399	25772.1
541.764	25790.64
542.129	25837.41
542.494	25827.24
542.858	25810.52
543.223	25810.97
543.587	25996.96
543.952	25781.6
544.316	25965.32
544.681	25866.57
545.045	25952.21
545.41	26007.58
545.774	25905.89
546.138	25923.51
546.503	25995.6
546.867	25855.72
547.231	26087.8
547.595	26054.81
547.959	26048.71
548.324	26050.97
548.688	25967.35
549.052	26121.93
549.416	26046.9
549.779	25975.49
550.143	26049.61
550.507	26120.57
550.871	26084.41
551.235	26151.98
551.599	26291.19
551.962	26305.88
552.326	26216.61
552.689	26128.48
553.053	26128.48
553.417	26093.68
553.78	26396.72
554.143	26256.39
554.507	26249.61
554.87	26296.38
555.234	26502.26
555.597	26285.54
555.96	26256.61
556.323	26355.37
556.686	26222.04
557.05	26441.92
557.413	26423.39
557.776	26336.61
558.139	26353.78
558.502	26519.66
558.865	26349.72
559.228	26538.86
559.59	26617.51
559.953	26554.01
560.316	26766.43
560.679	26750.16
561.041	26835.81
561.404	26934.11
561.767	26985.41
562.129	26937.27
562.492	27100.43
562.854	26902.92
563.217	27063.37
563.579	27168.45
563.941	27283.93
564.304	27231.5
564.666	27508.78
565.028	27404.15
565.39	27516.01
565.753	27569.8
566.115	27588.55
566.477	27699.29
566.839	27677.14
567.201	28018.15
567.563	27944.93
567.925	28079.39
568.287	28100.41
568.648	28093.17
569.01	28299.72
569.372	28488.87
569.734	28414.07
570.095	28499.94
570.457	28710.33
570.819	28759.37
571.18	28674.18
571.542	28889.54
571.903	28887.05
572.265	29079.59
572.626	29104.45
572.987	29103.09
573.349	29296.31
573.71	29238.23
574.071	29475.51
574.432	29423.31
574.794	29778.55
575.155	29668.73
575.516	29623.08
575.877	29767.48
576.238	29872.34
576.599	30064.42
576.96	30064.2
577.32	30116.17
577.681	30201.37
578.042	30338.31
578.403	30392.55
578.763	30342.83
579.124	30439.33
579.485	30757.96
579.845	30747.57
580.206	30724.74
580.566	30726.32
580.927	30760.45
581.287	30811.29
581.648	30856.72
582.008	31188.46
582.368	31158.18
582.728	31181.45
583.089	31195.47
583.449	31079.54
583.809	31278.17
584.169	31283.15
584.529	31318.4
584.889	31568.34
585.249	31520.88
585.609	31240.44
585.969	31657.83
586.329	31505.97
586.688	31544.61
587.048	31724.72
587.408	31667.77
587.768	31667.32
588.127	31634.32
588.487	31717.26
588.846	32029.34
589.206	31761.33
589.565	31869.8
589.925	32011.04
590.284	32089
590.643	32163.58
591.003	32210.58
591.362	32430.46
591.721	32402.89
592.08	32386.62
592.44	32588.87
592.799	32533.06
593.158	32569.21
593.517	32474.53
593.876	32582.77
594.235	32590.91
594.593	32759.94
594.952	32798.81
595.311	32734.18
595.67	32797.23
596.029	33029.32
596.387	33004.23
596.746	33194.73
597.104	33057.34
597.463	33185.47
597.822	33290.33
598.18	33309.08
598.538	33338.46
598.897	33585.01
599.255	33345.47
599.613	33771.22
599.972	33506.82
600.33	33692.57
600.688	33620.49
601.046	33706.36
601.404	33904.77
601.762	33887.6
602.12	33997.88
602.478	34036.97
602.836	34078.78
603.194	34006.46
603.552	34074.49
603.91	34114.48
604.268	34222.73
604.625	34151.32
604.983	34343.18
605.341	34246.91
605.698	34521.03
606.056	34629.27
606.413	34485.77
606.771	34749.95
607.128	34768.7
607.485	34704.98
607.843	34787.01
608.2	34881.92
608.557	34945.87
608.914	34917.4
609.272	35125.76
609.629	35191.97
609.986	35365.52
610.343	35302.02
610.7	35576.59
611.057	35482.13
611.414	35323.49
611.771	35630.83
612.127	35796.02
612.484	35711.28
612.841	35851.84
613.198	35752.18
613.554	35790.82
613.911	36016.81
614.267	35914.89
614.624	36056.81
614.98	36061.33
615.337	36250.93
615.693	36263.13
616.05	36365.5
616.406	36476.46
616.762	36347.42
617.118	36362.33
617.475	36264.71
617.831	36501.54
618.187	36581.31
618.543	36715.09
618.899	36884.13
619.255	36814.75
619.611	36645.04
619.967	36956.67
620.323	37122.31
620.678	36902.21
621.034	36871.93
621.39	36873.73
621.746	36861.53
622.101	37409.76
622.457	36915.54
622.812	37141.07
623.168	37231.01
623.523	37191.24
623.879	37378.13
624.234	37017.46
624.589	37262.2
624.945	37332.48
625.3	37457.9
625.655	37325.25
626.01	37291.12
626.365	37406.38
626.72	37281.18
627.075	37107.63
627.43	37290.45
627.785	37408.64
628.14	37352.14
628.495	37374.96
628.85	37409.09
629.205	37370.9
629.559	37412.02
629.914	37299.49
630.269	37292.48
630.623	37094.07
630.978	37167.29
631.332	37373.61
631.687	37271.69
632.041	37269.88
632.396	37222.2
632.75	37322.54
633.104	37140.62
633.459	37007.74
633.813	37110.79
634.167	37031.47
634.521	36894.75
634.875	36969.55
635.229	36903.79
635.583	36854.3
635.937	36775.66
636.291	36691.59
636.645	36750.35
636.999	36615.89
637.352	36604.81
637.706	36585.15
638.06	36821.08
638.413	36642.55
638.767	36506.06
639.121	36640.75
639.474	36294.31
639.828	36338.61
640.181	36382
640.534	36363.24
640.888	36231.94
641.241	36108.33
641.594	36360.53
641.947	36379.51
642.301	36180.42
642.654	36205.95
643.007	36218.61
643.36	36235.78
643.713	36183.13
644.066	36346.52
644.419	36081.89
644.771	35711.5
645.124	35412.53
645.477	35410.5
645.83	35268.35
646.182	35349.48
646.535	35150.84
646.888	35395.81
647.24	35217.05
647.593	35420.89
647.945	35239.65
648.298	35114.46
648.65	35089.37
649.002	34911.53
649.355	34931.19
649.707	34772.32
650.059	34812.55
650.411	35332.08
650.763	35559.87
651.115	36031.5
651.467	35902.23
651.819	35979.75
652.171	35751.28
652.523	35866.08
652.875	36107.43
653.227	35835.8
653.578	36189.68
653.93	36048.67
654.282	35756.7
654.633	35704.05
654.985	35795.8
655.337	35931.16
655.688	35944.72
656.039	36109.46
656.391	35796.47
656.742	35900.65
657.094	35911.73
657.445	36031.5
657.796	36080.99
658.147	36059.29
658.498	36134.54
658.849	36123.02
659.2	36110.59
659.551	36022.23
659.902	36330.92
660.253	36154.66
660.604	36296.35
660.955	36123.92
661.306	36297.93
661.656	36165.5
662.007	36257.7
662.358	36307.2
662.708	36436.46
663.059	36239.17
663.409	36256.12
663.76	36364.82
664.11	36318.72
664.461	36447.76
664.811	36404.37
665.161	36468.32
665.511	36373.86
665.862	36417.47
666.212	36518.94
666.562	36482.78
666.912	36432.39
667.262	36370.02
667.612	36377.48
667.962	36415.21
668.312	36426.51
668.662	36639.16
669.011	36571.82
669.361	36491.15
669.711	36595.32
670.06	36564.82
670.41	36394.88
670.76	36399.62
671.109	36549.22
671.459	36314.43
671.808	36411.83
672.157	36364.37
672.507	36156.24
672.856	36164.15
673.205	36236.69
673.554	36258.16
673.904	36261.32
674.253	36363.46
674.602	36227.42
674.951	35821.78
675.3	35465.41
675.649	36199.85
675.998	36111.27
676.346	36119.4
676.695	36230.81
677.044	36022.68
677.393	35934.1
677.741	35926.64
678.09	36001.89
678.438	35906.53
678.787	35960.99
679.135	35870.37
679.484	35600.55
679.832	35862.24
680.181	35598.29
680.529	35596.93
680.877	35644.61
681.225	35459.76
681.573	35853.2
681.922	35498.63
682.27	35351.51
682.618	35426.77
682.966	35459.99
683.314	35478.52
683.661	35271.29
684.009	35167.11
684.357	34945.87
684.705	34883.28
685.053	34897.29
685.4	34712.43
685.748	34697.97
686.095	34662.72
686.443	34453.91
686.79	34470.63
687.138	34563.29
687.485	34366
687.832	34225.67
688.18	34259.11
688.527	34162.17
688.874	34032
689.221	33848.73
689.568	33681.5
689.915	33636.53
690.262	33705.23
690.609	33565.57
690.956	33385.01
691.303	33420.27
691.65	33123.32
691.997	33085.13
692.344	33009.65
692.69	32806.95
693.037	32890.79
693.383	32535.32
693.73	32568.31
694.077	32308.88
694.423	32317.47
694.769	32193.18
695.116	32078.15
695.462	31923.81
695.808	31785.96
696.155	31937.37
696.501	31411.96
696.847	31583.48
697.193	31387.1
697.539	31247.22
697.885	30964.51
698.231	31016.94
698.577	30850.16
698.923	30743.05
699.269	30432.55
699.614	30451.08
699.96	30424.86
700.306	30267.81
700.651	30071.65
700.997	29969.73
701.342	29924.76
701.688	29883.41
702.033	29679.8
702.379	29668.05
702.724	29515.06
703.069	29475.96
703.415	29146.93
703.76	29113.26
704.105	29062.19
704.45	28972.92
704.795	28857.45
705.14	28638.24
705.485	28760.27
705.83	28380.85
706.175	28463.79
706.52	28442.77
706.865	28257.92
707.209	28134.53
707.554	28127.3
707.899	28094.98
708.243	27962.56
708.588	27858.38
708.932	27622
709.277	27677.82
709.621	27552.17
709.966	27465.17
710.31	27502.23
710.654	27336.36
710.998	27366.64
711.342	27238.73
711.687	27177.49
712.031	27079.64
712.375	27065.18
712.719	26892.98
713.063	26968.23
713.407	27007.55
713.75	26781.8
714.094	26890.95
714.438	26788.12
714.782	26744.51
715.125	26609.14
715.469	26729.14
715.812	26513.55
716.156	26416.61
716.499	26539.32
716.843	26614.57
717.186	26420.45
717.53	26511.07
717.873	26533.44
718.216	26454.35
718.559	26414.8
718.902	26209.61
719.246	26233.79
719.589	26191.98
719.932	26132.32
720.275	26073.34
720.617	26195.82
720.96	26164.64
721.303	26256.61
721.646	26179.33
721.989	26126.22
722.331	26209.83
722.674	26233.79
723.016	26184.98
723.359	26090.74
723.701	26123.28
724.044	25970.97
724.386	25952.21
724.729	26141.59
725.071	26082.38
725.413	26049.84
725.755	26083.96
726.097	25993.12
726.439	25982.49
726.782	25902.72
727.124	26072.21
727.465	26105.66
727.807	26043.28
728.149	26152.89
728.491	25911.99
728.833	26124.41
729.175	26100.91
729.516	26084.86
729.858	26131.64
730.199	26161.93
730.541	26177.07
730.882	26121.7
731.224	26281.7
731.565	26186.78
731.906	26302.03
732.248	26283.5
732.589	26093.68
732.93	26293.67
733.271	26303.39
733.612	26311.98
733.953	26458.64
734.294	26444.18
734.635	26283.28
734.976	26643.72
735.317	26510.16
735.658	26551.07
735.999	26557.85
736.339	26581.35
736.68	26684.62
737.021	26736.37
737.361	26730.72
737.702	26947.67
738.042	26939.53
738.383	27050.72
738.723	27268.11
739.063	26977.72
739.404	27357.6
739.744	27336.81
740.084	27324.61
740.424	27347.43
740.764	27454.77
741.104	27734.09
741.444	27529.8
741.784	27596.92
742.124	27828.77
742.464	27828.32
742.804	27982.67
743.143	27895.21
743.483	28230.8
743.823	28213.4
744.162	28395.99
744.502	28552.6
744.841	28496.33
745.181	28742.87
745.52	28835.3
745.86	29072.36
746.199	28942.64
746.538	29090.21
746.877	29422.18
747.216	29650.42
747.556	29618.56
747.895	29890.19
748.234	29981.26
748.573	30111.43
748.911	30223.29
749.25	30452.89
749.589	30428.03
749.928	30648.13
750.267	30875.93
750.605	31027.56
750.944	31112.76
751.283	31373.54
751.621	31644.49
751.96	31588.9
752.298	31816.24
752.636	31983.24
752.975	32200.64
753.313	32273.4
753.651	32716.1
