Data from 15-5210_FLMS001491_010.txt Node
Date: Thu Apr 19 16:48:35 BST 2018
User: hsy
Spectrometer: FLMS00149
Trigger mode: 0
Integration Time (sec): 1.000000E-2
Scans to average: 10
Electric dark correction enabled: true
Nonlinearity correction enabled: false
Boxcar width: 0
XAxis mode: Wavelengths
Number of Pixels in Spectrum: 2048
>>>>>Begin Spectral Data<<<<<
341.393	-28.36
341.776	-28.36
342.16	-28.36
342.543	-59.09
342.927	-78.53
343.31	-78.75
343.693	-69.04
344.077	-67
344.46	-37.4
344.843	-64.07
345.226	-38.08
345.61	-22.71
345.993	-28.36
346.376	-6.44
346.759	17.29
347.142	20
347.525	35.82
347.908	56.61
348.291	68.36
348.674	89.83
349.057	123.95
349.44	120.11
349.823	158.07
350.206	184.51
350.588	218.41
350.971	255.02
351.354	235.81
351.737	258.86
352.119	292.08
352.502	286.89
352.884	309.03
353.267	317.84
353.65	325.98
354.032	352.42
354.414	361.69
354.797	347.22
355.179	339.77
355.562	366.66
355.944	354.23
356.326	368.92
356.709	362.59
357.091	363.72
357.473	377.05
357.855	382.25
358.238	394.23
358.62	378.86
359.002	365.08
359.384	378.18
359.766	381.35
360.148	365.98
360.53	358.52
360.912	377.05
361.294	393.77
361.676	358.52
362.057	373.21
362.439	366.66
362.821	362.14
363.203	357.62
363.584	362.59
363.966	365.3
364.348	386.32
364.729	350.16
365.111	359.88
365.493	376.6
365.874	354
366.256	370.95
366.637	347.9
367.019	346.32
367.4	345.41
367.781	361.46
368.163	350.61
368.544	372.08
368.925	362.82
369.306	376.83
369.688	361.46
370.069	360.78
370.45	365.98
370.831	354.45
371.212	350.84
371.593	365.53
371.974	369.37
372.355	379.76
372.736	359.65
373.117	370.95
373.498	370.27
373.879	339.77
374.26	354.23
374.641	344.28
375.021	369.59
375.402	371.18
375.783	381.8
376.163	387
376.544	386.77
376.925	379.31
377.305	392.87
377.686	396.49
378.066	410.72
378.447	419.31
378.827	380.22
379.208	422.02
379.588	395.58
379.968	385.64
380.349	403.27
380.729	404.62
381.109	417.73
381.489	392.65
381.87	403.72
382.25	417.28
382.63	413.66
383.01	412.98
383.39	422.25
383.77	445.98
384.15	424.51
384.53	408.46
384.91	434.68
385.29	436.94
385.67	438.97
386.049	443.72
386.429	450.95
386.809	437.84
387.189	468.35
387.568	450.27
387.948	450.95
388.328	453.43
388.707	473.55
389.087	476.48
389.466	465.64
389.846	465.86
390.225	495.02
390.605	476.48
390.984	475.81
391.363	475.35
391.743	489.59
392.122	499.76
392.501	503.83
392.881	533.66
393.26	516.26
393.639	504.28
394.018	513.77
394.397	527.1
394.776	542.02
395.155	521.46
395.534	521.46
395.913	519.65
396.292	549.25
396.671	564.62
397.05	542.7
397.429	577.95
397.808	551.96
398.186	588.12
398.565	573.21
398.944	575.01
399.323	565.97
399.701	567.1
400.08	561.91
400.458	565.07
400.837	576.82
401.215	591.06
401.594	618.63
401.972	603.49
402.351	622.47
402.729	617.5
403.107	610.04
403.486	630.15
403.864	626.31
404.242	665.18
404.62	667.89
404.999	655.69
405.377	686.2
405.755	666.99
406.133	655.01
406.511	687.33
406.889	712.18
407.267	721.9
407.645	706.99
408.023	761.9
408.401	736.82
408.779	757.61
409.156	758.29
409.534	781.34
409.912	781.34
410.29	814.1
410.667	793.09
411.045	813.42
411.422	831.5
411.8	846.19
412.178	865.4
412.555	866.53
412.933	873.99
413.31	899.98
413.687	925.06
414.065	946.53
414.442	958.05
414.819	938.62
415.197	923.03
415.574	966.42
415.951	992.4
416.328	979.97
416.705	998.05
417.082	1009.35
417.46	1029.24
417.837	1022.23
418.214	1046.64
418.591	1045.74
418.967	1091.61
419.344	1062.23
419.721	1098.16
420.098	1091.38
420.475	1096.13
420.852	1117.6
421.228	1109.91
421.605	1156.01
421.982	1151.04
422.358	1179.52
422.735	1187.2
423.111	1178.84
423.488	1213.19
423.864	1231.04
424.241	1229.01
424.617	1251.15
424.994	1254.77
425.37	1264.94
425.746	1287.76
426.123	1306.07
426.499	1309.23
426.875	1322.79
427.251	1340.87
427.627	1372.05
428.003	1386.74
428.379	1398.72
428.756	1406.63
429.132	1446.85
429.507	1481.66
429.883	1492.28
430.259	1501.09
430.635	1515.55
431.011	1511.49
431.387	1529.79
431.763	1543.35
432.138	1582.44
432.514	1612.27
432.89	1614.53
433.265	1697.47
433.641	1686.62
434.016	1711.25
434.392	1744.93
434.767	1749.67
435.143	1770.69
435.518	1813.4
435.894	1847.75
436.269	1852.49
436.644	1856.34
437.02	1880.97
437.395	1888.42
437.77	1941.08
438.145	1955.09
438.52	1983.34
438.895	2000.96
439.271	2009.33
439.646	2033.73
440.021	2079.38
440.395	2092.71
440.77	2048.65
441.145	2076.67
441.52	2173.39
441.895	2162.54
442.27	2126.16
442.645	2108.53
443.019	2194.18
443.394	2194.63
443.769	2203.67
444.143	2216.55
444.518	2232.37
444.892	2226.5
445.267	2284.12
445.641	2275.08
446.016	2301.75
446.39	2291.13
446.764	2311.01
447.139	2339.71
447.513	2350.79
447.887	2371.8
448.262	2351.92
448.636	2386.72
449.01	2437.11
449.384	2429.88
449.758	2414.29
450.132	2489.09
450.506	2503.32
450.88	2567.96
451.254	2514.4
451.628	2553.49
452.002	2620.84
452.376	2644.79
452.75	2643.43
453.123	2675.52
453.497	2677.78
453.871	2724.79
454.244	2826.93
454.618	2822.86
454.992	2885.23
455.365	2896.76
455.739	2945.57
456.112	2953.48
456.486	2981.28
456.859	3026.25
457.232	3105.34
457.606	3110.77
457.979	3170.65
458.352	3202.29
458.725	3216.07
459.099	3275.96
459.472	3297.2
459.845	3367.71
460.218	3402.51
460.591	3476.86
460.964	3486.57
461.337	3535.84
461.71	3601.83
462.083	3589.17
462.456	3624.88
462.829	3651.99
463.201	3722.05
463.574	3736.29
463.947	3819
464.32	3875.72
464.692	3895.6
465.065	3910.74
465.438	3978.31
465.81	4025.54
466.183	4013.79
466.555	4144.41
466.928	4138.76
467.3	4160.46
467.672	4216.5
468.045	4302.6
468.417	4336.27
468.789	4388.02
469.161	4405.87
469.534	4489.49
469.906	4528.13
470.278	4616.94
470.65	4622.82
471.022	4773.32
471.394	4808.12
471.766	4882.02
472.138	4910.94
472.51	5026.42
472.882	5083.14
473.253	5104.61
473.625	5176.47
473.997	5292.4
474.369	5317.04
474.74	5352.06
475.112	5532.85
475.484	5636.35
475.855	5633.64
476.227	5681.09
476.598	5866.63
476.97	5959.96
477.341	6040.86
477.713	6115.66
478.084	6140.06
478.455	6378.25
478.827	6408.98
479.198	6545.7
479.569	6607.4
479.94	6807.39
480.311	6881.97
480.682	6992.92
481.053	7149.3
481.424	7301.84
481.795	7393.36
482.166	7451.22
482.537	7616.18
482.908	7768.27
483.279	7857.53
483.65	8032.67
484.021	8158.99
484.391	8305.43
484.762	8405.09
485.133	8532.77
485.503	8650.73
485.874	8830.16
486.244	8923.49
486.615	9099.31
486.985	9236.48
487.356	9416.59
487.726	9422.69
488.097	9741.1
488.467	9832.17
488.837	10059.51
489.207	10109.45
489.578	10301.31
489.948	10506.05
490.318	10643
490.688	10756.21
491.058	10895.42
491.428	11118.92
491.798	11181.51
492.168	11457.21
492.538	11541.5
492.908	11720.03
493.278	11886.81
493.648	11981.72
494.017	12189.85
494.387	12266.23
494.757	12358.43
495.126	12606.34
495.496	12658.76
495.866	12892.2
496.235	13027.34
496.605	13165.19
496.974	13266.2
497.344	13415.35
497.713	13612.41
498.082	13667.1
498.452	13852.63
498.821	14058.27
499.19	14033.42
499.559	14313.41
499.928	14415.55
500.298	14440.41
500.667	14593.18
501.036	14668.88
501.405	14846.05
501.774	14890.57
502.143	15108.19
502.512	15213.05
502.88	15364
503.249	15441.74
503.618	15630.21
503.987	15576.2
504.356	15804.22
504.724	15942.07
505.093	15938.45
505.462	16143.64
505.83	16221.83
506.199	16307.03
506.567	16642.61
506.936	16697.3
507.304	16905.21
507.672	16910.18
508.041	17055.26
508.409	17249.15
508.777	17232.2
509.145	17481.91
509.514	17539.31
509.882	17604.17
510.25	17732.08
510.618	17832.41
510.986	18040.54
511.354	18115.79
511.722	18211.61
512.09	18409.35
512.458	18424.04
512.826	18556.01
513.193	18555.33
513.561	18771.6
513.929	18893.63
514.297	18963.46
514.664	19143.56
515.032	19176.56
515.4	19381.52
515.767	19491.58
516.135	19602.76
516.502	19497
516.869	19818.57
517.237	19877.56
517.604	19900.61
517.972	20110.32
518.339	20176.08
518.706	20279.58
519.073	20345.57
519.44	20528.39
519.808	20732.22
520.175	20645.45
520.542	20990.3
520.909	20988.04
521.276	21015.61
521.643	21390.74
522.009	21537.17
522.376	21594.12
522.743	21687.68
523.11	21778.98
523.477	22024.84
523.843	22150.94
524.21	22443.82
524.577	22588.67
524.943	22693.53
525.31	22621.44
525.676	22956.35
526.043	22991.37
526.409	23198.37
526.776	23367.86
527.142	23448.31
527.508	23670.68
527.874	23759.26
528.241	23902.54
528.607	23932.59
528.973	24227.72
529.339	24119.25
529.705	24351.56
530.071	24560.37
530.437	24709.97
530.803	24705.45
531.169	24912.45
531.535	24897.99
531.901	24934.15
532.267	25173.69
532.632	25243.07
532.998	25308.15
533.364	25422.27
533.73	25497.52
534.095	25720.11
534.461	25665.65
534.826	25785.88
535.192	25711.98
535.557	25900
535.923	25852.09
536.288	25970.96
536.653	26119.43
537.019	25935.93
537.384	25964.85
537.749	26141.8
538.114	26148.13
538.479	26271.51
538.845	26079.88
539.21	26199.2
539.575	26304.51
539.94	26315.81
540.305	26387.67
540.67	26150.16
541.034	26383.37
541.399	26426.54
541.764	26356.03
542.129	26453.88
542.494	26465.18
542.858	26506.08
543.223	26384.5
543.587	26579.08
543.952	26499.98
544.316	26513.77
544.681	26507.66
545.045	26604.39
545.41	26658.62
545.774	26541.56
546.138	26446.65
546.503	26557.38
546.867	26591.5
547.231	26694.1
547.595	26653.42
547.959	26721.67
548.324	26627.21
548.688	26620.2
549.052	26760.31
549.416	26666.98
549.779	26556.48
550.143	26527.78
550.507	26775.23
550.871	26843.25
551.235	26749.47
551.599	26881.67
551.962	26876.92
552.326	26889.35
552.689	26874.43
553.053	26811.16
553.417	26944.26
553.78	27093.19
554.143	27048.89
554.507	27004.6
554.87	26994.88
555.234	27060.42
555.597	26921.21
555.96	27023.58
556.323	27051.15
556.686	27047.31
557.05	27069.46
557.413	27093.64
557.776	27144.26
558.139	27281.88
558.502	27189.23
558.865	27084.37
559.228	27351.94
559.59	27271.03
559.953	27294.99
560.316	27549.45
560.679	27541.54
561.041	27630.35
561.404	27701.31
561.767	27868.76
562.129	27728.65
562.492	27946.27
562.854	27833.73
563.217	27822.88
563.579	27912.83
563.941	28021.75
564.304	28080.5
564.666	28318.46
565.028	28125.25
565.39	28275.08
565.753	28433.04
566.115	28356.88
566.477	28443.43
566.839	28615.18
567.201	28747.38
567.563	28521.85
567.925	28851.78
568.287	28804.78
568.648	28870.54
569.01	29042.97
569.372	29251.77
569.734	29198.89
570.095	29326.57
570.457	29558.66
570.819	29480.69
571.18	29509.62
571.542	29713.68
571.903	29663.51
572.265	29848.82
572.626	29911.42
572.987	29877.75
573.349	30127.46
573.71	30184.86
574.071	30310.95
574.432	30404.51
574.794	30533.55
575.155	30462.59
575.516	30615.13
575.877	30602.47
576.238	30746.88
576.599	30783.26
576.96	30832.75
577.32	31003.14
577.681	30984.38
578.042	31197.26
578.403	31239.52
578.763	31162.01
579.124	31200.65
579.485	31339.4
579.845	31509.12
580.206	31396.12
580.566	31571.49
580.927	31632.73
581.287	31748.2
581.648	31641.77
582.008	31792.5
582.368	31833.4
582.728	31993.62
583.089	31982.77
583.449	31912.04
583.809	32003.57
584.169	32096.9
584.529	32097.8
584.889	32270.22
585.249	32231.58
585.609	32119.04
585.969	32406.27
586.329	32330.11
586.688	32473.84
587.048	32497.56
587.408	32637.45
587.768	32534.85
588.127	32587.5
588.487	32618.69
588.846	32825.69
589.206	32581.86
589.565	32613.27
589.925	32864.11
590.284	32931.9
590.643	32828.85
591.003	32930.32
591.362	33122.86
591.721	33169.86
592.08	33129.41
592.44	33225
592.799	33347.03
593.158	33315.85
593.517	33285.57
593.876	33426.58
594.235	33304.1
594.593	33317.2
594.952	33567.14
595.311	33527.82
595.67	33577.08
596.029	33846
596.387	33880.58
596.746	33923.97
597.104	33639.23
597.463	33776.85
597.822	33883.52
598.18	33885.55
598.538	33991.99
598.897	34158.08
599.255	34058.65
599.613	34507.91
599.972	34122.83
600.33	34301.13
600.688	34228.82
601.046	34500.22
601.404	34618.41
601.762	34395.59
602.12	34534.35
602.478	34758.52
602.836	34689.82
603.194	34480.56
603.552	34740.44
603.91	34578.64
604.268	34871.74
604.625	34752.42
604.983	34888.01
605.341	34863.15
605.698	34996.93
606.056	35153.54
606.413	34994.45
606.771	35214.33
607.128	35237.6
607.485	35209.36
607.843	35203.71
608.2	35396.92
608.557	35579.97
608.914	35395.34
609.272	35589.69
609.629	35889.79
609.986	35838.04
610.343	35817.02
610.7	36121.2
611.057	36011.82
611.414	35971.6
611.771	36060.18
612.127	36173.4
612.484	36214.53
612.841	36351.47
613.198	36264.92
613.554	36375.2
613.911	36544.46
614.267	36618.59
614.624	36444.8
614.98	36659.04
615.337	36875.3
615.693	36819.26
616.05	36956.66
616.406	37033.26
616.762	36988.52
617.118	36939.93
617.475	36934.96
617.831	37183.54
618.187	36986.71
618.543	37200.49
618.899	37319.58
619.255	37309.41
619.611	37124.56
619.967	37441.61
620.323	37567.71
620.678	37372.46
621.034	37442.07
621.39	37454.72
621.746	37480.26
622.101	37884.99
622.457	37570.2
622.812	37769.29
623.168	37828.27
623.523	37665.34
623.879	37815.84
624.234	37733.13
624.589	37940.13
624.945	37983.75
625.3	38006.12
625.655	38001.15
626.01	37766.13
626.365	37897.2
626.72	37894.71
627.075	37757.76
627.43	37910.53
627.785	37967.48
628.14	37885.9
628.495	37967.7
628.85	37849.97
629.205	37760.93
629.559	37848.38
629.914	37816.52
630.269	37839.34
630.623	37613.81
630.978	37575.85
631.332	37817.65
631.687	37890.19
632.041	37692.46
632.396	37726.58
632.75	37664.43
633.104	37680.93
633.459	37469.41
633.813	37555.06
634.167	37487.04
634.521	37514.83
634.875	37523.42
635.229	37450.65
635.583	37222.64
635.937	37335.85
636.291	37264.44
636.645	37153.94
636.999	37082.75
637.352	37259.25
637.706	37065.81
638.06	37200.72
638.413	37118.69
638.767	36930.44
639.121	37104.67
639.474	36873.04
639.828	36880.05
640.181	36809.31
640.534	36944.9
640.888	36747.85
641.241	36586.27
641.594	36733.61
641.947	36798.69
642.301	36685.02
642.654	36738.13
643.007	36612.26
643.36	36652.48
643.713	36601.18
644.066	36711.46
644.419	36539.72
644.771	36151.48
645.124	35879.17
645.477	35777.25
645.83	35659.29
646.182	35709.91
646.535	35499.07
646.888	35653.19
647.24	35646.86
647.593	35904.48
647.945	35666.75
648.298	35524.15
648.65	35407.32
649.002	35350.82
649.355	35293.87
649.707	35201.22
650.059	35255.46
650.411	35721.66
650.763	35909.9
651.115	36433.51
651.467	36218.82
651.819	36322.1
652.171	36190.57
652.523	36228.31
652.875	36241.65
653.227	36043.91
653.578	36428.99
653.93	36274.64
654.282	36233.06
654.633	36246.62
654.985	36148.54
655.337	36343.11
655.688	36247.3
656.039	36407.07
656.391	36004.14
656.742	36273.96
657.094	36216.34
657.445	36342.66
657.796	36378.82
658.147	36422.43
658.498	36397.8
658.849	36520.96
659.2	36457.46
659.551	36218.37
659.902	36608.64
660.253	36340.85
660.604	36519.38
660.955	36480.28
661.306	36460.17
661.656	36402.32
662.007	36535.42
662.358	36529.1
662.708	36607.51
663.059	36629.43
663.409	36426.5
663.76	36638.7
664.11	36675.76
664.461	36821.29
664.811	36798.69
665.161	36772.03
665.511	36717.34
665.862	36682.54
666.212	36654.97
666.562	36910.1
666.912	36812.93
667.262	36662.2
667.612	36642.77
667.962	36792.37
668.312	36775.64
668.662	37051.79
669.011	36894.96
669.361	36631.92
669.711	36861.06
670.06	36675.08
670.41	36649.09
670.76	36641.41
671.109	36901.74
671.459	36772.48
671.808	36727.06
672.157	36839.14
672.507	36550.56
672.856	36639.6
673.205	36718.24
673.554	36755.76
673.904	36412.26
674.253	36886.6
674.602	36500.17
674.951	36088.2
675.3	35906.74
675.649	36569.32
675.998	36449.32
676.346	36527.06
676.695	36493.62
677.044	36256.79
677.393	36303.34
677.741	36450.45
678.09	36334.98
678.438	36235.09
678.787	36371.81
679.135	36294.75
679.484	36087.98
679.832	36307.63
680.181	36050.24
680.529	35943.8
680.877	35936.57
681.225	35948.55
681.573	36102.67
681.922	35930.69
682.27	35724.15
682.618	35845.95
682.966	35627.65
683.314	35607.31
683.661	35633.07
684.009	35496.35
684.357	35363.02
684.705	35297.72
685.053	35310.82
685.4	35162.8
685.748	35010.72
686.095	35048.23
686.443	34887.78
686.79	34794.68
687.138	34761.91
687.485	34778.41
687.832	34682.14
688.18	34645.08
688.527	34510.39
688.874	34358.98
689.221	34376.84
689.568	34085.54
689.915	33997.19
690.262	34093.68
690.609	33977.3
690.956	33782.05
691.303	33827.02
691.65	33602.62
691.997	33589.51
692.344	33317.66
692.69	33292.12
693.037	33235.4
693.383	32900.49
693.73	33000.83
694.077	32785.01
694.423	32715.18
694.769	32646.71
695.116	32543.89
695.462	32280.39
695.808	32246.72
696.155	32253.28
696.501	31901.65
696.847	31861.2
697.193	31709.11
697.539	31600.41
697.885	31449.91
698.231	31268.22
698.577	31312.74
698.923	31227.31
699.269	30984.61
699.614	30702.58
699.96	30669.14
700.306	30766.76
700.651	30541.46
700.997	30393.44
701.342	30275.7
701.688	30210.17
702.033	29995.26
702.379	30073.67
702.724	29940.79
703.069	29797.3
703.415	29560.01
703.76	29458.77
704.105	29499
704.45	29406.35
704.795	29200.7
705.14	29003.42
705.485	28912.8
705.83	28749.87
706.175	28940.14
706.52	28855.63
706.865	28644.11
707.209	28575.18
707.554	28518.69
707.899	28398.01
708.243	28276.66
708.588	28100.17
708.932	28047.06
709.277	28068.53
709.621	28010.68
709.966	27905.37
710.31	27814.52
710.654	27595.77
710.998	27721.19
711.342	27684.13
711.687	27512.61
712.031	27466.51
712.375	27186.29
712.719	27303.12
713.063	27217.02
713.407	27313.97
713.75	27166.4
714.094	27243.92
714.438	27089.12
714.782	27081.21
715.125	26954.21
715.469	26999.4
715.812	26878.28
716.156	26777.71
716.499	26826.75
716.843	26840.76
717.186	26684.16
717.53	26803.7
717.873	26818.39
718.216	26745.62
718.559	26698.39
718.902	26454.33
719.246	26560.77
719.589	26490.04
719.932	26420.44
720.275	26460.21
720.617	26522.81
720.96	26585.4
721.303	26497.27
721.646	26457.95
721.989	26331.4
722.331	26526.65
722.674	26370.49
723.016	26343.15
723.359	26335.69
723.701	26427.21
724.044	26331.17
724.386	26145.41
724.729	26390.83
725.071	26393.54
725.413	26342.7
725.755	26445.52
726.097	26217.73
726.439	26308.35
726.782	26215.47
727.124	26445.97
727.465	26364.17
727.807	26293.88
728.149	26415.92
728.491	26417.05
728.833	26389.48
729.175	26425.86
729.516	26354.67
729.858	26448.68
730.199	26483.71
730.541	26507.89
730.882	26391.51
731.224	26479.19
731.565	26512.64
731.906	26536.36
732.248	26535.69
732.589	26511.51
732.93	26598.06
733.271	26634.44
733.612	26630.37
733.953	26780.43
734.294	26684.16
734.635	26612.75
734.976	26905.85
735.317	26843.02
735.658	26908.11
735.999	26851.84
736.339	26899.07
736.68	27031.27
737.021	26928.22
737.361	26916.02
737.702	27175.44
738.042	27085.5
738.383	27211.83
738.723	27359.85
739.063	27318.94
739.404	27496.57
739.744	27461.09
740.084	27417.92
740.424	27736.56
740.764	27530.91
741.104	27834.41
741.444	27765.48
741.784	27857.01
742.124	27930.68
742.464	28057.45
742.804	28182.65
743.143	28202.54
743.483	28350.33
743.823	28442.3
744.162	28536.54
744.502	28713.03
744.841	28786.02
745.181	28980.14
745.52	29024.89
745.86	29148.5
746.199	29277.54
746.538	29362.28
746.877	29632.33
747.216	29724.53
747.556	29865.09
747.895	29935.15
748.234	30143.28
748.573	30239.54
748.911	30385.75
749.25	30590.27
749.589	30538.97
749.928	30967.43
750.267	31099.63
750.605	31275.45
750.944	31404.48
751.283	31443.58
751.621	31806.28
751.96	31767.64
752.298	32131.02
752.636	32320.39
752.975	32320.62
753.313	32369.43
753.651	32781.62
753.989	32802.64
