Data from 15-6437_FLMS001491_008.txt Node
Date: Thu Apr 19 15:40:30 BST 2018
User: hsy
Spectrometer: FLMS00149
Trigger mode: 0
Integration Time (sec): 1.000000E-2
Scans to average: 10
Electric dark correction enabled: true
Nonlinearity correction enabled: false
Boxcar width: 0
XAxis mode: Wavelengths
Number of Pixels in Spectrum: 2048
>>>>>Begin Spectral Data<<<<<
341.393	1.67
341.776	1.67
342.16	1.67
342.543	-65
342.927	-85.11
343.31	-85.34
343.693	-83.98
344.077	-60.03
344.46	-43.76
344.843	-68.16
345.226	-43.3
345.61	-8.28
345.993	-24.55
346.376	-2.4
346.759	19.97
347.142	31.27
347.525	52.29
347.908	51.61
348.291	74.21
348.674	94.55
349.057	95.9
349.44	103.36
349.823	169.12
350.206	173.19
350.588	220.64
350.971	269.23
351.354	268.78
351.737	271.72
352.119	291.6
352.502	300.42
352.884	342.22
353.267	320.98
353.65	318.27
354.032	342
354.414	341.54
354.797	350.58
355.179	358.27
355.562	380.87
355.944	362.56
356.326	377.48
356.709	363.92
357.091	373.18
357.473	385.61
357.855	378.61
358.238	389.23
358.62	381.54
359.002	393.97
359.384	372.73
359.766	397.14
360.148	384.26
360.53	398.49
360.912	390.13
361.294	371.15
361.676	393.29
362.057	394.42
362.439	377.25
362.821	374.99
363.203	372.28
363.584	371.15
363.966	378.38
364.348	364.59
364.729	396.23
365.111	359.62
365.493	360.08
365.874	368.89
366.256	356.01
366.637	378.61
367.019	386.97
367.4	376.57
367.781	359.17
368.163	384.03
368.544	381.32
368.925	371.15
369.306	385.39
369.688	369.34
370.069	366.4
370.45	372.28
370.831	371.83
371.212	357.36
371.593	382
371.974	391.26
372.355	403.46
372.736	388.32
373.117	363.24
373.498	375.89
373.879	374.31
374.26	385.39
374.641	381.09
375.021	387.42
375.402	390.58
375.783	412.5
376.163	387.87
376.544	404.37
376.925	407.98
377.305	405.27
377.686	437.14
378.066	401.66
378.447	393.07
378.827	376.57
379.208	420.64
379.588	397.81
379.968	403.46
380.349	390.58
380.729	396.91
381.109	435.33
381.489	440.3
381.87	410.02
382.25	428.1
382.63	407.76
383.01	416.57
383.39	419.06
383.77	452.28
384.15	453.63
384.53	432.62
384.91	436.46
385.29	452.05
385.67	445.95
386.049	435.1
386.429	438.49
386.809	466.51
387.189	429
387.568	444.82
387.948	460.86
388.328	486.63
388.707	483.01
389.087	465.16
389.466	482.56
389.846	470.58
390.225	504.48
390.605	511.26
390.984	484.14
391.363	512.84
391.743	498.15
392.122	506.51
392.501	508.55
392.881	491.82
393.26	490.47
393.639	506.51
394.018	505.16
394.397	522.1
394.776	514.42
395.155	530.92
395.534	530.01
395.913	529.79
396.292	535.89
396.671	532.27
397.05	538.6
397.429	545.38
397.808	517.59
398.186	548.09
398.565	560.07
398.944	549.9
399.323	548.32
399.701	564.36
400.08	535.21
400.458	568.88
400.837	585.15
401.215	587.19
401.594	585.61
401.972	583.8
402.351	603.68
402.729	576.34
403.107	606.85
403.486	604.81
403.864	630.35
404.242	614.76
404.62	637.81
404.999	621.99
405.377	640.75
405.755	625.15
406.133	632.16
406.511	626.51
406.889	646.62
407.267	670.58
407.645	655.66
408.023	664.7
408.401	686.85
408.779	697.24
409.156	692.5
409.534	701.08
409.912	725.04
410.29	736.79
410.667	719.39
411.045	720.74
411.422	719.16
411.8	723
412.178	759.61
412.555	755.09
412.933	766.17
413.31	768.65
413.687	787.18
414.065	778.37
414.442	799.84
414.819	820.18
415.197	818.37
415.574	814.07
415.951	824.24
416.328	839.84
416.705	841.19
417.082	848.88
417.46	846.39
417.837	889.78
418.214	860.4
418.591	850.68
418.967	905.15
419.344	880.29
419.721	887.75
420.098	893.62
420.475	896.78
420.852	895.2
421.228	924.13
421.605	954.64
421.982	925.71
422.358	938.37
422.735	965.94
423.111	952.83
423.488	977.91
423.864	967.52
424.241	998.02
424.617	975.2
424.994	1001.19
425.37	1017.69
425.746	1013.62
426.123	1019.94
426.499	1031.24
426.875	1040.28
427.251	1045.93
427.627	1078.93
428.003	1094.29
428.379	1073.73
428.756	1079.6
429.132	1141.52
429.507	1131.13
429.883	1162.54
430.259	1142.88
430.635	1165.48
431.011	1158.92
431.387	1186.49
431.763	1217
432.138	1207.06
432.514	1228.08
432.89	1237.11
433.265	1264.01
433.641	1289.32
434.016	1270.11
434.392	1292.93
434.767	1302.65
435.143	1346.49
435.518	1344.46
435.894	1359.37
436.269	1378.35
436.644	1372.03
437.02	1395.98
437.395	1399.14
437.77	1440.05
438.145	1453.38
438.52	1441.85
438.895	1473.04
439.271	1459.48
439.646	1472.81
440.021	1509.2
440.395	1474.17
440.77	1492.93
441.145	1490.44
441.52	1540.38
441.895	1535.19
442.27	1543.1
442.645	1544.9
443.019	1589.87
443.394	1577.9
443.769	1586.94
444.143	1580.38
444.518	1595.75
444.892	1582.87
445.267	1635.75
445.641	1627.16
446.016	1621.06
446.39	1650.21
446.764	1657.22
447.139	1644.34
447.513	1677.1
447.887	1706.03
448.262	1673.26
448.636	1701.96
449.01	1718.23
449.384	1746.25
449.758	1769.76
450.132	1759.36
450.506	1781.51
450.88	1784.9
451.254	1816.08
451.628	1835.06
452.002	1847.72
452.376	1864.44
452.75	1896.31
453.123	1898.34
453.497	1932.92
453.871	1945.57
454.244	2002.97
454.618	1987.83
454.992	2034.61
455.365	2030.09
455.739	2087.94
456.112	2103.08
456.486	2135.62
456.859	2157.32
457.232	2211.1
457.606	2203.19
457.979	2201.16
458.352	2257.65
458.725	2263.53
459.099	2272.79
459.472	2350.53
459.845	2356.86
460.218	2366.58
460.591	2437.53
460.964	2421.49
461.337	2486.8
461.71	2518.66
462.083	2538.32
462.456	2557.08
462.829	2557.98
463.201	2635.95
463.574	2627.36
463.947	2680.47
464.32	2685.89
464.692	2766.34
465.065	2754.59
465.438	2804.53
465.81	2810.18
466.183	2838.88
466.555	2886.79
466.928	2938.54
467.3	2936.73
467.672	2987.35
468.045	3044.3
468.417	3036.16
468.789	3051.98
469.161	3138.53
469.534	3169.27
469.906	3257.63
470.278	3280.22
470.65	3318.19
471.022	3368.13
471.394	3397.96
471.766	3418.98
472.138	3484.29
472.51	3527.45
472.882	3617.84
473.253	3630.72
473.625	3653.55
473.997	3784.39
474.369	3800.44
474.74	3825.52
475.112	3886.99
475.484	3959.98
475.855	4036.81
476.227	4044.27
476.598	4201.1
476.97	4245.4
477.341	4256.92
477.713	4392.96
478.084	4428.89
478.455	4538.04
478.827	4601.32
479.198	4703.01
479.569	4759.51
479.94	4881.31
480.311	4969.45
480.682	5085.37
481.053	5191.36
481.424	5237.01
481.795	5361.75
482.166	5473.61
482.537	5498.47
482.908	5666.15
483.279	5724.68
483.65	5872.92
484.021	6000.6
484.391	6129.19
484.762	6203.09
485.133	6294.38
485.503	6368.96
485.874	6609.85
486.244	6638.55
486.615	6778.66
486.985	6876.74
487.356	7041.48
487.726	7153.79
488.097	7380
488.467	7451.87
488.837	7718.3
489.207	7819.99
489.578	7940.67
489.948	8151.96
490.318	8320.09
490.688	8314.22
491.058	8583.14
491.428	8821.32
491.798	8906.29
492.168	9175.44
492.538	9288.88
492.908	9492.04
493.278	9647.29
493.648	9829.66
494.017	10013.38
494.387	10240.95
494.757	10418.12
495.126	10583.08
495.496	10723.64
495.866	10928.61
496.235	11125.89
496.605	11456.51
496.974	11561.81
497.344	11771.75
497.713	11975.59
498.082	12121.57
498.452	12410.83
498.821	12582.13
499.19	12736.02
499.559	13035.22
499.928	13246.29
500.298	13413.74
500.667	13748.2
501.036	13924.69
501.405	14135.76
501.774	14376.88
502.143	14572.13
502.512	14844.67
502.88	15149.06
503.249	15260.93
503.618	15465.89
503.987	15689.84
504.356	16023.62
504.724	16254.8
505.093	16411.86
505.462	16658.63
505.83	16866.76
506.199	17253.64
506.567	17500.19
506.936	17635.33
507.304	18007.52
507.672	18321.18
508.041	18366.83
508.409	18662.87
508.777	18997.33
509.145	19271.89
509.514	19421.27
509.882	19734.71
510.25	19861.48
510.618	20171.98
510.986	20341.47
511.354	20541.47
511.722	20951.62
512.09	21131.51
512.458	21232.75
512.826	21569.91
513.193	21641.32
513.561	21912.28
513.929	22016.68
514.297	22505.03
514.664	22658.02
515.032	22743.67
515.4	23056.2
515.767	23228.63
516.135	23299.59
516.502	23246.03
516.869	23749.52
517.237	23972.56
517.604	23818.67
517.972	24376.17
518.339	24481.93
518.706	24610.06
519.073	24735.03
519.44	24937.96
519.808	25250.04
520.175	25330.94
520.542	25646.64
520.909	25706.08
521.276	25861.1
521.643	26181.32
522.009	26284.37
522.376	26535.88
522.743	26678.25
523.11	26979.04
523.477	27146.72
523.843	27282.76
524.21	27631.45
524.577	27840.26
524.943	27980.59
525.31	28101.94
525.676	28370.86
526.043	28519.33
526.409	28545.77
526.776	28799.78
527.142	28958.87
527.508	29224.18
527.874	29322.25
528.241	29456.26
528.607	29456.49
528.973	29791.39
529.339	29846.53
529.705	30126.75
530.071	30265.28
530.437	30298.95
530.803	30626.85
531.169	30523.58
531.535	30631.82
531.901	30742.55
532.267	30697.81
532.632	30997.01
532.998	30959.72
533.364	31050.12
533.73	31140.51
534.095	31469.09
534.461	31221.86
534.826	31407.17
535.192	31439.03
535.557	31751.11
535.923	31572.59
536.288	31754.96
536.653	31747.5
537.019	31667.95
537.384	31758.57
537.749	31866.37
538.114	31982.75
538.479	31820.27
538.845	31883.31
539.21	31804.67
539.575	31981.39
539.94	32034.04
540.305	32069.98
540.67	31991.56
541.034	31951.11
541.399	32003.09
541.764	32098
542.129	32114.04
542.494	32092.8
542.858	32214.38
543.223	32043.76
543.587	32211.22
543.952	31998.34
544.316	32159.69
544.681	31994.72
545.045	32265.45
545.41	32217.09
545.774	32156.98
546.138	32187.94
546.503	32222.29
546.867	32083.08
547.231	32255.51
547.595	32218.22
547.959	32296.41
548.324	32195.4
548.688	32148.17
549.052	32266.58
549.416	32258.22
549.779	32174.38
550.143	32184.32
550.507	32441.49
550.871	32341.61
551.235	32282.85
551.599	32465.22
551.962	32442.62
552.326	32478.55
552.689	32413.7
553.053	32297.54
553.417	32351.78
553.78	32537.99
554.143	32550.87
554.507	32343.87
554.87	32489.4
555.234	32645.33
555.597	32470.64
555.96	32460.7
556.323	32591.32
556.686	32573.69
557.05	32679.9
557.413	32701.6
557.776	32586.35
558.139	32726.91
558.502	32837.87
558.865	32804.19
559.228	32995.38
559.59	32953.57
559.953	32989.73
560.316	33164.41
560.679	33043.28
561.041	33175.26
561.404	33165.99
561.767	33448.7
562.129	33227.01
562.492	33408.7
562.854	33468.81
563.217	33443.73
563.579	33618.86
563.941	33735.47
564.304	33965.07
564.666	33909.7
565.028	33807.11
565.39	33967.55
565.753	34147.44
566.115	34045.29
566.477	34090.26
566.839	34352.63
567.201	34550.59
567.563	34322.8
567.925	34690.92
568.287	34542
568.648	34634.43
569.01	34811.15
569.372	34921.88
569.734	34949.67
570.095	35139.73
570.457	35249.33
570.819	35230.57
571.18	35089.11
571.542	35385.82
571.903	35367.29
572.265	35583.1
572.626	35466.04
572.987	35475.08
573.349	35697.45
573.71	35816.54
574.071	35737.9
574.432	35872.36
574.794	36115.75
575.155	36041.17
575.516	36025.13
575.877	36167.5
576.238	36022.64
576.599	36160.26
576.96	36132.92
577.32	36187.38
577.681	36380.82
578.042	36480.48
578.403	36423.31
578.763	36346.47
579.124	36380.6
579.485	36649.52
579.845	36517.32
580.206	36307.38
580.566	36400.26
580.927	36307.6
581.287	36434.83
581.648	36351.9
582.008	36408.39
582.368	36317.32
582.728	36280.71
583.089	36363.42
583.449	36318.68
583.809	36287.72
584.169	36238.68
584.529	36136.99
584.889	36428.28
585.249	36090.21
585.609	36003.21
585.969	36058.35
586.329	36047.05
586.688	36077.78
587.048	36003.21
587.408	35936.99
587.768	35894.28
588.127	35853.15
588.487	35809.54
588.846	36146.48
589.206	35724.8
589.565	35774.06
589.925	35843.21
590.284	35814.28
590.643	35892.25
591.003	35852.93
591.362	35884.79
591.721	35781.06
592.08	35840.95
592.44	35885.69
592.799	35710.33
593.158	35743.1
593.517	35725.25
593.876	35755.75
594.235	35622.42
594.593	35675.08
594.952	35659.26
595.311	35529.32
595.67	35499.72
596.029	35679.6
596.387	35682.31
596.746	35813.38
597.104	35540.85
597.463	35540.62
597.822	35643.89
598.18	35510.11
598.538	35426.72
598.897	35772.93
599.255	35451.81
599.613	35831.91
599.972	35549.21
600.33	35507.85
600.688	35541.98
601.046	35586.27
601.404	35700.39
601.762	35717.79
602.12	35711.24
602.478	35576.55
602.836	35643.22
603.194	35407.52
603.552	35597.34
603.91	35611.35
604.268	35847.05
604.625	35578.36
604.983	35843.66
605.341	35559.6
605.698	35857.22
606.056	35929.99
606.413	35793.49
606.771	36160.26
607.128	35953.94
607.485	35869.65
607.843	35878.46
608.2	35978.35
608.557	36002.53
608.914	35829.65
609.272	36184.9
609.629	36248.17
609.986	36303.99
610.343	36172.24
610.7	36419.01
611.057	36395.06
611.414	36284.78
611.771	36567.48
612.127	36478
612.484	36497.66
612.841	36489.07
613.198	36363.42
613.554	36574.04
613.911	36813.13
614.267	36790.76
614.624	36723.86
614.98	36721.38
615.337	37009.51
615.693	36973.8
616.05	36976.29
616.406	36970.86
616.762	37103.29
617.118	36933.8
617.475	36944.88
617.831	37219.22
618.187	37249.27
618.543	37248.37
618.899	37425.77
619.255	37394.36
619.611	37394.13
619.967	37398.65
620.323	37685.42
620.678	37420.34
621.034	37394.13
621.39	37347.8
621.746	37329.72
622.101	37763.39
622.457	37522.94
622.812	37702.6
623.168	37654.24
623.523	37628.02
623.879	37828.24
624.234	37601.13
624.589	37752.54
624.945	37780.79
625.3	37828.47
625.655	37884.06
626.01	37767.68
626.365	37797.73
626.72	37656.04
627.075	37709.38
627.43	37724.06
627.785	37715.7
628.14	37686.33
628.495	37713.9
628.85	37784.4
629.205	37816.04
629.559	37839.32
629.914	37692.65
630.269	37722.26
630.623	37391.19
630.978	37470.06
631.332	37740.79
631.687	37664.18
632.041	37455.6
632.396	37440.23
632.75	37406.56
633.104	37422.83
633.459	37286.79
633.813	37294.47
634.167	37307.58
634.521	37216.06
634.875	37179.67
635.229	37077.98
635.583	36991.65
635.937	36923.86
636.291	37007.7
636.645	37002.95
636.999	36823.98
637.352	37014.93
637.706	36783.75
638.06	36925.89
638.413	36766.35
638.767	36679.12
639.121	36652.68
639.474	36454.72
639.828	36543.3
640.181	36483.65
640.534	36652.68
640.888	36421.05
641.241	36211.79
641.594	36399.13
641.947	36413.59
642.301	36295.85
642.654	36393.7
643.007	36101.28
643.36	36317.55
643.713	36169.08
644.066	36369.98
644.419	36033.94
644.771	35646.15
645.124	35387.63
645.477	35451.81
645.83	35267.18
646.182	35212.72
646.535	35248.2
646.888	35373.39
647.24	35197.13
647.593	35479.15
647.945	35305.37
648.298	35218.59
648.65	34946.74
649.002	34829.68
649.355	34787.42
649.707	34718.95
650.059	34763.46
650.411	35308.99
650.763	35487.97
651.115	35911
651.467	35822.42
651.819	35776.09
652.171	35783.78
652.523	35638.92
652.875	35688.41
653.227	35588.75
653.578	35857
653.93	35714.85
654.282	35551.92
654.633	35677.34
654.985	35789.2
655.337	35690.45
655.688	35549.66
656.039	35686.6
656.391	35428.76
656.742	35607.51
657.094	35584.69
657.445	35705.81
657.796	35584.46
658.147	35603.22
658.498	35716.43
658.849	35761.86
659.2	35814.74
659.551	35696.1
659.902	35896.77
660.253	35778.58
660.604	35947.16
660.955	35668.98
661.306	35871.46
661.656	35772.03
662.007	35856.09
662.358	36032.36
662.708	35952.36
663.059	36059.02
663.409	35778.81
663.76	35964.34
664.11	36053.37
664.461	36074.62
664.811	36026.48
665.161	36067.84
665.511	36053.83
665.862	36110.77
666.212	36118.68
666.562	36193.26
666.912	36144.67
667.262	36027.61
667.612	36060.83
667.962	35878.01
668.312	36085.69
668.662	36202.07
669.011	36182.86
669.361	36020.61
669.711	36130.66
670.06	35965.24
670.41	36072.36
670.76	35965.69
671.109	36151.9
671.459	35882.76
671.808	35859.25
672.157	36087.95
672.507	35701.52
672.856	35651.12
673.205	35802.99
673.554	35941.51
673.904	35858.35
674.253	36019.25
674.602	35843.66
674.951	35454.29
675.3	35161.65
675.649	35699.49
675.998	35772.03
676.346	35814.06
676.695	35887.28
677.044	35549.88
677.393	35674.63
677.741	35725.47
678.09	35576.78
678.438	35429.66
678.787	35442.77
679.135	35514.41
679.484	35273.06
679.832	35425.37
680.181	35255.65
680.529	35263.56
680.877	35155.54
681.225	35077.58
681.573	35412.26
681.922	35071.48
682.27	34958.04
682.618	35026.96
682.966	34721.66
683.314	34791.03
683.661	34734.54
684.009	34648.44
684.357	34599.18
684.705	34551.27
685.053	34490.25
685.4	34368.9
685.748	34235.79
686.095	34288.45
686.443	34113.31
686.79	34124.84
687.138	34152.63
687.485	33965.07
687.832	33812.3
688.18	33909.7
688.527	33673.32
688.874	33554.91
689.221	33482.59
689.568	33305.88
689.915	33241.02
690.262	33278.98
690.609	33189.72
690.956	33063.85
691.303	33144.98
691.65	32843.06
691.997	32761.94
692.344	32535.5
692.69	32478.33
693.037	32530.53
693.383	32247.37
693.73	32370.08
694.077	32050.99
694.423	31983.65
694.769	31899.13
695.116	31826.14
695.462	31690.78
695.808	31604.9
696.155	31572.81
696.501	31320.62
696.847	31297.79
697.193	31021.64
697.539	31253.73
697.885	30945.94
698.231	30899.16
698.577	30862.55
698.923	30672.95
699.269	30343.24
699.614	30323.36
699.96	30267.99
700.306	30162.91
700.651	29999.3
700.997	29865.74
701.342	29791.17
701.688	29758.85
702.033	29543.49
702.379	29608.8
702.724	29343.27
703.069	29404.06
703.415	29113.44
703.76	29042.26
704.105	28932.66
704.45	28856.95
704.795	28676.62
705.14	28645.21
705.485	28623.29
705.83	28325.22
706.175	28440.69
706.52	28287.25
706.865	28120.93
707.209	28099.68
707.554	28062.62
707.899	27970.87
708.243	27826.25
708.588	27847.94
708.932	27604.1
709.277	27556.87
709.621	27455.63
709.966	27386.26
710.31	27369.53
710.654	27058.58
710.998	27146.49
711.342	27192.59
711.687	27089.54
712.031	26979.94
712.375	26952.14
712.719	26852.71
713.063	26973.39
713.407	26871.92
713.75	26885.48
714.094	26760.74
714.438	26700.4
714.782	26603
715.125	26538.6
715.469	26751.02
715.812	26413.85
716.156	26392.61
716.499	26488.65
716.843	26529.1
717.186	26234.42
717.53	26492.04
717.873	26524.81
718.216	26367.53
718.559	26375.66
718.902	26175.44
719.246	26221.99
719.589	26106.29
719.932	26031.04
720.275	26115.56
720.617	26250.47
720.96	26071.94
721.303	26136.57
721.646	26127.99
721.989	26059.29
722.331	26035.11
722.674	25991.94
723.016	26031.94
723.359	25988.33
723.701	26000.31
724.044	25929.12
724.386	25847.54
724.729	25864.72
725.071	25941.78
725.413	25915.56
725.755	25857.71
726.097	25811.61
726.439	25860.65
726.782	25817.71
727.124	25883.7
727.465	25828.33
727.807	25895.68
728.149	25852.06
728.491	25702.69
728.833	25859.97
729.175	25780.2
729.516	25806.86
729.858	25783.59
730.199	25869.69
730.541	25806.19
730.882	25836.47
731.224	25911.95
731.565	25844.6
731.906	25907.88
732.248	25952.85
732.589	25865.17
732.93	25866.3
733.271	25883.92
733.612	25993.07
733.953	26012.73
734.294	25883.92
734.635	25860.87
734.976	26088.21
735.317	26025.39
735.658	26012.06
735.999	26005.28
736.339	26035.11
736.68	26163.01
737.021	26207.08
737.361	26143.13
737.702	26364.59
738.042	26250.47
738.383	26385.83
738.723	26375.66
739.063	26307.19
739.404	26585.15
739.744	26467.86
740.084	26599.39
740.424	26680.97
740.764	26753.05
741.104	26754.64
741.444	26714.41
741.784	26670.12
742.124	26846.16
742.464	26961.64
742.804	26979.71
743.143	27065.81
743.483	27252.48
743.823	27181.97
744.162	27470.55
744.502	27538.57
744.841	27499.47
745.181	27731.78
745.52	27655.4
745.86	27815.4
746.199	27950.31
746.538	27995.05
746.877	28376.74
747.216	28456.29
747.556	28400.92
747.895	28564.76
748.234	28766.79
748.573	28900.34
748.911	28915.93
749.25	29136.27
749.589	29261.91
749.928	29490.38
750.267	29655.8
750.605	29833.88
750.944	29812.86
751.283	30118.39
751.621	30276.58
751.96	30281.32
752.298	30607.87
752.636	30676.34
752.975	30967.63
753.313	31139.6
753.651	31477.45
753.989	31345.48
754.327	31686.94
754.666	31486.49
