Data from 15-6437_FLMS001491_005.txt Node
Date: Thu Apr 19 15:40:09 BST 2018
User: hsy
Spectrometer: FLMS00149
Trigger mode: 0
Integration Time (sec): 1.000000E-2
Scans to average: 10
Electric dark correction enabled: true
Nonlinearity correction enabled: false
Boxcar width: 0
XAxis mode: Wavelengths
Number of Pixels in Spectrum: 2048
>>>>>Begin Spectral Data<<<<<
341.393	-21.17
341.776	-21.17
342.16	-21.17
342.543	-61.85
342.927	-83.09
343.31	-67.5
343.693	-66.59
344.077	-87.84
344.46	-63.43
344.843	-52.81
345.226	-43.54
345.61	-26.14
345.993	-16.2
346.376	1.2
346.759	7.53
347.142	31.26
347.525	45.95
347.908	57.92
348.291	81.88
348.674	86.85
349.057	111.48
349.44	123.68
349.823	139.05
350.206	167.52
350.588	221.08
350.971	219.27
351.354	243.23
351.737	254.53
352.119	290.46
352.502	289.55
352.884	309.22
353.267	312.6
353.65	337.69
354.032	323
354.414	350.34
354.797	361.64
355.179	359.61
355.562	375.2
355.944	347.18
356.326	370.91
356.709	366.16
357.091	384.47
357.473	393.96
357.855	371.81
358.238	391.7
358.62	377.01
359.002	375.88
359.384	390.79
359.766	376.78
360.148	405.48
360.53	379.95
360.912	360.51
361.294	358.93
361.676	402.32
362.057	375.43
362.439	389.89
362.821	385.37
363.203	363.45
363.584	369.33
363.966	389.66
364.348	378.37
364.729	377.46
365.111	354.41
365.493	355.09
365.874	381.08
366.256	360.51
366.637	374.3
367.019	363.22
367.4	382.43
367.781	370.68
368.163	360.06
368.544	373.62
368.925	362.55
369.306	372.04
369.688	361.64
370.069	370.46
370.45	374.3
370.831	336.11
371.212	372.72
371.593	372.72
371.974	363.22
372.355	352.38
372.736	378.37
373.117	370.68
373.498	377.46
373.879	375.88
374.26	361.64
374.641	374.98
375.021	367.29
375.402	382.66
375.783	374.52
376.163	397.35
376.544	397.35
376.925	398.03
377.305	373.39
377.686	398.48
378.066	405.71
378.447	392.6
378.827	385.15
379.208	386.28
379.588	400.06
379.968	410.23
380.349	433.05
380.729	428.08
381.109	418.36
381.489	397.57
381.87	411.59
382.25	416.56
382.63	440.29
383.01	425.14
383.39	423.11
383.77	426.05
384.15	431.25
384.53	415.2
384.91	435.99
385.29	445.26
385.67	445.26
386.049	457.23
386.429	463.34
386.809	446.39
387.189	453.17
387.568	451.13
387.948	473.05
388.328	441.41
388.707	482.09
389.087	475.99
389.466	475.09
389.846	456.33
390.225	488.87
390.605	471.47
390.984	444.13
391.363	491.36
391.743	505.14
392.122	507.85
392.501	513.73
392.881	523.22
393.26	504.46
393.639	530.68
394.018	516.89
394.397	530.23
394.776	511.7
395.155	524.58
395.534	528.87
395.913	520.28
396.292	536.55
396.671	551.47
397.05	553.5
397.429	549.43
397.808	535.88
398.186	541.98
398.565	558.02
398.944	537.91
399.323	571.36
399.701	561.19
400.08	563.45
400.458	584.01
400.837	587.4
401.215	562.77
401.594	580.17
401.972	577.46
402.351	605.25
402.729	587.63
403.107	607.06
403.486	592.6
403.864	609.77
404.242	601.64
404.62	635.31
404.999	636.44
405.377	611.81
405.755	647.96
406.133	661.07
406.511	627.17
406.889	660.39
407.267	661.07
407.645	658.58
408.023	691.58
408.401	673.27
408.779	672.6
409.156	687.06
409.534	673.27
409.912	697.23
410.29	696.1
410.667	737.23
411.045	731.12
411.422	718.92
411.8	768.41
412.178	748.07
412.555	753.05
412.933	784
413.31	777
413.687	794.85
414.065	804.12
414.442	798.47
414.819	818.58
415.197	803.44
415.574	823.1
415.951	817.9
416.328	852.03
416.705	846.15
417.082	849.31
417.46	848.86
417.837	851.12
418.214	874.4
418.591	886.37
418.967	879.37
419.344	909.88
419.721	908.3
420.098	899.93
420.475	908.75
420.852	898.35
421.228	897.9
421.605	936.09
421.982	912.81
422.358	944.45
422.735	929.99
423.111	967.95
423.488	977.45
423.864	967.5
424.241	991.46
424.617	985.13
424.994	982.19
425.37	1036.65
425.746	1007.95
426.123	1035.07
426.499	1026.71
426.875	1043.21
427.251	1054.28
427.627	1058.35
428.003	1066.48
428.379	1086.37
428.756	1085.01
429.132	1092.92
429.507	1104.9
429.883	1150.1
430.259	1145.8
430.635	1177.89
431.011	1170.89
431.387	1207.72
431.763	1225.35
432.138	1200.94
432.514	1236.65
432.89	1223.99
433.265	1257.21
433.641	1266.93
434.016	1310.54
434.392	1318
434.767	1356.87
435.143	1324.33
435.518	1334.95
435.894	1342.86
436.269	1372.92
436.644	1391.67
437.02	1430.99
437.395	1433.93
437.77	1442.74
438.145	1441.84
438.52	1432.35
438.895	1477.32
439.271	1499.69
439.646	1476.64
440.021	1528.62
440.395	1490.88
440.77	1506.92
441.145	1514.61
441.52	1565
441.895	1558.45
442.27	1574.94
442.645	1570.42
443.019	1566.58
443.394	1582.63
443.769	1609.75
444.143	1607.26
444.518	1620.59
444.892	1619.69
445.267	1642.51
445.641	1641.16
446.016	1642.51
446.39	1663.3
446.764	1663.98
447.139	1651.33
447.513	1685
447.887	1704.88
448.262	1718.67
448.636	1710.08
449.01	1747.82
449.384	1769.97
449.758	1775.84
450.132	1773.13
450.506	1821.72
450.88	1834.6
451.254	1813.36
451.628	1849.97
452.002	1889.74
452.376	1877.54
452.75	1890.19
453.123	1945.33
453.497	1942.62
453.871	1973.13
454.244	2028.27
454.618	2028.94
454.992	2029.62
455.365	2056.74
455.739	2108.04
456.112	2130.86
456.486	2115.72
456.859	2162.05
457.232	2207.92
457.606	2221.71
457.979	2267.81
458.352	2308.71
458.725	2298.09
459.099	2323.17
459.472	2357.97
459.845	2392.1
460.218	2423.96
460.591	2442.04
460.964	2458.76
461.337	2506.67
461.71	2560.46
462.083	2605.88
462.456	2581.92
462.829	2619.21
463.201	2659.89
463.574	2653.56
463.947	2672.54
464.32	2724.97
464.692	2752.31
465.065	2783.95
465.438	2864.85
465.81	2856.27
466.183	2903.95
466.555	2934.68
466.928	2969.48
467.3	2933.1
467.672	2992.99
468.045	3083.38
468.417	3115.02
468.789	3124.51
469.161	3171.29
469.534	3195.47
469.906	3264.17
470.278	3315.92
470.65	3318.63
471.022	3368.12
471.394	3417.61
471.766	3506.65
472.138	3552.52
472.51	3636.13
472.882	3620.09
473.253	3691.95
473.625	3705.51
473.997	3777.6
474.369	3846.52
474.74	3912.51
475.112	3972.62
475.484	4004.26
475.855	4082.22
476.227	4153.18
476.598	4238.83
476.97	4288.32
477.341	4380.75
477.713	4468.2
478.084	4473.63
478.455	4608.76
478.827	4660.51
479.198	4781.87
479.569	4865.48
479.94	4941.41
480.311	5016.44
480.682	5115.19
481.053	5246.94
481.424	5344.79
481.795	5404.9
482.166	5480.38
482.537	5577.78
482.908	5701.62
483.279	5842.85
483.65	5935.73
484.021	6011.89
484.391	6146.58
484.762	6268.83
485.133	6353.35
485.503	6465.66
485.874	6678.09
486.244	6702.72
486.615	6877.4
486.985	7025.2
487.356	7175.48
487.726	7292.08
488.097	7462.25
488.467	7570.04
488.837	7729.81
489.207	7904.04
489.578	8069.69
489.948	8244.83
490.318	8411.83
490.688	8489.56
491.058	8678.49
491.428	8900.63
491.798	9016.78
492.168	9222.65
492.538	9309.66
492.908	9579.03
493.278	9727.05
493.648	9878.68
494.017	10107.15
494.387	10265.11
494.757	10410.64
495.126	10699
495.496	10740.58
495.866	11099.67
496.235	11132.89
496.605	11452.88
496.974	11586.43
497.344	11776.26
497.713	12021.68
498.082	12223.25
498.452	12472.29
498.821	12755.89
499.19	12786.85
499.559	13063.91
499.928	13235.65
500.298	13488.98
500.667	13793.61
501.036	13952.25
501.405	14249.19
501.774	14465.68
502.143	14625.45
502.512	14885.78
502.88	15159.9
503.249	15295.71
503.618	15572.09
503.987	15764.85
504.356	15994.23
504.724	16196.71
505.093	16413.65
505.462	16696.35
505.83	16936.35
506.199	17296.79
506.567	17487.97
506.936	17648.19
507.304	18151.01
507.672	18118.01
508.041	18493.37
508.409	18732.01
508.777	19066.46
509.145	19301.94
509.514	19364.08
509.882	19742.38
510.25	19926.55
510.618	20249.26
510.986	20272.98
511.354	20704.16
511.722	20885.17
512.09	21238.61
512.458	21260.75
512.826	21634.76
513.193	21645.38
513.561	21986.16
513.929	22212.59
514.297	22417.11
514.664	22630.66
515.032	22786.36
515.4	23075.62
515.767	23090.54
516.135	23404.2
516.502	23343.86
516.869	23816.17
517.237	24004.86
517.604	23897.52
517.972	24356.72
518.339	24490.27
518.706	24560.55
519.073	24736.6
519.44	24909.92
519.808	25240.54
520.175	25224.49
520.542	25627.65
520.909	25725.72
521.276	25805.49
521.643	26007.52
522.009	26247.29
522.376	26411.81
522.743	26518.7
523.11	26878.69
523.477	27066.93
523.843	27160.26
524.21	27444.77
524.577	27653.81
524.943	27741.49
525.31	27806.8
525.676	28148.03
526.043	28268.71
526.409	28522.26
526.776	28777.17
527.142	28806.32
527.508	28949.59
527.874	29184.16
528.241	29299.87
528.607	29298.74
528.973	29724.26
529.339	29568.78
529.705	29817.37
530.071	30057.13
530.437	30144.14
530.803	30254.19
531.169	30489.21
531.535	30425.71
531.901	30560.85
532.267	30635.88
532.632	30862.31
532.998	30697.57
533.364	31074.96
533.73	31061.17
534.095	31255.52
534.461	31120.16
534.826	31227.27
535.192	31292.13
535.557	31537.09
535.923	31437.66
536.288	31415.74
536.653	31496.42
537.019	31545.91
537.384	31517.89
537.749	31676.75
538.114	31578.22
538.479	31507.04
538.845	31667.26
539.21	31587.49
539.575	31675.62
539.94	31625.68
540.305	31785.68
540.67	31663.42
541.034	31612.57
541.399	31645.11
541.764	31732.12
542.129	31774.38
542.494	31726.69
542.858	31878.78
543.223	31742.51
543.587	31849.4
543.952	31684.89
544.316	31694.83
544.681	31616.41
545.045	31884.66
545.41	31855.5
545.774	31695.96
546.138	31772.57
546.503	31832
546.867	31694.15
547.231	31798.78
547.595	31884.43
547.959	31897.09
548.324	31768.95
548.688	31761.04
549.052	31722.17
549.416	31816.18
549.779	31733.02
550.143	31700.93
550.507	31843.53
550.871	31815.96
551.235	31689.86
551.599	32057.76
551.962	31857.31
552.326	31774.38
552.689	31978.21
553.053	31780.93
553.417	31698.9
553.78	31935.05
554.143	31938.21
554.507	31968.04
554.87	32004.65
555.234	32204.42
555.597	31910.19
555.96	31918.78
556.323	31991.09
556.686	31961.72
557.05	32153.35
557.413	32062.28
557.776	31970.76
558.139	32067.93
558.502	32124.2
558.865	32073.13
559.228	32271.99
559.59	32321.03
559.953	32397.18
560.316	32601.25
560.679	32413.23
561.041	32634.69
561.404	32668.14
561.767	32846.89
562.129	32625.65
562.492	32869.94
562.854	32800.56
563.217	32935.25
563.579	32896.38
563.941	33002.14
564.304	33209.59
564.666	33326.65
565.028	33427.44
565.39	33322.36
565.753	33601
566.115	33580.66
566.477	33575.68
566.839	33574.1
567.201	33920.76
567.563	33762.57
567.925	34000.53
568.287	33981.78
568.648	33998.72
569.01	34209.11
569.372	34287.08
569.734	34296.34
570.095	34430.35
570.457	34341.54
570.819	34574.3
571.18	34495.43
571.542	34725.71
571.903	34645.04
572.265	34883.22
572.626	34816.78
572.987	34781.53
573.349	34952.6
573.71	34927.51
574.071	35067.17
574.432	35188.07
574.794	35372.47
575.155	35253.15
575.516	35171.35
575.877	35249.09
576.238	35348.29
576.599	35312.81
576.96	35373.83
577.32	35341.74
577.681	35427.61
578.042	35522.53
578.403	35395.98
578.763	35515.52
579.124	35529.53
579.485	35613.6
579.845	35692.47
580.206	35533.15
580.566	35667.61
580.927	35584.22
581.287	35714.16
581.648	35474.39
582.008	35597.33
582.368	35626.7
582.728	35530.66
583.089	35506.71
583.449	35487.95
583.809	35475.75
584.169	35509.87
584.529	35427.39
584.889	35674.61
585.249	35354.85
585.609	35158.47
585.969	35456.31
586.329	35245.7
586.688	35378.35
587.048	35205.7
587.408	35309.2
587.768	35180.39
588.127	35289.99
588.487	35178.58
588.846	35290.67
589.206	34935.88
589.565	34929.55
589.925	35265.13
590.284	34996.89
590.643	34952.6
591.003	35064.69
591.362	35135.42
591.721	35030.79
592.08	34882.32
592.44	35035.08
592.799	34955.54
593.158	34850.68
593.517	34748.99
593.876	35041.41
594.235	34764.58
594.593	34773.62
594.952	34833.73
595.311	34745.15
595.67	34830.79
596.029	34901.53
596.387	34799.16
596.746	34949.21
597.104	34684.13
597.463	34682.55
597.822	35023.1
598.18	34756.67
598.538	34853.39
598.897	34798.93
599.255	34626.28
599.613	35016.1
599.972	34678.25
600.33	34838.48
600.688	34724.36
601.046	34720.97
601.404	35012.94
601.762	34918.47
602.12	35063.78
602.478	34997.79
602.836	35012.71
603.194	34721.42
603.552	34895.65
603.91	34777.91
604.268	34915.99
604.625	34725.03
604.983	34956.44
605.341	34732.26
605.698	34955.31
606.056	35287.96
606.413	34953.73
606.771	35087.06
607.128	35121.18
607.485	34836.67
607.843	34949.21
608.2	35256.32
608.557	35315.07
608.914	35162.76
609.272	35295.87
609.629	35438.46
609.986	35351.68
610.343	35244.57
610.7	35560.04
611.057	35414.96
611.414	35392.59
611.771	35562.75
612.127	35605.24
612.484	35605.24
612.841	35817.89
613.198	35627.38
613.554	35574.5
613.911	35828.96
614.267	35865.79
614.624	35756.19
614.98	35855.4
615.337	36108.05
615.693	35946.7
616.05	36030.31
616.406	36209.06
616.762	36077.54
617.118	35993.47
617.475	36157.76
617.831	36248.61
618.187	36331.09
618.543	36454.71
618.899	36483.18
619.255	36533.12
619.611	36433.01
619.967	36535.16
620.323	36646.56
620.678	36335.61
621.034	36337.65
621.39	36510.75
621.746	36562.5
622.101	36818.76
622.457	36679.78
622.812	36825.09
623.168	36771.53
623.523	36810.18
623.879	36942.83
624.234	36722.04
624.589	36990.51
624.945	36835.94
625.3	36905.09
625.655	36898.31
626.01	36851.53
626.365	36889.04
626.72	36626.9
627.075	36669.39
627.43	36883.62
627.785	36716.39
628.14	36825.77
628.495	36745.55
628.85	36727.24
629.205	36651.54
629.559	36952.32
629.914	36728.82
630.269	36631.42
630.623	36563.63
630.978	36507.36
631.332	36660.58
631.687	36528.15
632.041	36493.8
632.396	36542.84
632.75	36484.76
633.104	36443.86
633.459	36339.91
633.813	36184.2
634.167	36336.06
634.521	36322.05
634.875	36239.57
635.229	36094.04
635.583	35982.85
635.937	36047.48
636.291	35985.79
636.645	35961.16
636.999	35832.57
637.352	36082.06
637.706	35670.77
638.06	35928.39
638.413	35848.62
638.767	35585.58
639.121	35744.89
639.474	35603.43
639.828	35693.6
640.181	35671.22
640.534	35706.25
640.888	35415.41
641.241	35415.64
641.594	35450.89
641.947	35451.12
642.301	35330.44
642.654	35340.38
643.007	35375.19
643.36	35325.92
643.713	35298.13
644.066	35572.69
644.419	35163.44
644.771	34733.39
645.124	34443.01
645.477	34494.76
645.83	34466.06
646.182	34294.08
646.535	34391.71
646.888	34357.13
647.24	34219.06
647.593	34466.06
647.945	34297.47
648.298	34219.96
648.65	34073.07
649.002	34108.78
649.355	33844.15
649.707	33864.94
650.059	33809.13
650.411	34125.05
650.763	34352.61
651.115	34970
651.467	34710.34
651.819	34797.8
652.171	34779.95
652.523	34803
652.875	34875.76
653.227	34547.64
653.578	35015.87
653.93	34748.76
654.282	34720.97
654.633	34602.55
654.985	34687.07
655.337	34783.56
655.688	34826.73
656.039	34932.94
656.391	34517.36
656.742	34733.85
657.094	34763.22
657.445	34739.72
657.796	34767.52
658.147	34698.14
658.498	34820.85
658.849	34982.88
659.2	34908.53
659.551	34780.63
659.902	34954.86
660.253	34790.12
660.604	34939.49
660.955	34783.79
661.306	34968.19
661.656	34702.43
662.007	34840.96
662.358	34933.16
662.708	35011.81
663.059	34820.17
663.409	34676.22
663.76	34817.23
664.11	34952.37
664.461	34985.59
664.811	35076.44
665.161	35065.82
665.511	35052.48
665.862	35066.72
666.212	35075.98
666.562	35136.55
666.912	35030.34
667.262	35033.73
667.612	35008.42
667.962	35087.06
668.312	35053.39
668.662	35290.67
669.011	35128.64
669.361	34899.72
669.711	35012.26
670.06	34927.74
670.41	35006.83
670.76	35027.85
671.109	35198.47
671.459	34937.68
671.808	34958.02
672.157	35060.17
672.507	34691.81
672.856	34900.85
673.205	34861.53
673.554	34847.29
673.904	34707.63
674.253	35071.24
674.602	34828.31
674.951	34220.41
675.3	34081.21
675.649	34854.97
675.998	34841.87
676.346	34768.2
676.695	34819.95
677.044	34551.03
677.393	34701.53
677.741	34810.23
678.09	34632.83
678.438	34526.39
678.787	34661.76
679.135	34553.74
679.484	34377.25
679.832	34494.08
680.181	34209.34
680.529	34387.19
680.877	34247.08
681.225	34259.96
681.573	34427.87
681.922	34100.42
682.27	34113.98
682.618	34015.45
682.966	33974.54
683.314	34149.23
683.661	33939.07
684.009	33791.27
684.357	33667.21
684.705	33628.79
685.053	33659.07
685.4	33525.74
685.748	33407.1
686.095	33362.58
686.443	33199.42
686.79	33126.43
687.138	33130.5
687.485	33103.83
687.832	33047.34
688.18	32998.52
688.527	32831.52
688.874	32843.95
689.221	32691.64
689.568	32575.26
689.915	32358.99
690.262	32549.5
690.609	32287.36
690.956	32135.27
691.303	32139.79
691.65	31845.33
691.997	31869.29
692.344	31681.27
692.69	31590.88
693.037	31617.32
693.383	31311.11
693.73	31450.54
694.077	31121.96
694.423	31117.44
694.769	31012.81
695.116	30934.62
695.462	30699.83
695.808	30730.56
696.155	30740.28
696.501	30446.73
696.847	30509.1
697.193	30225.26
697.539	30288.54
697.885	29971.94
698.231	29968.1
698.577	29836.12
698.923	29866.18
699.269	29574.43
699.614	29480.65
699.96	29371.73
700.306	29357.49
700.651	29187.33
700.997	29103.94
701.342	29022.81
701.688	28883.38
702.033	28870.05
702.379	28691.97
702.724	28497.17
703.069	28529.04
703.415	28278.88
703.76	28221.7
704.105	28195.49
704.45	28098.31
704.795	27958.43
705.14	27823.52
705.485	27741.94
705.83	27526.58
706.175	27581.72
706.52	27579.91
706.865	27418.11
707.209	27440.93
707.554	27286.13
707.899	27184.89
708.243	27146.48
708.588	27153.48
708.932	26955.52
709.277	26956.42
709.621	26829.42
709.966	26599.15
710.31	26706.94
710.654	26508.98
710.998	26532.25
711.342	26519.83
711.687	26438.7
712.031	26362.99
712.375	26230.12
712.719	26231.25
713.063	26114.86
713.407	26294.75
713.75	26197.35
714.094	26059.27
714.438	25918.94
714.782	26010.46
715.125	25897.69
715.469	25917.58
715.812	25746.51
716.156	25746.51
716.499	25765.49
716.843	25631.26
717.186	25544.26
717.53	25703.12
717.873	25635.55
718.216	25631.94
718.559	25546.07
718.902	25371.15
719.246	25427.88
719.589	25399.85
719.932	25273.98
720.275	25203.48
720.617	25299.29
720.96	25240.99
721.303	25232.85
721.646	25343.59
721.989	25199.63
722.331	25282.34
722.674	25110.6
723.016	25036.25
723.359	25074.21
723.701	25141.33
724.044	25051.84
724.386	24972.52
724.729	25131.84
725.071	25095
725.413	25084.38
725.755	25071.95
726.097	25015.68
726.439	24963.03
726.782	25012.07
727.124	25155.79
727.465	25062.46
727.807	24974.1
728.149	24976.36
728.491	24983.82
728.833	24991.05
729.175	24986.98
729.516	24903.6
729.858	25090.71
730.199	25059.07
730.541	25118.28
730.882	25106.53
731.224	25122.12
731.565	25029.69
731.906	25076.47
732.248	25145.62
732.589	25028.34
732.93	25034.67
733.271	25134.1
733.612	25073.08
733.953	25107.43
734.294	25200.54
734.635	25074.21
734.976	25271.72
735.317	25122.12
735.658	25158.28
735.999	25115.34
736.339	25166.19
736.68	25391.72
737.021	25454.99
737.361	25312.63
737.702	25492.51
738.042	25310.59
738.383	25501.32
738.723	25578.83
739.063	25540.64
739.404	25704.48
739.744	25724.59
740.084	25668.55
740.424	25944.02
740.764	25851.37
741.104	26109.67
741.444	26017.92
741.784	25995.32
742.124	26213.84
742.464	26178.59
742.804	26241.41
743.143	26305.37
743.483	26426.04
743.823	26433.05
744.162	26581.29
744.502	26652.25
744.841	26646.15
745.181	26924.11
745.52	27003.43
745.86	27162.07
746.199	27157.32
746.538	27326.81
746.877	27491.55
747.216	27560.25
747.556	27547.37
747.895	27938.32
748.234	28089.05
748.573	28057.19
748.911	28287.01
749.25	28295.6
749.589	28422.15
749.928	28668.02
750.267	28807.22
750.605	29003.38
750.944	29330.6
751.283	29352.07
751.621	29557.49
751.96	29632.51
752.298	29977.81
752.636	30069.11
752.975	30187.3
753.313	30301.42
753.651	30641.52
753.989	30734.86
754.327	30862.99
