Data from 15-6437_FLMS001491_004.txt Node
Date: Thu Apr 19 15:40:07 BST 2018
User: hsy
Spectrometer: FLMS00149
Trigger mode: 0
Integration Time (sec): 1.000000E-2
Scans to average: 10
Electric dark correction enabled: true
Nonlinearity correction enabled: false
Boxcar width: 0
XAxis mode: Wavelengths
Number of Pixels in Spectrum: 2048
>>>>>Begin Spectral Data<<<<<
341.393	-19.1
341.776	-19.1
342.16	-19.1
342.543	-56.83
342.927	-71.75
343.31	-62.48
343.693	-75.82
344.077	-66.33
344.46	-60.22
344.843	-52.09
345.226	-25.65
345.61	-25.42
345.993	-39.43
346.376	11.64
346.759	-6.21
347.142	10.06
347.525	51.41
347.908	47.8
348.291	77.63
348.674	102.48
349.057	112.65
349.44	135.48
349.823	155.59
350.206	168.92
350.588	241.01
350.971	230.16
351.354	265.64
351.737	256.83
352.119	272.42
352.502	287.79
352.884	280.56
353.267	318.75
353.65	306.32
354.032	320.33
354.414	337.05
354.797	347.67
355.179	344.51
355.562	356.26
355.944	368.69
356.326	374.34
356.709	375.7
357.091	375.92
357.473	396.94
357.855	367.33
358.238	367.56
358.62	381.12
359.002	375.7
359.384	385.41
359.766	372.31
360.148	361.91
360.53	371.18
360.912	362.82
361.294	390.16
361.676	394.23
362.057	367.79
362.439	379.09
362.821	387
363.203	375.7
363.584	352.65
363.966	377.5
364.348	357.62
364.729	371.4
365.111	371.4
365.493	354.68
365.874	370.05
366.256	373.89
366.637	353.1
367.019	366.88
367.4	351.74
367.781	378.41
368.163	360.78
368.544	370.72
368.925	371.18
369.306	365.98
369.688	349.03
370.069	375.02
370.45	367.33
370.831	368.46
371.212	361.01
371.593	366.21
371.974	374.34
372.355	355.58
372.736	382.25
373.117	397.84
373.498	384.74
373.879	384.74
374.26	370.05
374.641	365.3
375.021	377.96
375.402	366.43
375.783	387.22
376.163	395.81
376.544	389.71
376.925	389.03
377.305	391.29
377.686	397.39
378.066	394.45
378.447	424.06
378.827	409.82
379.208	426.54
379.588	406.2
379.968	415.47
380.349	430.16
380.729	427.9
381.109	416.37
381.489	408.01
381.87	414.11
382.25	431.74
382.63	411.4
383.01	439.65
383.39	436.03
383.77	435.13
384.15	432.19
384.53	434.45
384.91	445.75
385.29	436.94
385.67	440.55
386.049	426.99
386.429	458.18
386.809	447.11
387.189	459.31
387.568	463.6
387.948	457.95
388.328	472.42
388.707	453.21
389.087	467.67
389.466	441.91
389.846	495.69
390.225	486.43
390.605	500.66
390.984	481.91
391.363	492.76
391.743	489.14
392.122	471.06
392.501	507.22
392.881	514.9
393.26	512.19
393.639	528.91
394.018	542.02
394.397	508.57
394.776	530.04
395.155	507.67
395.534	539.31
395.913	537.73
396.292	513.32
396.671	530.49
397.05	549.93
397.429	537.05
397.808	540.21
398.186	556.26
398.565	571.85
398.944	565.75
399.323	564.62
399.701	577.05
400.08	578.63
400.458	568.46
400.837	586.99
401.215	587.89
401.594	615.46
401.972	580.21
402.351	586.09
402.729	571.17
403.107	623.37
403.486	621.34
403.864	622.24
404.242	616.37
404.62	621.57
404.999	626.54
405.377	634.9
405.755	635.58
406.133	632.41
406.511	638.97
406.889	664.28
407.267	689.81
407.645	675.8
408.023	705.18
408.401	664.05
408.779	678.97
409.156	692.75
409.534	702.02
409.912	715.8
410.29	721.22
410.667	743.37
411.045	747.89
411.422	735.91
411.8	754.67
412.178	751.05
412.555	765.29
412.933	777.95
413.31	771.17
413.687	781.79
414.065	815.68
414.442	802.13
414.819	810.71
415.197	825.85
415.574	840.09
415.951	856.14
416.328	842.12
416.705	841.9
417.082	847.77
417.46	845.74
417.837	879.86
418.214	887.77
418.591	864.5
418.967	897.26
419.344	893.42
419.721	908.11
420.098	911.5
420.475	902.91
420.852	923.25
421.228	919.41
421.605	929.81
421.982	959.18
422.358	952.86
422.735	952.4
423.111	971.61
423.488	988.56
423.864	977.49
424.241	1005.28
424.617	986.08
424.994	1007.77
425.37	1044.15
425.746	1017.71
426.123	1034.89
426.499	1036.47
426.875	1079.41
427.251	1083.02
427.627	1073.08
428.003	1114.66
428.379	1136.35
428.756	1097.71
429.132	1142.68
429.507	1158.5
429.883	1161.21
430.259	1185.17
430.635	1182.23
431.011	1180.42
431.387	1197.82
431.763	1226.97
432.138	1227.65
432.514	1247.54
432.89	1247.09
433.265	1255.45
433.641	1295.67
434.016	1297.93
434.392	1309.68
434.767	1335.45
435.143	1304.03
435.518	1378.16
435.894	1362.56
436.269	1399.17
436.644	1402.34
437.02	1397.14
437.395	1419.06
437.77	1441.66
438.145	1447.76
438.52	1461.54
438.895	1488.44
439.271	1480.75
439.646	1491.83
440.021	1517.59
440.395	1510.13
440.77	1502.67
441.145	1534.99
441.52	1557.13
441.895	1537.7
442.27	1568.43
442.645	1576.79
443.019	1582.67
443.394	1579.73
443.769	1619.05
444.143	1602.56
444.518	1642.1
444.892	1647.98
445.267	1630.35
445.641	1661.76
446.016	1649.56
446.39	1642.33
446.764	1669.9
447.139	1704.02
447.513	1701.54
447.887	1731.37
448.262	1686.4
448.636	1729.11
449.01	1753.97
449.384	1793.06
449.758	1791.03
450.132	1831.93
450.506	1843
450.88	1827.41
451.254	1848.65
451.628	1853.4
452.002	1913.28
452.376	1922.55
452.75	1941.98
453.123	1931.14
453.497	1967.52
453.871	1976.56
454.244	2030.34
454.618	2053.84
454.992	2097.46
455.365	2084.13
455.739	2111.92
456.112	2126.84
456.486	2150.34
456.859	2168.42
457.232	2233.05
457.606	2259.71
457.979	2254.74
458.352	2287.06
458.725	2341.29
459.099	2360.28
459.472	2391.24
459.845	2464
460.218	2432.37
460.591	2470.56
460.964	2478.47
461.337	2537
461.71	2553.72
462.083	2600.72
462.456	2608.86
462.829	2619.48
463.201	2674.39
463.574	2695.86
463.947	2718.23
464.32	2754.62
464.692	2792.36
465.065	2832.81
465.438	2855.86
465.81	2891.56
466.183	2920.04
466.555	2983.54
466.928	3003.42
467.3	2977.21
467.672	3052.69
468.045	3121.39
468.417	3170.65
468.789	3134.49
469.161	3178.11
469.534	3247.94
469.906	3307.82
470.278	3352.79
470.65	3367.03
471.022	3422.4
471.394	3453.81
471.766	3501.94
472.138	3543.97
472.51	3595.95
472.882	3711.2
473.253	3726.12
473.625	3776.51
473.997	3816.51
474.369	3882.72
474.74	3921.82
475.112	3992.78
475.484	4002.27
475.855	4121.81
476.227	4174.24
476.598	4312.09
476.97	4328.81
477.341	4380.11
477.713	4441.35
478.084	4567.68
478.455	4706.43
478.827	4722.25
479.198	4908.46
479.569	4838.86
479.94	5006.08
480.311	5098.06
480.682	5247.88
481.053	5352.97
481.424	5407.65
481.795	5495.56
482.166	5595.67
482.537	5673.64
482.908	5797.02
483.279	5916.12
483.65	6048.77
484.021	6153.62
484.391	6267.07
484.762	6320.4
485.133	6472.49
485.503	6579.38
485.874	6733.72
486.244	6844.23
486.615	7018.46
486.985	7148.85
487.356	7243.09
487.726	7339.36
488.097	7581.16
488.467	7641.04
488.837	7935.95
489.207	7967.81
489.578	8210.74
489.948	8380.23
490.318	8530.74
490.688	8597.85
491.058	8879.65
491.428	9017.05
491.798	9150.38
492.168	9344.27
492.538	9555.12
492.908	9697.71
493.278	9909.91
493.648	10105.84
494.017	10290.46
494.387	10440.52
494.757	10653.84
495.126	10793.5
495.496	10922.31
495.866	11270.1
496.235	11384.67
496.605	11641.84
496.974	11720.71
497.344	12026.92
497.713	12207.25
498.082	12425.32
498.452	12717.07
498.821	12935.37
499.19	13041.35
499.559	13329.25
499.928	13598.85
500.298	13782.12
500.667	14061.66
501.036	14152.28
501.405	14511.82
501.774	14649.22
502.143	14916.33
502.512	15153.84
502.88	15411.23
503.249	15505.92
503.618	15901.84
503.987	16116.75
504.356	16375.95
504.724	16571.65
505.093	16835.6
505.462	17001.93
505.83	17407.79
506.199	17547
506.567	17911.73
506.936	18040.99
507.304	18434.66
507.672	18645.5
508.041	18866.28
508.409	19179.95
508.777	19308.08
509.145	19636.66
509.514	19729.76
509.882	20143.09
510.25	20301.05
510.618	20646.8
510.986	20746.01
511.354	21047.7
511.722	21260.34
512.09	21538.76
512.458	21656.72
512.826	22099.19
513.193	22094.45
513.561	22431.84
513.929	22615.79
514.297	22901.43
514.664	23133.74
515.032	23240.86
515.4	23644.01
515.767	23735.53
516.135	23952.7
516.502	23822.54
516.869	24245.13
517.237	24453.26
517.604	24527.83
517.972	24900.25
518.339	24945.67
518.706	25342.5
519.073	25188.38
519.44	25546.79
519.808	25762.6
520.175	25918.3
520.542	26251.63
520.909	26382.92
521.276	26619.98
521.643	26853.42
522.009	26967.31
522.376	27084.15
522.743	27342.9
523.11	27787.63
523.477	27790.34
523.843	27821.75
524.21	28194.85
524.577	28539.25
524.943	28697.21
525.31	28589.64
525.676	28952.12
526.043	29306.46
526.409	29176.75
526.776	29613.35
527.142	29588.04
527.508	29859.44
527.874	30035.93
528.241	30126.55
528.607	30336.04
528.973	30575.13
529.339	30514.11
529.705	30788.46
530.071	30835.69
530.437	31036.81
530.803	31200.42
531.169	31363.13
531.535	31320.42
531.901	31478.61
532.267	31548.44
532.632	31822.78
532.998	31758.15
533.364	31942.78
533.73	31997.92
534.095	32161.3
534.461	32164.01
534.826	32304.57
535.192	32305.93
535.557	32508.18
535.923	32417.57
536.288	32484.23
536.653	32651.01
537.019	32620.05
537.384	32742.75
537.749	32710.89
538.114	32671.8
538.479	32666.82
538.845	32785.24
539.21	32658.46
539.575	32729.65
539.94	32815.52
540.305	32879.02
540.67	32804.67
541.034	32921.73
541.399	32914.05
541.764	32956.53
542.129	32914.28
542.494	32918.57
542.858	32894.62
543.223	32749.31
543.587	32960.15
543.952	32970.32
544.316	33052.35
544.681	32903.88
545.045	32989.3
545.41	33059.36
545.774	33005.8
546.138	32966.48
546.503	32948.17
546.867	33008.06
547.231	33150.88
547.595	33174.61
547.959	33024.56
548.324	33148.85
548.688	33067.94
549.052	33065.68
549.416	32969.64
549.779	32915.63
550.143	33026.59
550.507	33219.35
550.871	33262.29
551.235	32978.45
551.599	33271.78
551.962	33266.13
552.326	33199.24
552.689	33341.61
553.053	33061.62
553.417	33221.39
553.78	33443.75
554.143	33373.7
554.507	33411.89
554.87	33497.31
555.234	33608.95
555.597	33258.22
555.96	33527.37
556.323	33464.09
556.686	33548.38
557.05	33653.69
557.413	33582.51
557.776	33541.6
558.139	33684.65
558.502	33766
558.865	33682.62
559.228	33958.99
559.59	33885.1
559.953	33894.36
560.316	34230.63
560.679	34038.09
561.041	34252.32
561.404	34291.87
561.767	34508.81
562.129	34280.34
562.492	34614.34
562.854	34546.1
563.217	34399.66
563.579	34609.15
563.941	34726.88
564.304	34842.59
564.666	34976.14
565.028	35012.53
565.39	34951.28
565.753	35160.54
566.115	35263.37
566.477	35254.55
566.839	35443.93
567.201	35580.87
567.563	35420.65
567.925	35650.7
568.287	35706.97
568.648	35738.38
569.01	35870.58
569.372	36105.83
569.734	36020.41
570.095	36158.94
570.457	36332.27
570.819	36215.21
571.18	36254.75
571.542	36480.06
571.903	36323
572.265	36534.07
572.626	36617.68
572.987	36633.5
573.349	36781.52
573.71	36802.99
574.071	36989.2
574.432	37009.99
574.794	37232.81
575.155	37053.15
575.516	36995.75
575.877	37157.1
576.238	37080.04
576.599	37321.39
576.96	37289.08
577.32	37295.86
577.681	37278.91
578.042	37470.09
578.403	37395.06
578.763	37397.32
579.124	37329.98
579.485	37491.78
579.845	37635.73
580.206	37423.99
580.566	37614.49
580.927	37439.35
581.287	37603.64
581.648	37292.47
582.008	37525.23
582.368	37424.21
582.728	37420.37
583.089	37388.51
583.449	37325.23
583.809	37262.86
584.169	37435.51
584.529	37282.75
584.889	37557.32
585.249	37253.37
585.609	37223.77
585.969	37421.05
586.329	37054.05
586.688	37327.27
587.048	37120.27
587.408	37099.48
587.768	37046.37
588.127	37094.05
588.487	37063.55
588.846	37260.6
589.206	36846.6
589.565	36916.2
589.925	37131.57
590.284	36903.32
590.643	36815.64
591.003	36995.3
591.362	37011.34
591.721	36918.01
592.08	36895.64
592.44	36960.27
592.799	36875.08
593.158	36902.87
593.517	36889.99
593.876	36940.61
594.235	36690.9
594.593	36814.29
594.952	36734.51
595.311	36706.49
595.67	36837.11
596.029	36854.06
596.387	36767.51
596.746	36902.87
597.104	36651.8
597.463	36609.09
597.822	36901.74
598.18	36663.1
598.538	36684.8
598.897	36956.88
599.255	36573.39
599.613	36950.1
599.972	36648.19
600.33	36814.29
600.688	36522.32
601.046	36659.26
601.404	36848.41
601.762	36785.81
602.12	36936.77
602.478	36723.22
602.836	36808.41
603.194	36649.54
603.552	36760.28
603.91	36693.84
604.268	36819.26
604.625	36751.69
604.983	36925.7
605.341	36731.8
605.698	36813.16
606.056	37162.3
606.413	36749.43
606.771	37110.32
607.128	36910.78
607.485	36831.91
607.843	36938.58
608.2	37020.38
608.557	37320.71
608.914	37086.14
609.272	37254.27
609.629	37357.55
609.986	37467.83
610.343	37275.29
610.7	37635.51
611.057	37475.29
611.414	37436.19
611.771	37677.77
612.127	37622.17
612.484	37690.65
612.841	37926.12
613.198	37596.41
613.554	37630.08
613.911	37783.07
614.267	37797.76
614.624	37869.85
614.98	37932.67
615.337	38160.01
615.693	38175.61
616.05	38211.09
616.406	38242.27
616.762	38320.46
617.118	38094.48
617.475	38150.97
617.831	38254.47
618.187	38213.35
618.543	38536.27
618.899	38647.68
619.255	38468.93
619.611	38561.36
619.967	38816.04
620.323	38764.52
620.678	38541.92
621.034	38536.73
621.39	38595.48
621.746	38522.94
622.101	38951.41
622.457	38714.12
622.812	38862.14
623.168	38814.46
623.523	38988.01
623.879	39058.75
624.234	38821.01
624.589	38970.39
624.945	38899.66
625.3	39102.14
625.655	39085.41
626.01	38962.03
626.365	39007.9
626.72	38988.69
627.075	38841.58
627.43	38992.53
627.785	38894.91
628.14	39049.26
628.495	38884.29
628.85	39093.1
629.205	38869.83
629.559	38929.94
629.914	38808.13
630.269	38875.47
630.623	38620.57
630.978	38643.84
631.332	38873.44
631.687	38862.59
632.041	38688.36
632.396	38646.1
632.75	38515.03
633.104	38475.71
633.459	38439.33
633.813	38349.16
634.167	38372.89
634.521	38212.22
634.875	38248.6
635.229	38258.77
635.583	38051.09
635.937	38200.24
636.291	38143.74
636.645	38136.51
636.999	38002.05
637.352	38082.05
637.706	37789.85
638.06	37981.94
638.413	37895.61
638.767	37715.28
639.121	37820.59
639.474	37662.4
639.828	37633.93
640.181	37709.18
640.534	37925.67
640.888	37544.89
641.241	37351
641.594	37510.31
641.947	37579.69
642.301	37349.19
642.654	37443.2
643.007	37290.43
643.36	37459.47
643.713	37353.03
644.066	37448.62
644.419	37174.5
644.771	36925.7
645.124	36479.15
645.477	36520.06
645.83	36415.43
646.182	36295.66
646.535	36350.57
646.888	36474.41
647.24	36257.92
647.593	36475.31
647.945	36463.79
648.298	36324.58
648.65	36134.98
649.002	35984.25
649.355	35803.24
649.707	35740.42
650.059	35675.79
650.411	36277.13
650.763	36506.95
651.115	37091.34
651.467	36898.13
651.819	36905.13
652.171	36762.99
652.523	36673.5
652.875	36848.18
653.227	36769.09
653.578	36984.68
653.93	36992.81
654.282	36722.09
654.633	36701.07
654.985	36707.4
655.337	36727.96
655.688	36756.66
656.039	36817.68
656.391	36498.36
656.742	36738.36
657.094	36737.23
657.445	36675.08
657.796	36725.02
658.147	36823.1
658.498	36758.24
658.849	36917.79
659.2	36858.58
659.551	36536.33
659.902	36921.63
660.253	36729.32
660.604	36991.46
660.955	36725.02
661.306	36958.24
661.656	36862.19
662.007	36943.55
662.358	36912.14
662.708	36936.09
663.059	37048.86
663.409	36755.08
663.76	37000.04
664.11	37114.39
664.461	37213.15
664.811	37206.59
665.161	37071.91
665.511	37058.57
665.862	37125.24
666.212	37084.56
666.562	37214.5
666.912	37214.95
667.262	37019.93
667.612	37190.1
667.962	37042.53
668.312	37021.29
668.662	37212.02
669.011	37142.19
669.361	37018.57
669.711	37143.09
670.06	37056.09
670.41	37164.79
670.76	37019.03
671.109	37250.21
671.459	37126.37
671.808	37001.4
672.157	37085.24
672.507	36841.4
672.856	36836.88
673.205	36843.21
673.554	36876.66
673.904	36788.98
674.253	37106.26
674.602	36934.28
674.951	36348.76
675.3	36130.91
675.649	36815.42
675.998	36736.55
676.346	36655.87
676.695	36795.53
677.044	36526.84
677.393	36597.57
677.741	36886.37
678.09	36512.15
678.438	36365.71
678.787	36475.99
679.135	36547.63
679.484	36309.44
679.832	36427.4
680.181	36304.24
680.529	36346.05
680.877	36158.71
681.225	36077.13
681.573	36229.89
681.922	36021.09
682.27	35918.26
682.618	35927.98
682.966	35834.88
683.314	35834.88
683.661	35791.04
684.009	35469.46
684.357	35677.14
684.705	35563.25
685.053	35387.88
685.4	35375.68
685.748	35224.95
686.095	35288.9
686.443	35046.2
686.79	34993.09
687.138	35006.65
687.485	35109.7
687.832	34853.43
688.18	34951.74
688.527	34628.81
688.874	34622.93
689.221	34549.04
689.568	34374.8
689.915	34170.97
690.262	34430.17
690.609	34133.68
690.956	34015.94
691.303	33980.46
691.65	33763.29
691.997	33720.13
692.344	33528.95
692.69	33431.55
693.037	33382.96
693.383	33168.05
693.73	33150.65
694.077	32953.14
694.423	32949.53
694.769	32881.51
695.116	32776.65
695.462	32550.44
695.808	32457.56
696.155	32518.35
696.501	32118.36
696.847	32135.99
697.193	32026.16
697.539	32041.08
697.885	31733.74
698.231	31686.51
698.577	31692.61
698.923	31585.05
699.269	31353.86
699.614	31269.8
699.96	31147.99
700.306	31064.38
700.651	30971.73
700.997	30799.76
701.342	30605.41
701.688	30636.82
702.033	30387.11
702.379	30389.82
702.724	30233.89
703.069	30236.38
703.415	29933.56
703.76	29916.16
704.105	29908.25
704.45	29687.47
704.795	29489.28
705.14	29397.08
705.485	29522.73
705.83	29273.47
706.175	29327.93
706.52	29097.88
706.865	29046.35
707.209	28950.76
707.554	28981.27
707.899	28995.51
708.243	28819.69
708.588	28696.31
708.932	28594.16
709.277	28579.47
709.621	28353.04
709.966	28284.34
710.31	28343.32
710.654	28168.41
710.998	28122.31
711.342	28230.56
711.687	27913.28
712.031	27951.02
712.375	27802.77
712.719	27815.65
713.063	27666.28
713.407	27876.89
713.75	27708.54
714.094	27724.81
714.438	27613.85
714.782	27654.98
715.125	27466.74
715.469	27690.68
715.812	27436.91
716.156	27383.8
716.499	27426.06
716.843	27372.5
717.186	27264.93
717.53	27466.96
717.873	27312.84
718.216	27198.04
718.559	27251.83
718.902	26970.7
719.246	26990.59
719.589	26965.96
719.932	26995.11
720.275	26967.31
720.617	26907.65
720.96	26765.74
721.303	26875.56
721.646	26919.18
721.989	26786.98
722.331	26808.45
722.674	26890.48
723.016	26920.31
723.359	26719.86
723.701	26668.79
724.044	26639.86
724.386	26597.38
724.729	26725.06
725.071	26719.41
725.413	26684.84
725.755	26575.46
726.097	26630.15
726.439	26575.91
726.782	26491.85
727.124	26785.4
727.465	26679.41
727.807	26542.24
728.149	26667.66
728.491	26549.02
728.833	26590.83
729.175	26558.96
729.516	26592.63
729.858	26648
730.199	26762.35
730.541	26717.83
730.882	26561
731.224	26714.89
731.565	26648
731.906	26626.98
732.248	26699.07
732.589	26621.56
732.93	26645.29
733.271	26755.79
733.612	26692.29
733.953	26754.89
734.294	26757.15
734.635	26679.19
734.976	26955.11
735.317	26706.3
735.658	26732.97
735.999	26802.57
736.339	26687.77
736.68	26933.19
737.021	26887.54
737.361	26885.28
737.702	27139.51
738.042	27117.82
738.383	27021.78
738.723	27309.45
739.063	27183.58
739.404	27363.69
739.744	27341.54
740.084	27249.57
740.424	27417.25
740.764	27428.09
741.104	27684.81
741.444	27602.55
741.784	27624.92
742.124	27719.84
742.464	27873.5
742.804	27920.73
743.143	27751.93
743.483	28041.41
743.823	28047.06
744.162	28161.41
744.502	28346.71
744.841	28386.49
745.181	28459.03
745.52	28511
745.86	28696.53
746.199	28897.66
746.538	28912.8
746.877	29090.87
747.216	29272.34
747.556	29192.34
747.895	29404.54
748.234	29599.33
748.573	29585.1
748.911	29781.25
749.25	29961.36
749.589	29989.38
749.928	30283.61
750.267	30408.35
750.605	30534.68
750.944	30773.99
751.283	30755.46
751.621	31035
751.96	31131.5
752.298	31376.24
752.636	31502.11
752.975	31561.32
753.313	31672.73
753.651	32029.55
753.989	32197.01
754.327	32414.63
754.666	32371.01
