Data from 15-6437_FLMS001491_001.txt Node
Date: Thu Apr 19 15:39:59 BST 2018
User: hsy
Spectrometer: FLMS00149
Trigger mode: 0
Integration Time (sec): 1.000000E-2
Scans to average: 10
Electric dark correction enabled: true
Nonlinearity correction enabled: false
Boxcar width: 0
XAxis mode: Wavelengths
Number of Pixels in Spectrum: 2048
>>>>>Begin Spectral Data<<<<<
341.393	-16.13
341.776	-16.13
342.16	-16.13
342.543	-60.42
342.927	-63.59
343.31	-48.22
343.693	-78.5
344.077	-69.24
344.46	-58.16
344.843	-69.46
345.226	-36.92
345.61	-29.69
345.993	-30.37
346.376	-26.52
346.759	16.41
347.142	25
347.525	43.76
347.908	76.52
348.291	98.67
348.674	76.75
349.057	109.97
349.44	123.3
349.823	149.52
350.206	175.96
350.588	239.68
350.971	249.17
351.354	250.08
351.737	277.87
352.119	294.82
352.502	311.77
352.884	312.9
353.267	315.16
353.65	336.18
354.032	330.08
354.414	337.53
354.797	322.84
355.179	368.49
355.562	362.84
355.944	390.87
356.326	392.9
356.709	365.78
357.091	368.95
357.473	400.58
357.855	383.63
358.238	391.54
358.62	387.48
359.002	387.25
359.384	375.95
359.766	387.48
360.148	383.63
360.53	389.28
360.912	371.88
361.294	372.33
361.676	373.01
362.057	391.54
362.439	368.95
362.821	388.61
363.203	383.63
363.584	390.64
363.966	360.81
364.348	369.62
364.729	377.98
365.111	379.57
365.493	393.13
365.874	374.37
366.256	370.53
366.637	379.79
367.019	388.38
367.4	378.89
367.781	356.97
368.163	360.81
368.544	350.41
368.925	370.98
369.306	376.85
369.688	376.18
370.069	384.31
370.45	380.02
370.831	385.89
371.212	404.42
371.593	375.95
371.974	376.63
372.355	377.31
372.736	382.05
373.117	378.44
373.498	375.05
373.879	376.18
374.26	368.49
374.641	367.14
375.021	382.73
375.402	406.01
375.783	399.45
376.163	417.08
376.544	424.08
376.925	406.46
377.305	406.46
377.686	410.75
378.066	406.91
378.447	405.33
378.827	410.07
379.208	410.75
379.588	399.45
379.968	406.01
380.349	414.37
380.729	419.11
381.109	414.37
381.489	426.34
381.87	423.63
382.25	435.38
382.63	414.59
383.01	421.15
383.39	446.46
383.77	435.38
384.15	426.57
384.53	447.14
384.91	434.48
385.29	461.82
385.67	446.01
386.049	444.65
386.429	448.94
386.809	436.51
387.189	439.23
387.568	479.9
387.948	469.28
388.328	480.13
388.707	470.64
389.087	477.64
389.466	474.93
389.846	475.83
390.225	494.14
390.605	471.77
390.984	489.17
391.363	490.75
391.743	499.34
392.122	499.56
392.501	490.07
392.881	512.9
393.26	521.26
393.639	521.26
394.018	514.25
394.397	543.18
394.776	529.62
395.155	527.13
395.534	534.36
395.913	525.55
396.292	525.55
396.671	532.33
397.05	562.16
397.429	545.89
397.808	556.28
398.186	547.7
398.565	556.74
398.944	567.36
399.323	585.66
399.701	553.12
400.08	574.14
400.458	596.28
400.837	592.89
401.215	588.15
401.594	590.86
401.972	596.74
402.351	598.09
402.729	627.24
403.107	586.57
403.486	607.36
403.864	613.23
404.242	603.06
404.62	646.68
404.999	634.47
405.377	640.58
405.755	628.37
406.133	653.68
406.511	669.5
406.889	664.53
407.267	657.53
407.645	674.93
408.023	704.3
408.401	699.78
408.779	695.94
409.156	705.21
409.534	722.38
409.912	715.15
410.29	726.68
410.667	731.87
411.045	750.63
411.422	742.04
411.8	748.37
412.178	757.64
412.555	762.83
412.933	779.78
413.31	789.27
413.687	799.67
414.065	829.27
414.442	796.73
414.819	835.83
415.197	824.53
415.574	842.38
415.951	848.48
416.328	868.37
416.705	847.35
417.082	859.1
417.46	866.56
417.837	893.68
418.214	870.85
418.591	879.89
418.967	894.58
419.344	886.22
419.721	904.98
420.098	911.98
420.475	912.43
420.852	921.7
421.228	932.77
421.605	956.95
421.982	940.46
422.358	946.78
422.735	959.89
423.111	970.96
423.488	973
423.864	971.42
424.241	1000.79
424.617	991.75
424.994	1017.52
425.37	1012.32
425.746	1031.53
426.123	1049.83
426.499	1043.28
426.875	1024.07
427.251	1078.08
427.627	1095.71
428.003	1102.26
428.379	1111.3
428.756	1116.5
429.132	1082.6
429.507	1163.05
429.883	1150.17
430.259	1186.78
430.635	1170.28
431.011	1172.77
431.387	1197.62
431.763	1248.47
432.138	1202.6
432.514	1233.1
432.89	1231.07
433.265	1258.41
433.641	1262.71
434.016	1302.71
434.392	1332.31
434.767	1339.99
435.143	1317.85
435.518	1341.35
435.894	1358.3
436.269	1373.66
436.644	1415.02
437.02	1373.21
437.395	1418.64
437.77	1419.54
438.145	1427.67
438.52	1479.2
438.895	1466.32
439.271	1449.14
439.646	1486.66
440.021	1513.77
440.395	1529.59
440.77	1518.97
441.145	1548.35
441.52	1551.96
441.895	1539.76
442.27	1589.03
442.645	1541.57
443.019	1577.5
443.394	1598.97
443.769	1595.58
444.143	1593.55
444.518	1624.28
444.892	1628.12
445.267	1640.32
445.641	1661.34
446.016	1680.55
446.39	1672.64
446.764	1684.16
447.139	1685.75
447.513	1710.6
447.887	1686.2
448.262	1711.73
448.636	1732.98
449.01	1765.74
449.384	1736.37
449.758	1776.59
450.132	1776.82
450.506	1824.27
450.88	1826.08
451.254	1825.4
451.628	1817.04
452.002	1861.56
452.376	1886.42
452.75	1897.04
453.123	1924.16
453.497	1956.47
453.871	1948.11
454.244	2040.77
454.618	2032.4
454.992	2054.1
455.365	2039.64
455.739	2095.91
456.112	2111.5
456.486	2151.27
456.859	2163.02
457.232	2189.01
457.606	2233.98
457.979	2238.05
458.352	2270.59
458.725	2327.09
459.099	2326.18
459.472	2302.68
459.845	2379.74
460.218	2397.59
460.591	2440.3
460.964	2467.42
461.337	2469.45
461.71	2570.02
462.083	2553.29
462.456	2582.22
462.829	2581.32
463.201	2653.86
463.574	2666.96
463.947	2680.07
464.32	2758.94
464.692	2791.48
465.065	2783.57
465.438	2822.44
465.81	2851.14
466.183	2876
466.555	2904.7
466.928	2975.43
467.3	2922.55
467.672	2998.03
468.045	3054.75
468.417	3048.2
468.789	3107.18
469.161	3147.18
469.534	3206.84
469.906	3231.24
470.278	3267.4
470.65	3313.27
471.022	3371.35
471.394	3417.23
471.766	3478.69
472.138	3540.61
472.51	3580.39
472.882	3579.93
473.253	3675.07
473.625	3744.9
473.997	3780.83
474.369	3791.45
474.74	3881.62
475.112	3959.36
475.484	3965.23
475.855	4065.8
476.227	4049.98
476.598	4243.19
476.97	4243.42
477.341	4309.86
477.713	4415.84
478.084	4429.63
478.455	4569.51
478.827	4601.38
479.198	4713.69
479.569	4797.53
479.94	4921.59
480.311	5040.23
480.682	5093.79
481.053	5222.6
481.424	5335.37
481.795	5404.29
482.166	5448.36
482.537	5532.43
482.908	5726.32
483.279	5794.34
483.65	5966.76
484.021	6042.69
484.391	6052.19
484.762	6194.78
485.133	6336.7
485.503	6426.64
485.874	6639.51
486.244	6712.73
486.615	6900.07
486.985	7001.77
487.356	7104.81
487.726	7192.04
488.097	7460.96
488.467	7531.92
488.837	7679.26
489.207	7867.5
489.578	8056.88
489.948	8149.08
490.318	8333.26
490.688	8418.45
491.058	8757.2
491.428	8845.33
491.798	9007.36
492.168	9252.78
492.538	9388.14
492.908	9549.49
493.278	9700.45
493.648	9871.75
494.017	10123.72
494.387	10268.8
494.757	10482.35
495.126	10633.76
495.496	10807.31
495.866	10988.78
496.235	11232.39
496.605	11443.91
496.974	11649.1
497.344	11887.06
497.713	12060.62
498.082	12238.24
498.452	12530.66
498.821	12689.98
499.19	12923.42
499.559	13183.07
499.928	13407.25
500.298	13668.26
500.667	13937.4
501.036	13990.06
501.405	14317.28
501.774	14519.99
502.143	14831.16
502.512	14952.74
502.88	15204.71
503.249	15425.5
503.618	15742.78
503.987	15825.04
504.356	16215.08
504.724	16439.71
505.093	16636.54
505.462	16881.28
505.83	17093.25
506.199	17455.28
506.567	17681.94
506.936	18003.96
507.304	18330.96
507.672	18545.87
508.041	18693.89
508.409	18975.01
508.777	19294.55
509.145	19522.11
509.514	19660.64
509.882	19946.74
510.25	20204.36
510.618	20405.48
510.986	20640.95
511.354	20894.96
511.722	21155.29
512.09	21489.07
512.458	21514.6
512.826	21787.59
513.193	21988.04
513.561	22214.7
513.929	22482.71
514.297	22699.43
514.664	22953.89
515.032	23162.47
515.4	23378.74
515.767	23456.02
516.135	23675.22
516.502	23675
516.869	24264.14
517.237	24443.11
517.604	24348.43
517.972	24734.86
518.339	24971.01
518.706	25091.01
519.073	25138.01
519.44	25352.69
519.808	25614.38
520.175	25725.79
520.542	25951.55
520.909	26173.92
521.276	26253.01
521.643	26568.48
522.009	26718.08
522.376	26895.71
522.743	27054.57
523.11	27280.78
523.477	27606.2
523.843	27723.71
524.21	27991.04
524.577	28259.06
524.943	28263.8
525.31	28406.63
525.676	28809.78
526.043	28868.76
526.409	28987.4
526.776	29420.38
527.142	29448.86
527.508	29600.94
527.874	29810.43
528.241	29986.92
528.607	29976.3
528.973	30394.37
529.339	30245.9
529.705	30419.23
530.071	30629.84
530.437	30848.14
530.803	31020.57
531.169	31049.27
531.535	31080.91
531.901	31113.22
532.267	31289.04
532.632	31472.08
532.998	31436.6
533.364	31659.65
533.73	31676.82
534.095	31828.23
534.461	31806.76
534.826	31857.83
535.192	31993.2
535.557	32123.82
535.923	32058.96
536.288	32165.4
536.653	32236.36
537.019	32245.62
537.384	32245.17
537.749	32232.51
538.114	32358.16
538.479	32291.5
538.845	32273.87
539.21	32330.14
539.575	32443.13
539.94	32467.54
540.305	32464.15
540.67	32431.6
541.034	32557.25
541.399	32461.21
541.764	32718.83
542.129	32603.8
542.494	32595.67
542.858	32721.77
543.223	32456.24
543.587	32672.05
543.952	32689.45
544.316	32687.19
544.681	32556.12
545.045	32613.07
545.41	32756.12
545.774	32640.41
546.138	32548.89
546.503	32571.26
546.867	32670.24
547.231	32747.75
547.595	32729
547.959	32640.41
548.324	32689.23
548.688	32626.4
549.052	32621.43
549.416	32627.31
549.779	32564.93
550.143	32608.55
550.507	32874.53
550.871	32657.59
551.235	32605.16
551.599	32827.3
551.962	32714.08
552.326	32901.87
552.689	32844.7
553.053	32531.72
553.417	32717.7
553.78	32962.21
554.143	32844.48
554.507	32930.8
554.87	32880.63
555.234	33240.85
555.597	32966.96
555.96	32932.61
556.323	32994.3
556.686	32938.03
557.05	33267.52
557.413	33088.99
557.776	33131.02
558.139	33151.59
558.502	33237.69
558.865	33081.76
559.228	33421.41
559.59	33295.31
559.953	33373.73
560.316	33652.82
560.679	33444.01
561.041	33660.05
561.404	33693.04
561.767	34071.11
562.129	33727.16
562.492	33883.77
562.854	33884.67
563.217	33909.31
563.579	34002.86
563.941	34208.96
564.304	34190.65
564.666	34545.67
565.028	34344.55
565.39	34411.67
565.753	34605.33
566.115	34486.24
566.477	34719.23
566.839	34820.47
567.201	35070.41
567.563	34840.13
567.925	35168.48
568.287	35039.67
568.648	35227.24
569.01	35366.67
569.372	35527.34
569.734	35482.37
570.095	35651.41
570.457	35769.6
570.819	35816.37
571.18	35702.71
571.542	35908.12
571.903	35767.11
572.265	36024.28
572.626	35930.5
572.987	36001.45
573.349	36178.17
573.71	36175.91
574.071	36323.03
574.432	36383.14
574.794	36491.84
575.155	36612.29
575.516	36600.08
575.877	36610.7
576.238	36616.13
576.599	36598.73
576.96	36599.63
577.32	36593.53
577.681	36693.19
578.042	36902.22
578.403	36617.94
578.763	36702.45
579.124	36679.63
579.485	36842.34
579.845	36889.57
580.206	36822
580.566	36635.34
580.927	36769.12
581.287	36776.8
581.648	36604.83
582.008	36884.37
582.368	36864.48
582.728	36800.98
583.089	36754.88
583.449	36798.72
583.809	36787.87
584.169	36877.14
584.529	36647.77
584.889	36864.93
585.249	36675.34
585.609	36387.43
585.969	36591.95
586.329	36544.27
586.688	36556.24
587.048	36402.57
587.408	36406.64
587.768	36476.02
588.127	36302.01
588.487	36290.26
588.846	36517.83
589.206	36270.83
589.565	36087.1
589.925	36405.51
590.284	36250.04
590.643	36168.68
591.003	36098.85
591.362	36280.54
591.721	36219.75
592.08	36124.62
592.44	36229.7
592.799	36111.06
593.158	36006.65
593.517	36048.46
593.876	36125.29
594.235	35935.47
594.593	35904.96
594.952	36047.55
595.311	35748.58
595.67	35841.68
596.029	36037.39
596.387	35823.61
596.746	36135.46
597.104	35874.9
597.463	35932.08
597.822	35928.01
598.18	35903.38
598.538	35770.27
598.897	36113.32
599.255	35818.63
599.613	36271.73
599.972	35775.92
600.33	35863.38
600.688	35805.98
601.046	35978.4
601.404	36137.04
601.762	36069.93
602.12	36165.29
602.478	36084.39
602.836	36195.8
603.194	35852.53
603.552	35953.09
603.91	35961.91
604.268	36062.02
604.625	36029.02
604.983	36013.88
605.341	35985.18
605.698	36112.19
606.056	36259.98
606.413	36142.47
606.771	36259.07
607.128	36162.58
607.485	36182.92
607.843	36140.89
608.2	36356.7
608.557	36513.31
608.914	36401.44
609.272	36559.41
609.629	36667.65
609.986	36784.03
610.343	36534.55
610.7	36891.15
611.057	36798.27
611.414	36626.75
611.771	36889.34
612.127	36879.4
612.484	36849.79
612.841	36941.09
613.198	36823.13
613.554	36852.05
613.911	37146.06
614.267	37033.29
614.624	36983.12
614.98	37079.62
615.337	37415.88
615.693	37375.2
616.05	37272.61
616.406	37545.82
616.762	37419.5
617.118	37264.02
617.475	37374.3
617.831	37582.2
618.187	37578.81
618.543	37656.33
618.899	37879.15
619.255	37865.81
619.611	37708.53
619.967	37843.44
620.323	37864.68
620.678	37739.49
621.034	37701.97
621.39	37809.32
621.746	37721.41
622.101	38203.88
622.457	37869.43
622.812	38071.46
623.168	38200.04
623.523	38039.59
623.879	38309.64
624.234	37912.14
624.589	38062.42
624.945	38109.87
625.3	38139.93
625.655	38179.48
626.01	38130.89
626.365	38193.94
626.72	38077.33
627.075	38093.6
627.43	38019.71
627.785	38111.23
628.14	38111
628.495	38016.54
628.85	38081.4
629.205	37904.91
629.559	38083.66
629.914	38007.96
630.269	37940.84
630.623	37801.41
630.978	37761.63
631.332	37864.68
631.687	37941.29
632.041	37770
632.396	37826.27
632.75	37727.06
633.104	37760.05
633.459	37489.32
633.813	37603.9
634.167	37447.97
634.521	37463.56
634.875	37540.17
635.229	37513.05
635.583	37481.64
635.937	37395.54
636.291	37294.98
636.645	37269.22
636.999	37228.99
637.352	37325.94
637.706	37063.8
638.06	37249.11
638.413	37113.06
638.767	37240.29
639.121	37035.33
639.474	36998.72
639.828	36923.69
640.181	36899.51
640.534	37068.09
640.888	36765.28
641.241	36645.28
641.594	36647.99
641.947	36775.45
642.301	36555.56
642.654	36791.94
643.007	36584.94
643.36	36711.04
643.713	36627.43
644.066	36668.78
644.419	36415
644.771	36118.29
645.124	35769.82
645.477	35798.75
645.83	35576.38
646.182	35725.3
646.535	35700.22
646.888	35804.85
647.24	35565.76
647.593	35810.5
647.945	35638.75
648.298	35533.44
648.65	35536.16
649.002	35266.78
649.355	35152.44
649.707	34974.81
650.059	34985.66
650.411	35517.63
650.763	35746.32
651.115	36316.93
651.467	36186.31
651.819	36100.21
652.171	36090.94
652.523	36021.57
652.875	36104.05
653.227	35969.59
653.578	36158.29
653.93	36152.19
654.282	35982.92
654.633	36094.79
654.985	36092.3
655.337	36063.37
655.688	36137.27
656.039	36369.58
656.391	35785.87
656.742	35950.83
657.094	36023.6
657.445	36004.17
657.796	36090.04
658.147	36019.99
658.498	36120.32
658.849	36255.23
659.2	36099.76
659.551	36048.01
659.902	36114.9
660.253	36054.56
660.604	36229.47
660.955	35948.35
661.306	36238.51
661.656	35908.58
662.007	36064.96
662.358	36224.05
662.708	36202.81
663.059	36139.3
663.409	35894.79
663.76	36187.89
664.11	36346.3
664.461	36182.01
664.811	36324.84
665.161	36142.92
665.511	36152.86
665.862	36218.4
666.212	36335.46
666.562	36255.23
666.912	36257.49
667.262	36229.25
667.612	36342.01
667.962	36297.04
668.312	36323.03
668.662	36382.24
669.011	36408.22
669.361	36299.75
669.711	36473.76
670.06	36271.28
670.41	36175.91
670.76	36164.84
671.109	36328
671.459	36265.4
671.808	36241.45
672.157	36335.68
672.507	36109.93
672.856	36228.34
673.205	36208.23
673.554	36276.02
673.904	35982.47
674.253	36182.01
674.602	36041
674.951	35640.79
675.3	35332.55
675.649	36093.88
675.998	35912.19
676.346	35999.19
676.695	35972.08
677.044	35842.14
677.393	35838.97
677.741	36023.6
678.09	35720.78
678.438	35670.39
678.787	35737.73
679.135	35846.88
679.484	35401.47
679.832	35718.98
680.181	35460.45
680.529	35650.28
680.877	35320.79
681.225	35317.86
681.573	35578.41
681.922	35258.88
682.27	35272.89
682.618	35273.34
682.966	35191.76
683.314	35117.86
683.661	35072.89
684.009	34897.3
684.357	34869.05
684.705	34602.62
685.053	34854.59
685.4	34641.94
685.748	34493.02
686.095	34480.59
686.443	34241.27
686.79	34216.19
687.138	34365.34
687.485	34253.48
687.832	34005.57
688.18	34125.12
688.527	33961.73
688.874	33844.9
689.221	33874.5
689.568	33638.58
689.915	33580.5
690.262	33449.66
690.609	33589.99
690.956	33202.88
691.303	33356.78
691.65	33054.87
691.997	32882.21
692.344	32938.71
692.69	32599.28
693.037	32720.41
693.383	32356.13
693.73	32496.69
694.077	32264.83
694.423	32253.53
694.769	32048.56
695.116	32091.95
695.462	31891.73
695.808	31689.48
696.155	31708.46
696.501	31463.49
696.847	31513.21
697.193	31281.13
697.539	31350.28
697.885	30974.69
698.231	30917.97
698.577	30791.42
698.923	30833
699.269	30593.69
699.614	30461.94
699.96	30535.38
700.306	30300.81
700.651	30122.29
700.997	30112.8
701.342	30037.32
701.688	29881.84
702.033	29741.28
702.379	29691.34
702.724	29517.78
703.069	29619.93
703.415	29251.58
703.76	29225.36
704.105	29230.79
704.45	29022.65
704.795	29033.28
705.14	28884.13
705.485	28810.46
705.83	28637.81
706.175	28823.11
706.52	28516.68
706.865	28464.25
707.209	28408.89
707.554	28367.98
707.899	28362.33
708.243	28156.01
708.588	28051.38
708.932	27884.15
709.277	27846.64
709.621	27787.43
709.966	27593.77
710.31	27697.27
710.654	27474.9
710.998	27541.56
711.342	27481.9
711.687	27292.53
712.031	27312.64
712.375	27102.25
712.719	27123.04
713.063	27004.4
713.407	27176.83
713.75	27081.46
714.094	26993.78
714.438	26954.01
714.782	26924.41
715.125	26917.4
715.469	26911.3
715.812	26835.37
716.156	26594.92
716.499	26616.39
716.843	26803.73
717.186	26521.93
717.53	26757.63
717.873	26610.74
718.216	26580.01
718.559	26454.81
718.902	26169.62
719.246	26435.83
719.589	26383.85
719.932	26297.75
720.275	26289.17
720.617	26317.19
720.96	26326.23
721.303	26249.39
721.646	26273.12
721.989	26089.85
722.331	26249.62
722.674	26225.44
723.016	26224.31
723.359	26180.24
723.701	26204.42
724.044	25919.69
724.386	25971.44
724.729	26102.28
725.071	26010.08
725.413	26039.23
725.755	26012.34
726.097	25887.37
726.439	25872
726.782	25901.38
727.124	26008.04
727.465	25945
727.807	25927.37
728.149	26029.51
728.491	25911.78
728.833	25982.28
729.175	26009.17
729.516	25906.8
729.858	25883.08
730.199	26048.95
730.541	25937.76
730.882	25911.1
731.224	25924.66
731.565	25900.48
731.906	26008.04
732.248	26033.36
732.589	25906.35
732.93	25944.77
733.271	25995.84
733.612	25999.68
733.953	26125.1
734.294	26060.7
734.635	26017.99
734.976	26274.48
735.317	26250.52
735.658	26180.47
735.999	26101.38
736.339	26123.97
736.68	26272.9
737.021	26279.22
737.361	26325.55
737.702	26498.88
738.042	26363.97
738.383	26609.16
738.723	26544.08
739.063	26563.74
739.404	26681.7
739.744	26633.34
740.084	26671.08
740.424	26728.03
740.764	26821.13
741.104	26914.01
741.444	27001.47
741.784	27023.39
742.124	27205.53
742.464	27160.78
742.804	27288.92
743.143	27408.91
743.483	27480.55
743.823	27428.12
744.162	27643.48
744.502	27753.76
744.841	27740.43
745.181	28012.06
745.52	27941.78
745.86	28237.82
746.199	28290.92
746.538	28388.55
746.877	28693.4
747.216	28754.41
747.556	28828.08
747.895	29036.89
748.234	29012.49
748.573	29160.73
748.911	29329.09
749.25	29480.27
749.589	29499.48
749.928	29827.83
750.267	29981.05
750.605	30103.76
750.944	30375.16
751.283	30468.49
751.621	30681.82
751.96	30856.51
752.298	31031.64
752.636	31118.19
752.975	31378.75
753.313	31421.46
753.651	31826.2
753.989	31724.28
754.327	32072.97
754.666	32033.88
