Data from 15-6437_FLMS001491_002.txt Node
Date: Thu Apr 19 15:40:02 BST 2018
User: hsy
Spectrometer: FLMS00149
Trigger mode: 0
Integration Time (sec): 1.000000E-2
Scans to average: 10
Electric dark correction enabled: true
Nonlinearity correction enabled: false
Boxcar width: 0
XAxis mode: Wavelengths
Number of Pixels in Spectrum: 2048
>>>>>Begin Spectral Data<<<<<
341.393	-1.5
341.776	-1.5
342.16	-1.5
342.543	-55.06
342.927	-66.58
343.31	-89.18
343.693	-70.65
344.077	-53.02
344.46	-72.23
344.843	-61.83
345.226	-54.15
345.61	-36.3
345.993	-17.09
346.376	12.06
346.759	31.5
347.142	20.2
347.525	44.83
347.908	50.25
348.291	81.21
348.674	107.43
349.057	106.97
349.44	123.92
349.823	156.24
350.206	153.98
350.588	227.2
350.971	254.99
351.354	240.53
351.737	288.21
352.119	293.41
352.502	298.16
352.884	316.46
353.267	323.69
353.65	333.18
354.032	363.92
354.414	336.57
354.797	381.09
355.179	360.98
355.562	370.24
355.944	361.21
356.326	373.86
356.709	381.77
357.091	368.89
357.473	393.75
357.855	382.45
358.238	366.4
358.62	370.92
359.002	388.32
359.384	382
359.766	389.68
360.148	381.77
360.53	376.8
360.912	386.06
361.294	386.97
361.676	374.54
362.057	376.12
362.439	400.3
362.821	355.78
363.203	372.73
363.584	358.95
363.966	363.47
364.348	367.76
364.729	377.02
365.111	348.1
365.493	363.69
365.874	339.28
366.256	366.63
366.637	371.6
367.019	362.56
367.4	374.54
367.781	371.6
368.163	358.49
368.544	363.47
368.925	354.43
369.306	375.89
369.688	378.38
370.069	331.15
370.45	373.18
370.831	382
371.212	375.22
371.593	353.97
371.974	386.06
372.355	359.17
372.736	370.92
373.117	368.66
373.498	384.48
373.879	376.35
374.26	375.22
374.641	350.13
375.021	380.64
375.402	384.26
375.783	375.67
376.163	369.57
376.544	412.5
376.925	373.41
377.305	406.18
377.686	392.39
378.066	383.58
378.447	388.32
378.827	399.4
379.208	398.04
379.588	401.43
379.968	392.39
380.349	396.68
380.729	408.66
381.109	407.31
381.489	417.7
381.87	416.57
382.25	420.19
382.63	414.54
383.01	415.67
383.39	414.99
383.77	412.5
384.15	419.51
384.53	436.23
384.91	453.41
385.29	458.15
385.67	444.59
386.049	462.45
386.429	451.15
386.809	401.88
387.189	454.31
387.568	426.97
387.948	467.19
388.328	471.48
388.707	467.19
389.087	458.6
389.466	462.22
389.846	466.06
390.225	455.21
390.605	472.84
390.984	475.78
391.363	470.81
391.743	476.46
392.122	475.55
392.501	489.11
392.881	514.65
393.26	516.23
393.639	508.09
394.018	501.31
394.397	493.41
394.776	527.08
395.155	527.53
395.534	489.34
395.913	523.46
396.292	547.87
396.671	519.62
397.05	525.04
397.429	508.32
397.808	533.4
398.186	512.16
398.565	524.36
398.944	559.62
399.323	543.35
399.701	513.97
400.08	565.27
400.458	537.47
400.837	579.5
401.215	544.7
401.594	539.51
401.972	559.84
402.351	563.69
402.729	589
403.107	585.15
403.486	592.39
403.864	577.92
404.242	576.57
404.62	604.59
404.999	601.42
405.377	612.5
405.755	602.1
406.133	634.64
406.511	640.97
406.889	643.23
407.267	643.01
407.645	652.95
408.023	664.25
408.401	663.12
408.779	654.76
409.156	678.26
409.534	665.38
409.912	661.76
410.29	701.99
410.667	697.24
411.045	694.3
411.422	712.61
411.8	741.31
412.178	719.61
412.555	733.4
412.933	733.4
413.31	736.11
413.687	751.7
414.065	766.17
414.442	789.67
414.819	775.88
415.197	803
415.574	805.49
415.951	828.99
416.328	792.83
416.705	801.87
417.082	794.87
417.46	836.9
417.837	850.91
418.214	832.61
418.591	864.69
418.967	866.05
419.344	853.62
419.721	886.84
420.098	866.95
420.475	862.66
420.852	895.2
421.228	881.42
421.605	896.78
421.982	885.03
422.358	917.12
422.735	927.07
423.111	916.22
423.488	910.8
423.864	930.46
424.241	949.66
424.617	951.92
424.994	970.23
425.37	973.17
425.746	967.29
426.123	985.37
426.499	993.5
426.875	979.49
427.251	1027.4
427.627	1060.85
428.003	1033.5
428.379	1033.05
428.756	1033.05
429.132	1087.06
429.507	1092.26
429.883	1088.42
430.259	1097.91
430.635	1140.17
431.011	1134.74
431.387	1124.8
431.763	1127.06
432.138	1167.06
432.514	1173.16
432.89	1172.71
433.265	1189.88
433.641	1193.05
434.016	1222.43
434.392	1239.37
434.767	1292.03
435.143	1268.07
435.518	1285.25
435.894	1288.86
436.269	1294.97
436.644	1317.11
437.02	1338.81
437.395	1323.89
437.77	1339.48
438.145	1366.83
438.52	1391.91
438.895	1401.86
439.271	1396.21
439.646	1432.82
440.021	1444.79
440.395	1444.11
440.77	1426.26
441.145	1447.5
441.52	1450.89
441.895	1460.61
442.27	1474.17
442.645	1451.35
443.019	1523.89
443.394	1506.71
443.769	1527.73
444.143	1513.04
444.518	1521.85
444.892	1545.81
445.267	1541.29
445.641	1569.99
446.016	1574.73
446.39	1570.89
446.764	1564.79
447.139	1583.55
447.513	1611.57
447.887	1575.18
448.262	1600.27
448.636	1656.31
449.01	1629.42
449.384	1656.31
449.758	1672.13
450.132	1709.64
450.506	1680.27
450.88	1714.62
451.254	1718.23
451.628	1745.35
452.002	1782.41
452.376	1784.67
452.75	1825.12
453.123	1817.66
453.497	1869.41
453.871	1844.56
454.244	1881.84
454.618	1913.71
454.992	1953.93
455.365	1969.3
455.739	1998.45
456.112	1984.89
456.486	2028.73
456.859	2030.99
457.232	2075.28
457.606	2105.11
457.979	2120.03
458.352	2160.03
458.725	2183.76
459.099	2179.24
459.472	2194.15
459.845	2243.42
460.218	2266.47
460.591	2282.74
460.964	2321.38
461.337	2351.44
461.71	2393.24
462.083	2402.06
462.456	2448.16
462.829	2466.69
463.201	2487.03
463.574	2472.79
463.947	2537.42
464.32	2566.34
464.692	2594.37
465.065	2652.44
465.438	2697.19
465.81	2680.47
466.183	2675.04
466.555	2772.44
466.928	2792.1
467.3	2787.58
467.672	2795.49
468.045	2888.37
468.417	2891.08
468.789	2938.99
469.161	2961.81
469.534	2986.45
469.906	3048.14
470.278	3047.69
470.65	3108.48
471.022	3165.65
471.394	3234.58
471.766	3253.78
472.138	3276.83
472.51	3363.16
472.882	3415.81
473.253	3433.67
473.625	3498.3
473.997	3572.42
474.369	3602.48
474.74	3603.15
475.112	3725.86
475.484	3796.82
475.855	3813.09
476.227	3867.33
476.598	3948.68
476.97	4054.67
477.341	4111.16
477.713	4150.26
478.084	4205.62
478.455	4343.25
478.827	4378.5
479.198	4441.78
479.569	4548.67
479.94	4627.76
480.311	4712.96
480.682	4823.01
481.053	4917.47
481.424	4991.37
481.795	5059.16
482.166	5139.84
482.537	5280.4
482.908	5346.16
483.279	5477.45
483.65	5561.29
484.021	5661.4
484.391	5751.57
484.762	5855.07
485.133	5932.13
485.503	6065.01
485.874	6182.3
486.244	6358.11
486.615	6436.07
486.985	6629.29
487.356	6779.57
487.726	6822.96
488.097	7015.04
488.467	7059.56
488.837	7272.89
489.207	7458.19
489.578	7585.2
489.948	7763.95
490.318	7893.44
490.688	7953.32
491.058	8229.25
491.428	8409.58
491.798	8441.9
492.168	8703.13
492.538	8903.35
492.908	9017.02
493.278	9245.72
493.648	9356.22
494.017	9514.64
494.387	9707.85
494.757	9873.5
495.126	10079.14
495.496	10246.14
495.866	10422.64
496.235	10557.55
496.605	10849.52
496.974	11052.45
497.344	11237.3
497.713	11481.59
498.082	11667.12
498.452	11848.59
498.821	12099.2
499.19	12259.65
499.559	12503.48
499.928	12719.52
500.298	12910.03
500.667	13157.25
501.036	13375.55
501.405	13672.04
501.774	13800.63
502.143	14066.38
502.512	14334.62
502.88	14624.78
503.249	14705.46
503.618	15003.76
503.987	15222.96
504.356	15507.93
504.724	15702.95
505.093	15922.83
505.462	16201.01
505.83	16376.6
506.199	16731.17
506.567	17096.58
506.936	17197.37
507.304	17435.78
507.672	17724.14
508.041	17908.77
508.409	18231.7
508.777	18493.61
509.145	18743.09
509.514	18948.06
509.882	19038.68
510.25	19319.8
510.618	19583.52
510.986	19687.25
511.354	19964.53
511.722	20336.73
512.09	20535.59
512.458	20503.95
512.826	20895.13
513.193	21016.48
513.561	21199.98
513.929	21482.01
514.297	21684.49
514.664	21980.07
515.032	22087.41
515.4	22331.93
515.767	22507.52
516.135	22692.14
516.502	22574.18
516.869	23080.16
517.237	23219.59
517.604	23260.72
517.972	23593.36
518.339	23683.3
518.706	23884.88
519.073	24101.82
519.44	24165.78
519.808	24380.46
520.175	24531.19
520.542	24885.31
520.909	25086.88
521.276	25014.79
521.643	25343.37
522.009	25544.72
522.376	25695.45
522.743	25815.68
523.11	26169.79
523.477	26383.12
523.843	26370.69
524.21	26739.04
524.577	26852.49
524.943	27070.79
525.31	26976.78
525.676	27459.93
526.043	27530.66
526.409	27645.69
526.776	27939.46
527.142	28093.13
527.508	28152.11
527.874	28297.65
528.241	28461.94
528.607	28510.75
528.973	28894.92
529.339	28823.06
529.705	29088.13
530.071	29206.32
530.437	29430.05
530.803	29566.99
531.169	29547.56
531.535	29586.2
531.901	29786.65
532.267	29800.43
532.632	30035.45
532.998	30081.78
533.364	30098.05
533.73	30277.48
534.095	30411.94
534.461	30434.76
534.826	30471.83
535.192	30498.27
535.557	30703.01
535.923	30685.38
536.288	30753.85
536.653	30797.47
537.019	30640.64
537.384	30806.73
537.749	30749.11
538.114	30937.35
538.479	30748.43
538.845	30910.01
539.21	30831.14
539.575	30911.36
539.94	30814.87
540.305	30966.95
540.67	30867.3
541.034	30935.99
541.399	31030.23
541.764	31070.45
542.129	30984.13
542.494	30959.95
542.858	31118.59
543.223	30956.78
543.587	31003.11
543.952	31023
544.316	31179.83
544.681	31044.01
545.045	31142.99
545.41	31204.46
545.774	30947.75
546.138	31040.62
546.503	30931.47
546.867	31123.56
547.231	31221.64
547.595	31152.71
547.959	31174.41
548.324	31222.31
548.688	31201.52
549.052	31180.06
549.416	31054.86
549.779	31054.18
550.143	31141.86
550.507	31202.43
550.871	31278.81
551.235	31140.06
551.599	31284.69
551.962	31279.71
552.326	31180.28
552.689	31128.31
553.053	31115.65
553.417	31055.09
553.78	31454.85
554.143	31352.93
554.507	31260.05
554.87	31311.58
555.234	31455.08
555.597	31357.45
555.96	31244.01
556.323	31317.68
556.686	31384.34
557.05	31484.91
557.413	31453.72
557.776	31515.41
558.139	31669.31
558.502	31649.42
558.865	31604.45
559.228	31821.39
559.59	31785.69
559.953	31858.91
560.316	32087.6
560.679	31928.06
561.041	32140.93
561.404	32171.67
561.767	32308.39
562.129	32079.47
562.492	32316.98
562.854	32266.13
563.217	32263.42
563.579	32404.66
563.941	32465.67
564.304	32485.33
564.666	32808.71
565.028	32686.91
565.39	32688.26
565.753	32910.18
566.115	32894.81
566.477	33045.77
566.839	33137.97
567.201	33311.75
567.563	33153.56
567.925	33392.88
568.287	33435.36
568.648	33437.62
569.01	33591.74
569.372	33741.8
569.734	33607.79
570.095	33787.44
570.457	33983.82
570.819	34018.63
571.18	33991.28
571.542	34285.51
571.903	34199.41
572.265	34176.14
572.626	34279.18
572.987	34130.26
573.349	34509.23
573.71	34485.05
574.071	34680.08
574.432	34597.82
574.794	34845.5
575.155	34850.69
575.516	34695.22
575.877	34851.37
576.238	34747.19
576.599	34894.08
576.96	34873.97
577.32	34827.42
577.681	35003.91
578.042	35152.38
578.403	34981.31
578.763	34974.31
579.124	34964.36
579.485	35185.6
579.845	35086.85
580.206	35132.49
580.566	35109.44
580.927	35095.43
581.287	35245.94
581.648	35092.95
582.008	35073.06
582.368	35098.6
582.728	35108.77
583.089	35111.03
583.449	34893.63
583.809	34984.25
584.169	35028.54
584.529	34963.01
584.889	35177.69
585.249	34836.68
585.609	34748.32
585.969	34804.82
586.329	34835.33
586.688	34865.16
587.048	34792.16
587.408	34624.94
587.768	34702.68
588.127	34690.47
588.487	34445.28
588.846	34821.99
589.206	34381.33
589.565	34446.18
589.925	34672.17
590.284	34520.53
590.643	34427.43
591.003	34318.5
591.362	34456.58
591.721	34528.44
592.08	34377.03
592.44	34534.32
592.799	34423.36
593.158	34329.13
593.517	34314.89
593.876	34284.61
594.235	34077.15
594.593	34313.31
594.952	34294.1
595.311	34078.28
595.67	34020.89
596.029	34251.16
596.387	34226.08
596.746	34370.93
597.104	34031.51
597.463	34149.02
597.822	34362.12
598.18	34110.15
598.538	34253.2
598.897	34381.1
599.255	34206.64
599.613	34530.7
599.972	34139.3
600.33	34318.05
600.688	34183.59
601.046	34152.18
601.404	34443.92
601.762	34305.4
602.12	34309.24
602.478	34388.33
602.836	34429.69
603.194	34220.2
603.552	34295
603.91	34216.36
604.268	34400.31
604.625	34314.21
604.983	34374.55
605.341	34268.11
605.698	34450.25
606.056	34586.52
606.413	34353.08
606.771	34530.48
607.128	34549.68
607.485	34534.54
607.843	34530.02
608.2	34651.38
608.557	34740.19
608.914	34643.24
609.272	34790.58
609.629	34857.93
609.986	34962.33
610.343	34792.16
610.7	35149.67
611.057	34909.68
611.414	35015.21
611.771	35096.34
612.127	35109.22
612.484	35164.81
612.841	35202.1
613.198	35139.95
613.554	34971.59
613.911	35198.93
614.267	35212.04
614.624	35317.12
614.98	35327.07
615.337	35635.31
615.693	35439.83
616.05	35492.26
616.406	35590.79
616.762	35601.41
617.118	35676.21
617.475	35657
617.831	35623.33
618.187	35754.62
618.543	35820.61
618.899	36027.61
619.255	35862.19
619.611	35865.13
619.967	35981.06
620.323	36280.94
620.678	35960.95
621.034	35935.19
621.39	36024
621.746	36042.3
622.101	36427.6
622.457	36096.76
622.812	36255.85
623.168	36284.33
623.523	36309.64
623.879	36404.55
624.234	36215.63
624.589	36271.67
624.945	36470.76
625.3	36376.98
625.655	36252.24
626.01	36433.03
626.365	36472.12
626.72	36302.86
627.075	36259.24
627.43	36366.59
627.785	36391.22
628.14	36349.41
628.495	36423.31
628.85	36357.09
629.205	36203.88
629.559	36433.7
629.914	36325.01
630.269	36318
630.623	36171.34
630.978	36037.33
631.332	36275.06
631.687	36286.36
632.041	36131.34
632.396	36154.39
632.75	36071.9
633.104	36124.56
633.459	35944.22
633.813	35871.68
634.167	35942.19
634.521	35855.19
634.875	35900.16
635.229	35683.67
635.583	35700.84
635.937	35638.92
636.291	35664.23
636.645	35584.23
636.999	35405.03
637.352	35551.92
637.706	35142.44
638.06	35640.73
638.413	35485.71
638.767	35171.14
639.121	35398.25
639.474	35203.23
639.828	35236.9
640.181	35261.3
640.534	35175.66
640.888	35141.53
641.241	34900.18
641.594	34940.86
641.947	35050.01
642.301	34863.12
642.654	35036.23
643.007	34840.52
643.36	34929.79
643.713	34871.71
644.066	35028.99
644.419	34794.88
644.771	34335
645.124	34174.55
645.477	34171.84
645.83	34070.6
646.182	33944.95
646.535	33745.64
646.888	34020.89
647.24	33995.8
647.593	34071.51
647.945	33900.44
648.298	33813.21
648.65	33667.22
649.002	33518.53
649.355	33375.93
649.707	33294.12
650.059	33384.29
650.411	33877.84
650.763	33928.68
651.115	34694.77
651.467	34495.67
651.819	34560.31
652.171	34357.6
652.523	34301.56
652.875	34392.85
653.227	34276.25
653.578	34577.03
653.93	34369.12
654.282	34313.08
654.633	34248.9
654.985	34455.68
655.337	34400.31
655.688	34295.23
656.039	34353.31
656.391	34104.05
656.742	34222.69
657.094	34340.88
657.445	34325.51
657.796	34372.29
658.147	34196.7
658.498	34384.49
658.849	34476.01
659.2	34389.91
659.551	34303.36
659.902	34618.61
660.253	34326.87
660.604	34521.66
660.955	34338.84
661.306	34568.22
661.656	34407.32
662.007	34312.85
662.358	34579.74
662.708	34557.37
663.059	34570.25
663.409	34224.72
663.76	34546.97
664.11	34631.49
664.461	34758.49
664.811	34787.42
665.161	34676.46
665.511	34621.32
665.862	34746.06
666.212	34755.78
666.562	34824.48
666.912	34823.12
667.262	34669.46
667.612	34597.14
667.962	34809.56
668.312	34642.56
668.662	34867.19
669.011	34710.36
669.361	34709.45
669.711	34793.29
670.06	34758.94
670.41	34657.93
670.76	34635.11
671.109	34796.01
671.459	34728.89
671.808	34664.94
672.157	34763.24
672.507	34618.16
672.856	34652.73
673.205	34504.04
673.554	34662.22
673.904	34531.15
674.253	34736.35
674.602	34637.37
674.951	34080.32
675.3	33982.69
675.649	34501.1
675.998	34424.94
676.346	34492.74
676.695	34506.3
677.044	34260.65
677.393	34343.59
677.741	34276.25
678.09	34203.25
678.438	34151.73
678.787	34187.43
679.135	34211.84
679.484	34004.84
679.832	34136.14
680.181	34061.34
680.529	33994.45
680.877	33780.44
681.225	33761.46
681.573	33916.26
681.922	33780.67
682.27	33645.98
682.618	33611.86
682.966	33671.06
683.314	33600.11
683.661	33558.52
684.009	33401.24
684.357	33424.29
684.705	33144.98
685.053	33129.84
685.4	32937.3
685.748	32964.87
686.095	32989.05
686.443	32704.76
686.79	32760.58
687.138	32799.45
687.485	32683.97
687.832	32589.74
688.18	32531.43
688.527	32409.4
688.874	32385.67
689.221	32344.32
689.568	32214.83
689.915	32076.53
690.262	32123.08
690.609	32045.34
690.956	31843.77
691.303	31809.19
691.65	31704.34
691.997	31511.35
692.344	31413.27
692.69	31338.47
693.037	31398.58
693.383	30981.42
693.73	31206.5
694.077	30851.25
694.423	30841.99
694.769	30714.31
695.116	30723.57
695.462	30492.16
695.808	30405.39
696.155	30505.5
696.501	30133.98
696.847	30131.95
697.193	29925.17
697.539	29983.25
697.885	29743.48
698.231	29791.17
698.577	29672.75
698.923	29542.81
699.269	29343.95
699.614	29058.76
699.96	29047.68
700.306	29036.61
700.651	28854.02
700.997	28769.5
701.342	28717.3
701.688	28624.64
702.033	28465.78
702.379	28524.31
702.724	28288.61
703.069	28287.48
703.415	27900.37
703.76	28010.65
704.105	27978.11
704.45	27854.49
704.795	27619.47
705.14	27558.68
705.485	27749.86
705.83	27342.19
706.175	27548.51
706.52	27237.11
706.865	27107.17
707.209	27060.16
707.554	27079.15
707.899	26962.31
708.243	26848.42
708.588	26953.95
708.932	26639.38
709.277	26582.44
709.621	26615.2
709.966	26417.7
710.31	26453.17
710.654	26173.86
710.998	26354.19
711.342	26200.75
711.687	26134.99
712.031	26216.8
712.375	26010.25
712.719	25975.22
713.063	25950.59
713.407	25890.03
713.75	25866.52
714.094	25855.22
714.438	25652.52
714.782	25622.46
715.125	25508.11
715.469	25712.85
715.812	25484.61
716.156	25410.72
716.499	25391.51
716.843	25450.71
717.186	25367.55
717.53	25471.51
717.873	25444.16
718.216	25383.82
718.559	25368.01
718.902	25067.9
719.246	25122.81
719.589	24995.81
719.932	25123.94
720.275	25074.23
720.617	25083.04
720.96	24873.78
721.303	25123.04
721.646	25111.06
721.989	24916.49
722.331	25033.78
722.674	25019.77
723.016	24861.8
723.359	24815.48
723.701	24928.69
724.044	24839.88
724.386	24711.98
724.729	25001.01
725.071	24845.31
725.413	24845.08
725.755	24892.31
726.097	24624.3
726.439	24728.47
726.782	24763.28
727.124	24897.06
727.465	24886.89
727.807	24714.92
728.149	24730.06
728.491	24854.57
728.833	24754.01
729.175	24818.19
729.516	24742.03
729.858	24808.92
730.199	24779.32
730.541	24847.57
730.882	24864.74
731.224	24886.66
731.565	24853.22
731.906	24765.76
732.248	24824.06
732.589	24806.89
732.93	24805.76
733.271	24963.5
733.612	24858.87
733.953	25032.42
734.294	24946.32
734.635	24940.45
734.976	25132.08
735.317	24970.05
735.658	25061.12
735.999	25102.7
736.339	25062.02
736.68	25134.11
737.021	25155.36
737.361	25117.16
737.702	25499.75
738.042	25359.42
738.383	25372.07
738.723	25466.53
739.063	25498.62
739.404	25561.22
739.744	25547.44
740.084	25511.73
740.424	25589.47
740.764	25701.1
741.104	25893.87
741.444	25693.42
741.784	25824.26
742.124	26053.19
742.464	25986.29
742.804	26070.36
743.143	26199.4
743.483	26416.34
743.823	26309.45
744.162	26332.95
744.502	26534.53
744.841	26566.84
745.181	26687.07
745.52	26798.48
745.86	27074.85
746.199	27018.58
746.538	27197.79
746.877	27387.39
747.216	27474.39
747.556	27578.79
747.895	27734.5
748.234	27861.73
748.573	27931.1
748.911	28008.16
749.25	28172.45
749.589	28340.58
749.928	28511.65
750.267	28647.92
750.605	28759.1
750.944	29018.98
751.283	29060.34
751.621	29331.74
751.96	29468.69
752.298	29562.7
752.636	29823.48
752.975	29977.83
753.313	30084.49
753.651	30513.18
753.989	30597.7
754.327	30745.49
754.666	30801.08
