Data from 15-6437_FLMS001491_009.txt Node
Date: Thu Apr 19 15:40:33 BST 2018
User: hsy
Spectrometer: FLMS00149
Trigger mode: 0
Integration Time (sec): 1.000000E-2
Scans to average: 10
Electric dark correction enabled: true
Nonlinearity correction enabled: false
Boxcar width: 0
XAxis mode: Wavelengths
Number of Pixels in Spectrum: 2048
>>>>>Begin Spectral Data<<<<<
341.393	-12.82
341.776	-12.82
342.16	-12.82
342.543	-55.54
342.927	-64.8
343.31	-76.55
343.693	-66.83
344.077	-75.65
344.46	-61.86
344.843	-50.56
345.226	-54.63
345.61	-41.3
345.993	-25.71
346.376	-3.33
346.759	33.05
347.142	32.82
347.525	24.01
347.908	62.88
348.291	89.32
348.674	106.04
349.057	108.3
349.44	122.09
349.823	149.88
350.206	177.9
350.588	235.08
350.971	249.32
351.354	269.88
351.737	294.51
352.119	301.07
352.502	313.72
352.884	300.84
353.267	332.7
353.65	339.71
354.032	354.17
354.414	344.91
354.797	371.35
355.179	352.36
355.562	361.85
355.944	356.88
356.326	360.27
356.709	378.8
357.091	365.02
357.473	394.85
357.855	371.8
358.238	389.2
358.62	393.27
359.002	378.8
359.384	385.13
359.766	381.29
360.148	390.33
360.53	378.13
360.912	381.52
361.294	389.2
361.676	399.59
362.057	394.85
362.439	392.36
362.821	394.62
363.203	391.91
363.584	376.09
363.966	376.77
364.348	367.05
364.729	369.99
365.111	361.4
365.493	365.7
365.874	380.84
366.256	372.25
366.637	382.65
367.019	353.72
367.4	383.1
367.781	366.15
368.163	365.02
368.544	351.01
368.925	380.84
369.306	393.94
369.688	370.44
370.069	353.72
370.45	358.69
370.831	393.27
371.212	365.24
371.593	394.4
371.974	379.26
372.355	371.8
372.736	392.81
373.117	381.74
373.498	400.95
373.879	387.39
374.26	375.19
374.641	365.24
375.021	380.84
375.402	416.77
375.783	393.72
376.163	410.67
376.544	419.93
376.925	409.99
377.305	393.04
377.686	408.63
378.066	401.4
378.447	403.21
378.827	405.92
379.208	433.72
379.588	408.86
379.968	434.4
380.349	426.71
380.729	424.68
381.109	406.6
381.489	426.03
381.87	439.14
382.25	431.23
382.63	439.14
383.01	442.98
383.39	431.01
383.77	416.32
384.15	437.11
384.53	438.92
384.91	440.72
385.29	456.54
385.67	441.17
386.049	438.92
386.429	453.38
386.809	450.89
387.189	460.61
387.568	464.9
387.948	479.37
388.328	477.78
388.707	470.33
389.087	467.84
389.466	479.82
389.846	478.01
390.225	469.2
390.605	497.9
390.984	475.98
391.363	508.29
391.743	505.58
392.122	511
392.501	491.34
392.881	504.68
393.26	508.97
393.639	527.95
394.018	518.46
394.397	530.21
394.776	519.82
395.155	552.13
395.534	531.12
395.913	553.49
396.292	549.19
396.671	537.9
397.05	551
397.429	569.76
397.808	553.94
398.186	532.92
398.565	579.93
398.944	561.4
399.323	557.56
399.701	565.69
400.08	572.7
400.458	568.4
400.837	609.53
401.215	605.24
401.594	572.92
401.972	593.04
402.351	605.46
402.729	617.44
403.107	607.5
403.486	624.45
403.864	619.25
404.242	633.94
404.62	651.11
404.999	625.12
405.377	658.34
405.755	673.71
406.133	663.77
406.511	673.94
406.889	658.8
407.267	661.51
407.645	676.42
408.023	684.11
408.401	685.69
408.779	691.56
409.156	706.03
409.534	702.86
409.912	721.85
410.29	724.78
410.667	723.43
411.045	737.44
411.422	752.13
411.8	764.78
412.178	739.02
412.555	756.87
412.933	786.02
413.31	799.13
413.687	821.73
414.065	817.21
414.442	813.37
414.819	816.98
415.197	813.59
415.574	858.34
415.951	826.93
416.328	834.84
416.705	854.05
417.082	864.89
417.46	865.8
417.837	844.78
418.214	859.69
418.591	894.27
418.967	891.56
419.344	890.65
419.721	919.13
420.098	895.17
420.475	904.21
420.852	924.1
421.228	938.34
421.605	966.81
421.982	954.83
422.358	946.47
422.735	986.47
423.111	967.04
423.488	955.51
423.864	964.32
424.241	1000.71
424.617	1009.75
424.994	1024.44
425.37	1051.33
425.746	1030.31
426.123	1066.02
426.499	1058.79
426.875	1079.8
427.251	1083.19
427.627	1106.69
428.003	1120.48
428.379	1116.86
428.756	1129.07
429.132	1117.32
429.507	1159.12
429.883	1181.72
430.259	1161.16
430.635	1182.85
431.011	1186.24
431.387	1216.75
431.763	1209.97
432.138	1229.4
432.514	1271.66
432.89	1267.82
433.265	1297.65
433.641	1327.93
434.016	1290.64
434.392	1310.76
434.767	1355.73
435.143	1367.93
435.518	1359.12
435.894	1360.47
436.269	1394.37
436.644	1397.76
437.02	1423.07
437.395	1419.68
437.77	1433.92
438.145	1455.61
438.52	1485.22
438.895	1483.18
439.271	1477.53
439.646	1519.56
440.021	1506.46
440.395	1537.42
440.77	1524.31
441.145	1530.86
441.52	1553.01
441.895	1581.26
442.27	1591.65
442.645	1598.66
443.019	1604.76
443.394	1602.27
443.769	1615.83
444.143	1608.38
444.518	1633.23
444.892	1623.74
445.267	1646.79
445.641	1668.71
446.016	1642.05
446.39	1665.1
446.764	1706.23
447.139	1684.98
447.513	1704.19
447.887	1703.51
448.262	1750.29
448.636	1735.38
449.01	1753.91
449.384	1813.34
449.758	1796.85
450.132	1798.88
450.506	1821.25
450.88	1850.4
451.254	1829.16
451.628	1883.17
452.002	1881.14
452.376	1862.61
452.75	1947.8
453.123	1954.13
453.497	1940.34
453.871	1988.48
454.244	2049.49
454.618	2038.65
454.992	2070.06
455.365	2082.71
455.739	2106.89
456.112	2177.17
456.486	2136.27
456.859	2180.79
457.232	2226.66
457.606	2249.26
457.979	2292.43
458.352	2332.88
458.725	2341.46
459.099	2331.07
459.472	2366.55
459.845	2447.45
460.218	2429.37
460.591	2472.31
460.964	2465.53
461.337	2543.94
461.71	2593.89
462.083	2636.82
462.456	2606.99
462.829	2637.95
463.201	2684.51
463.574	2667.33
463.947	2744.84
464.32	2741.23
464.692	2767.22
465.065	2847.21
465.438	2880.21
465.81	2914.78
466.183	2863.71
466.555	2962.69
466.928	3008.34
467.3	3010.82
467.672	3025.74
468.045	3099.41
468.417	3135.12
468.789	3110.94
469.161	3195.45
469.534	3230.93
469.906	3295.34
470.278	3293.53
470.65	3379.63
471.022	3434.77
471.394	3467.31
471.766	3517.48
472.138	3536.01
472.51	3645.84
472.882	3644.25
473.253	3678.83
473.625	3733.52
473.997	3841.09
474.369	3851.93
474.74	3884.47
475.112	3988.2
475.484	4034.07
475.855	4068.88
476.227	4128.54
476.598	4291.47
476.97	4312.03
477.341	4455.76
477.713	4508.86
478.084	4573.95
478.455	4686.03
478.827	4691.01
479.198	4805.58
479.569	4905.92
479.94	5006.03
480.311	5080.15
480.682	5200.82
481.053	5338.9
481.424	5386.13
481.795	5465.22
482.166	5587.03
482.537	5690.75
482.908	5833.58
483.279	5885.33
483.65	5985.44
484.021	6146.79
484.391	6179.1
484.762	6320.12
485.133	6453.22
485.503	6583.84
485.874	6743.83
486.244	6821.35
486.615	6995.35
486.985	7137.95
487.356	7277.83
487.726	7366.42
488.097	7551.04
488.467	7659.29
488.837	7891.6
489.207	8019.05
489.578	8154.87
489.948	8286.39
490.318	8496.56
490.688	8539.04
491.058	8800.28
491.428	9027.16
491.798	9148.29
492.168	9353.48
492.538	9465.57
492.908	9759.12
493.278	9931.55
493.648	10076.85
494.017	10300.12
494.387	10406.34
494.757	10574.92
495.126	10847.68
495.496	10988.24
495.866	11237.28
496.235	11432.52
496.605	11628.68
496.974	11769.24
497.344	12071.83
497.713	12229.57
498.082	12477.24
498.452	12668.88
498.821	12871.13
499.19	13095.31
499.559	13326.71
499.928	13623.2
500.298	13861.84
500.667	14067.48
501.036	14253.92
501.405	14457.53
501.774	14722.16
502.143	14972.77
502.512	15237.4
502.88	15638.97
503.249	15687.55
503.618	16038.73
503.987	16168.44
504.356	16473.75
504.724	16648.66
505.093	16936.56
505.462	17164.58
505.83	17368.41
506.199	17762.53
506.567	17995.52
506.936	18245.68
507.304	18598.66
507.672	18837.3
508.041	19040.46
508.409	19307.57
508.777	19600.9
509.145	19821.23
509.514	20018.97
509.882	20253.31
510.25	20434.55
510.618	20805.61
510.986	20845.84
511.354	21182.1
511.722	21561.07
512.09	21754.74
512.458	21783.66
512.826	22195.86
513.193	22312.92
513.561	22537.09
513.929	22747.71
514.297	22953.35
514.664	23296.39
515.032	23431.76
515.4	23685.76
515.767	23869.94
516.135	24037.62
516.502	24008.24
516.869	24390.15
517.237	24574.1
517.604	24568.45
517.972	25063.13
518.339	25217.92
518.706	25295.44
519.073	25466.05
519.44	25783.33
519.808	25941.75
520.175	25862.43
520.542	26459.02
520.909	26471.45
521.276	26511
521.643	26819.24
522.009	26986.47
522.376	27242.73
522.743	27366.57
523.11	27697.63
523.477	27858.08
523.843	28066.66
524.21	28272.99
524.577	28451.51
524.943	28587.33
525.31	28736.93
525.676	29039.97
526.043	29263.47
526.409	29298.5
526.776	29588.21
527.142	29681.76
527.508	29995.65
527.874	30044.46
528.241	30199.04
528.607	30233.39
528.973	30672.24
529.339	30528.97
529.705	30923.54
530.071	31041.73
530.437	31091.22
530.803	31159.92
531.169	31372.11
531.535	31437.65
531.901	31399.91
532.267	31522.39
532.632	31845.55
532.998	31836.96
533.364	32094.35
533.73	32104.52
534.095	32243.73
534.461	32188.36
534.826	32229.72
535.192	32345.19
535.557	32578.86
535.923	32523.27
536.288	32624.51
536.653	32594.91
537.019	32549.71
537.384	32543.83
537.749	32796.03
538.114	32769.59
538.479	32674.45
538.845	32749.93
539.21	32676.71
539.575	32741.12
539.94	32692.98
540.305	32879.42
540.67	32767.78
541.034	32883.26
541.399	32874.45
541.764	32812.75
542.129	32919.87
542.494	32873.77
542.858	33087.1
543.223	32948.57
543.587	32985.4
543.952	32981.11
544.316	32995.35
544.681	32818.85
545.045	33040.77
545.41	33029.47
545.774	33010.71
546.138	32922.81
546.503	32901.79
546.867	32985.4
547.231	33080.09
547.595	33069.7
547.959	33136.81
548.324	33062.01
548.688	33016.14
549.052	33018.85
549.416	32904.05
549.779	33013.65
550.143	32926.65
550.507	33060.66
550.871	33050.94
551.235	32956.25
551.599	33068.57
551.962	32975.69
552.326	33058.4
552.689	33076.47
553.053	32939.76
553.417	33099.53
553.78	33224.27
554.143	33198.73
554.507	33225.17
554.87	33230.82
555.234	33456.8
555.597	33037.61
555.96	33167.55
556.323	33177.49
556.686	33278.5
557.05	33316.24
557.413	33297.03
557.776	33462
558.139	33436.92
558.502	33467.43
558.865	33487.76
559.228	33628.32
559.59	33556.01
559.953	33589
560.316	33748.77
560.679	33642.79
561.041	33854.31
561.404	34011.37
561.767	34162.32
562.129	33991.03
562.492	34123
562.854	34167.07
563.217	34214.75
563.579	34283.45
563.941	34357.57
564.304	34410
564.666	34798.69
565.028	34593.95
565.39	34772.25
565.753	34800.5
566.115	34852.02
566.477	34894.05
566.839	34957.78
567.201	35172.69
567.563	35097.89
567.925	35392.12
568.287	35240.49
568.648	35426.92
569.01	35485.68
569.372	35607.71
569.734	35545.56
570.095	35826.69
570.457	35752.79
570.819	35863.75
571.18	35784.88
571.542	35948.49
571.903	36043.18
572.265	36040.24
572.626	36203.85
572.987	36176.73
573.349	36372.66
573.71	36325.88
574.071	36417.18
574.432	36559.32
574.794	36799.54
575.155	36632.99
575.516	36517.06
575.877	36645.87
576.238	36757.96
576.599	36806.77
576.96	36832.99
577.32	36934.45
577.681	37077.27
578.042	37055.58
578.403	37133.54
578.763	36917.96
579.124	36951.18
579.485	37014.68
579.845	37236.14
580.206	37065.75
580.566	36958.63
580.927	36941.23
581.287	37051.51
581.648	36818.98
582.008	37054.9
582.368	37017.39
582.728	36926.54
583.089	37096.71
583.449	36898.75
583.809	36867.34
584.169	36985.52
584.529	36741.69
584.889	36970.38
585.249	36860.33
585.609	36648.36
585.969	36976.94
586.329	36767.23
586.688	36772.2
587.048	36725.87
587.408	36569.04
587.768	36568.13
588.127	36576.04
588.487	36484.07
588.846	36701.69
589.206	36381.25
589.565	36371.98
589.925	36477.97
590.284	36520.45
590.643	36350.29
591.003	36440
591.362	36545.76
591.721	36384.64
592.08	36345.32
592.44	36449.04
592.799	36310.06
593.158	36250.4
593.517	36192.33
593.876	36458.98
594.235	36200.23
594.593	36182.61
594.952	36213.57
595.311	36128.15
595.67	36156.62
596.029	36297.63
596.387	36378.31
596.746	36352.32
597.104	36178.09
597.463	36068.26
597.822	36435.71
598.18	36077.3
598.538	36098.09
598.897	36400
599.255	36006.79
599.613	36560.9
599.972	36046.79
600.33	36265.77
600.688	36187.58
601.046	36194.36
601.404	36469.61
601.762	36335.6
602.12	36553.22
602.478	36488.81
602.836	36457.85
603.194	36127.69
603.552	36320.23
603.91	36353
604.268	36271.42
604.625	36346.22
604.983	36371.76
605.341	36165.43
605.698	36468.48
606.056	36543.73
606.413	36397.29
606.771	36541.02
607.128	36607.91
607.485	36327.69
607.843	36570.17
608.2	36554.58
608.557	36782.82
608.914	36541.69
609.272	36792.31
609.629	36860.33
609.986	36838.86
610.343	36790.73
610.7	37192.52
611.057	36946.66
611.414	36880.89
611.771	37084.28
612.127	37166.08
612.484	37175.35
612.841	37270.26
613.198	37107.1
613.554	37187.1
613.911	37373.76
614.267	37418.73
614.624	37331.73
614.98	37379.41
615.337	37570.59
615.693	37453.31
616.05	37562.46
616.406	37604.94
616.762	37616.69
617.118	37674.09
617.475	37568.11
617.831	37818.95
618.187	37843.36
618.543	37925.39
618.899	38104.59
619.255	37992.5
619.611	37964.48
619.967	38004.71
620.323	38265.94
620.678	38061.2
621.034	37993.41
621.39	38131.48
621.746	38138.26
622.101	38485.6
622.457	37929.91
622.812	38330.12
623.168	38225.04
623.523	38285.6
623.879	38535.09
624.234	38340.29
624.589	38416
624.945	38349.78
625.3	38366.28
625.655	38380.74
626.01	38329.67
626.365	38393.4
626.72	38427.97
627.075	38228.66
627.43	38345.94
627.785	38407.63
628.14	38460.06
628.495	38391.82
628.85	38449.67
629.205	38284.47
629.559	38504.13
629.914	38430.23
630.269	38347.97
630.623	38196.79
630.978	38131.71
631.332	38272.04
631.687	38230.69
632.041	38282.44
632.396	38305.26
632.75	38056.01
633.104	38288.54
633.459	37908.66
633.813	38053.07
634.167	37971.04
634.521	37872.73
634.875	37814.43
635.229	37797.03
635.583	37639.29
635.937	37724.71
636.291	37725.39
636.645	37649.24
636.999	37494.44
637.352	37637.26
637.706	37399.3
638.06	37579.86
638.413	37439.07
638.767	37317.27
639.121	37402.01
639.474	37086.09
639.828	37147.33
640.181	37064.62
640.534	37277.04
640.888	37051.06
641.241	36911.4
641.594	36943.49
641.947	37126.54
642.301	37030.27
642.654	37029.14
643.007	36900.78
643.36	37092.64
643.713	36845.87
644.066	36964.28
644.419	36780.56
644.771	36497.4
645.124	36160.91
645.477	36137.41
645.83	35983.29
646.182	36008.38
646.535	36027.81
646.888	36036.85
647.24	35819.68
647.593	36193
647.945	35957.76
648.298	35896.74
648.65	35778.55
649.002	35633.92
649.355	35472.57
649.707	35441.84
650.059	35593.7
650.411	35900.36
650.763	36137.64
651.115	36642.26
651.467	36499.66
651.819	36579.21
652.171	36392.09
652.523	36393.68
652.875	36467.57
653.227	36289.72
653.578	36607.68
653.93	36508.25
654.282	36347.35
654.633	36242.95
654.985	36451.75
655.337	36355.94
655.688	36408.59
656.039	36532.66
656.391	36144.64
656.742	36370.85
657.094	36265.54
657.445	36403.17
657.796	36489.04
658.147	36249.27
658.498	36228.93
658.849	36499.89
659.2	36398.65
659.551	36382.38
659.902	36526.33
660.253	36360.46
660.604	36574.01
660.955	36499.21
661.306	36541.24
661.656	36411.75
662.007	36580.56
662.358	36621.01
662.708	36666.21
663.059	36703.72
663.409	36490.17
663.76	36740.33
664.11	36518.64
664.461	36750.95
664.811	36787.34
665.161	36649.94
665.511	36596.38
665.862	36693.78
666.212	36781.69
666.562	36845.19
666.912	36804.29
667.262	36703.5
667.612	36844.51
667.962	36911.4
668.312	36790.05
668.662	36813.1
669.011	36829.37
669.361	36880.44
669.711	36829.82
670.06	36757.28
670.41	36625.08
670.76	36642.03
671.109	36781.69
671.459	36699.2
671.808	36669.6
672.157	36778.3
672.507	36549.15
672.856	36540.79
673.205	36721.8
673.554	36657.17
673.904	36640.22
674.253	36698.53
674.602	36518.64
674.951	36114.36
675.3	35936.96
675.649	36437.06
675.998	36548.93
676.346	36540.34
676.695	36517.29
677.044	36142.38
677.393	36299.22
677.741	36366.78
678.09	36213.79
678.438	36144.42
678.787	36159.56
679.135	36241.36
679.484	35990.97
679.832	36084.31
680.181	36058.32
680.529	35926.34
680.877	35801.6
681.225	35760.47
681.573	36055.15
681.922	35838.44
682.27	35655.84
682.618	35592.11
682.966	35570.19
683.314	35597.99
683.661	35581.27
684.009	35340.14
684.357	35254.95
684.705	35196.65
685.053	35303.76
685.4	35082.52
685.748	34970.89
686.095	34944
686.443	34684.57
686.79	34701.52
687.138	34826.49
687.485	34771.35
687.832	34600.73
688.18	34387.4
688.527	34343.33
688.874	34257.23
689.221	34260.4
689.568	34066.73
689.915	33918.03
690.262	33997.13
690.609	33847.08
690.956	33696.8
691.303	33622.68
691.65	33450.93
691.997	33393.53
692.344	33176.59
692.69	33096.81
693.037	33207.54
693.383	32883.94
693.73	32930.26
694.077	32714.9
694.423	32750.83
694.769	32639.65
695.116	32440.33
695.462	32286.67
695.808	32207.35
696.155	32161.47
696.501	31933.23
696.847	31937.3
697.193	31696.85
697.539	31720.13
697.885	31397.87
698.231	31389.51
698.577	31458.89
698.923	31345.9
699.269	30915.18
699.614	30994.95
699.96	30604.45
700.306	30629.53
700.651	30496.66
700.997	30349.31
701.342	30218.24
701.688	30270.45
702.033	30174.86
702.379	30020.96
702.724	29947.97
703.069	29895.77
703.415	29760.86
703.76	29538.26
704.105	29557.7
704.45	29365.84
704.795	29374.2
705.14	29185.05
705.485	29203.58
705.83	29060.54
706.175	28905.96
706.52	28858.96
706.865	28757.94
707.209	28709.58
707.554	28590.27
707.899	28579.19
708.243	28367.9
708.588	28441.12
708.932	28192.76
709.277	28252.19
709.621	28026.44
709.966	28092.65
710.31	27999.55
710.654	27778.99
710.998	27839.55
711.342	27788.93
711.687	27695.6
712.031	27534.7
712.375	27488.6
712.719	27514.14
713.063	27441.14
713.407	27564.08
713.75	27365.44
714.094	27357.76
714.438	27271.88
714.782	27253.35
715.125	27161.15
715.469	27262.39
715.812	27084.99
716.156	26958.44
716.499	27017.65
716.843	26908.28
717.186	26864.66
717.53	27036.41
717.873	26953.02
718.216	26981.72
718.559	26784.89
718.902	26611.79
719.246	26641.39
719.589	26654.04
719.932	26605.23
720.275	26616.08
720.617	26616.76
720.96	26492.92
721.303	26574.27
721.646	26600.71
721.989	26469.64
722.331	26443.2
722.674	26437.78
723.016	26492.92
723.359	26333.6
723.701	26420.38
724.044	26381.96
724.386	26323.88
724.729	26360.72
725.071	26379.7
725.413	26350.1
725.755	26360.95
726.097	26260.83
726.439	26236.2
726.782	26333.83
727.124	26479.13
727.465	26291.12
727.807	26314.39
728.149	26364.79
728.491	26287.95
728.833	26384.67
729.175	26480.04
729.516	26439.36
729.858	26485.69
730.199	26490.43
730.541	26498.12
730.882	26455.18
731.224	26434.39
731.565	26329.08
731.906	26311.91
732.248	26464.9
732.589	26392.58
732.93	26456.76
733.271	26439.36
733.612	26501.51
733.953	26599.13
734.294	26567.49
734.635	26424.67
734.976	26644.1
735.317	26530.88
735.658	26589.64
735.999	26622.63
736.339	26594.39
736.68	26652.01
737.021	26789.86
737.361	26744.89
737.702	26973.36
738.042	26806.13
738.383	26979.01
738.723	27039.8
739.063	27020.81
739.404	27279.79
739.744	27291.32
740.084	27069.85
740.424	27381.71
740.764	27354.14
741.104	27403.18
741.444	27459.22
741.784	27506.45
742.124	27627.35
742.464	27746.9
742.804	27690.18
743.143	27785.99
743.483	27932.2
743.823	27978.3
744.162	28039.55
744.502	28219.43
744.841	28176.04
745.181	28405.19
745.52	28430.95
745.86	28649.25
746.199	28707.55
746.538	28864.83
746.877	29033.19
747.216	29115.9
747.556	29144.37
747.895	29318.83
748.234	29421.2
748.573	29637.02
748.911	29802.89
749.25	29898.48
749.589	30086.05
749.928	30317.68
750.267	30463.21
750.605	30554.73
750.944	30751.34
751.283	30926.47
751.621	31222.74
751.96	31177.32
752.298	31500.92
752.636	31714.02
752.975	31809.84
753.313	31807.58
753.651	32340
753.989	32315.14
754.327	32714
754.666	32707.22
