Data from 15-6437_FLMS001491_003.txt Node
Date: Thu Apr 19 15:40:05 BST 2018
User: hsy
Spectrometer: FLMS00149
Trigger mode: 0
Integration Time (sec): 1.000000E-2
Scans to average: 10
Electric dark correction enabled: true
Nonlinearity correction enabled: false
Boxcar width: 0
XAxis mode: Wavelengths
Number of Pixels in Spectrum: 2048
>>>>>Begin Spectral Data<<<<<
341.393	-20.72
341.776	-20.72
342.16	-20.72
342.543	-69.31
342.927	-74.28
343.31	-51
343.693	-65.46
344.077	-51.91
344.46	-67.27
344.843	-53.04
345.226	-36.54
345.61	-39.7
345.993	-20.27
346.376	-9.87
346.759	2.1
347.142	33.52
347.525	33.06
347.908	47.98
348.291	95.66
348.674	86.62
349.057	96.11
349.44	107.86
349.823	121.2
350.206	160.97
350.588	224.92
350.971	231.93
351.354	250.46
351.737	287.52
352.119	287.07
352.502	288.42
352.884	294.07
353.267	303.34
353.65	332.04
354.032	341.53
354.414	340.85
354.797	351.93
355.179	360.74
355.562	360.06
355.944	367.29
356.326	394.18
356.709	380.63
357.091	370.23
357.473	362.55
357.855	367.29
358.238	380.63
358.62	392.38
359.002	370.91
359.384	374.52
359.766	356.45
360.148	377.91
360.53	384.92
360.912	384.47
361.294	367.52
361.676	379.5
362.057	398.7
362.439	374.07
362.821	355.99
363.203	381.3
363.584	391.92
363.966	363.9
364.348	378.59
364.729	336.11
365.111	373.39
365.493	375.65
365.874	344.24
366.256	379.27
366.637	358.25
367.019	379.5
367.4	381.76
367.781	377.91
368.163	371.13
368.544	362.55
368.925	355.99
369.306	355.99
369.688	377.69
370.069	387.18
370.45	372.49
370.831	353.51
371.212	387.63
371.593	368.87
371.974	354.86
372.355	379.72
372.736	364.13
373.117	372.94
373.498	372.26
373.879	390.12
374.26	364.13
374.641	378.14
375.021	392.38
375.402	389.89
375.783	413.17
376.163	414.52
376.544	396.44
376.925	425.37
377.305	405.03
377.686	395.99
378.066	391.02
378.447	415.65
378.827	413.62
379.208	385.6
379.588	430.57
379.968	398.93
380.349	406.61
380.729	420.4
381.109	421.75
381.489	425.14
381.87	408.2
382.25	432.6
382.63	431.7
383.01	402.09
383.39	408.87
383.77	436.44
384.15	435.77
384.53	444.58
384.91	448.87
385.29	445.03
385.67	449.1
386.049	470.34
386.429	441.41
386.809	452.49
387.189	458.14
387.568	476.67
387.948	463.56
388.328	490.91
388.707	452.49
389.087	465.14
389.466	476.89
389.846	475.31
390.225	481.19
390.605	458.59
390.984	490
391.363	506.27
391.743	486.84
392.122	506.72
392.501	477.8
392.881	510.11
393.26	515.31
393.639	520.73
394.018	512.37
394.397	527.06
394.776	543.11
395.155	521.19
395.534	523.67
395.913	538.14
396.292	526.61
396.671	544.24
397.05	543.79
397.429	575.87
397.808	543.11
398.186	540.17
398.565	567.29
398.944	567.29
399.323	563.22
399.701	566.84
400.08	574.07
400.458	567.51
400.837	575.2
401.215	600.73
401.594	616.33
401.972	574.74
402.351	580.62
402.729	609.09
403.107	616.1
403.486	618.36
403.864	613.39
404.242	610.45
404.62	654.29
404.999	639.15
405.377	661.75
405.755	650.67
406.133	635.08
406.511	643.44
406.889	655.19
407.267	677.57
407.645	693.16
408.023	698.13
408.401	708.53
408.779	710.11
409.156	703.33
409.534	712.59
409.912	695.42
410.29	731.12
410.667	742.2
411.045	751.92
411.422	748.53
411.8	755.76
412.178	770.67
412.555	762.54
412.933	798.24
413.31	797.56
413.687	831.69
414.065	817
414.442	826.49
414.819	824.46
415.197	834.17
415.574	831.91
415.951	849.99
416.328	835.08
416.705	865.58
417.082	886.37
417.46	864.68
417.837	878.92
418.214	895.87
418.591	911.23
418.967	899.03
419.344	916.88
419.721	917.11
420.098	908.3
420.475	921.18
420.852	942.64
421.228	953.04
421.605	959.14
421.982	963.44
422.358	974.06
422.735	976.54
423.111	963.89
423.488	1030.33
423.864	989.2
424.241	1006.6
424.617	1026.26
424.994	1023.77
425.37	1029.2
425.746	1054.05
426.123	1041.4
426.499	1080.49
426.875	1086.37
427.251	1089.31
427.627	1115.97
428.003	1103.09
428.379	1121.85
428.756	1122.3
429.132	1141.74
429.507	1125.69
429.883	1185.35
430.259	1182.64
430.635	1200.94
431.011	1177.89
431.387	1245.46
431.763	1234.84
432.138	1245.91
432.514	1250.66
432.89	1248.17
433.265	1289.98
433.641	1312.8
434.016	1303.99
434.392	1348.51
434.767	1376.31
435.143	1370.88
435.518	1376.53
435.894	1400.71
436.269	1431.67
436.644	1423.99
437.02	1441.61
437.395	1420.15
437.77	1457.66
438.145	1487.49
438.52	1526.36
438.895	1536.3
439.271	1495.17
439.646	1514.83
440.021	1529.75
440.395	1569.29
440.77	1548.5
441.145	1577.88
441.52	1580.59
441.895	1586.47
442.27	1619.46
442.645	1590.54
443.019	1605.45
443.394	1617.43
443.769	1644.55
444.143	1639.12
444.518	1678.22
444.892	1692
445.267	1646.13
445.641	1683.64
446.016	1716.18
446.39	1725.67
446.764	1734.94
447.139	1710.53
447.513	1732.68
447.887	1763.19
448.262	1735.17
448.636	1783.75
449.01	1770.87
449.384	1789.85
449.758	1813.58
450.132	1835.28
450.506	1875.5
450.88	1872.79
451.254	1862.39
451.628	1893.81
452.002	1922.73
452.376	1953.92
452.75	1971.09
453.123	1979.91
453.497	2000.47
453.871	2044.08
454.244	2060.13
454.618	2056.74
454.992	2067.81
455.365	2134.25
455.739	2185.32
456.112	2211.09
456.486	2228.26
456.859	2212.67
457.232	2290.41
457.606	2311.65
457.979	2300.8
458.352	2350.29
458.725	2370.18
459.099	2401.14
459.472	2428.71
459.845	2445.2
460.218	2499.44
460.591	2537.86
460.964	2589.61
461.337	2570.4
461.71	2649.72
462.083	2668.48
462.456	2676.61
462.829	2674.8
463.201	2734.01
463.574	2695.82
463.947	2755.25
464.32	2800.22
464.692	2845.42
465.065	2872.31
465.438	2917.51
465.81	2951.41
466.183	2949.82
466.555	3062.59
466.928	3077.05
467.3	3036.15
467.672	3103.72
468.045	3183.49
468.417	3180.55
468.789	3218.52
469.161	3261
469.534	3302.36
469.906	3377.16
470.278	3391.17
470.65	3421.22
471.022	3480.66
471.394	3529.24
471.766	3571.05
472.138	3645.4
472.51	3730.14
472.882	3799.52
473.253	3769.24
473.625	3888.33
473.997	3929.01
474.369	3953.41
474.74	3969.46
475.112	4080.19
475.484	4139.85
475.855	4177.36
476.227	4261.2
476.598	4354.76
476.97	4412.84
477.341	4527.41
477.713	4630.46
478.084	4664.58
478.455	4760.4
478.827	4836.78
479.198	4891.47
479.569	4979.37
479.94	5135.75
480.311	5187.73
480.682	5339.14
481.053	5399.25
481.424	5472.24
481.795	5620.04
482.166	5697.55
482.537	5782.97
482.908	5907.71
483.279	6022.96
483.65	6158.1
484.021	6290.3
484.391	6375.5
484.762	6490.3
485.133	6539.33
485.503	6641.93
485.874	6834.92
486.244	6949.27
486.615	7148.81
486.985	7227
487.356	7384.51
487.726	7532.53
488.097	7693.43
488.467	7809.58
488.837	8066.98
489.207	8122.57
489.578	8351.94
489.948	8507.87
490.318	8664.48
490.688	8768.65
491.058	8995.54
491.428	9154.86
491.798	9317.11
492.168	9572.25
492.538	9685.47
492.908	9903.31
493.278	10060.15
493.648	10127.71
494.017	10470.76
494.387	10686.57
494.757	10885.21
495.126	11024.87
495.496	11167.91
495.866	11415.59
496.235	11575.13
496.605	11854.67
496.974	12008.34
497.344	12247.43
497.713	12509.8
498.082	12671.38
498.452	12917.47
498.821	13121.76
499.19	13309.33
499.559	13622.54
499.928	13830.67
500.298	13963.77
500.667	14313.14
501.036	14433.82
501.405	14725.11
501.774	14914.93
502.143	15309.05
502.512	15428.14
502.88	15732.76
503.249	15851.63
503.618	16154.45
503.987	16366.19
504.356	16665.85
504.724	16885.95
505.093	17194.65
505.462	17302.21
505.83	17695.42
506.199	17984.46
506.567	18298.8
506.936	18516.42
507.304	18848.39
507.672	19112.56
508.041	19189.62
508.409	19443.4
508.777	19962.26
509.145	20170.84
509.514	20273.44
509.882	20564.95
510.25	20807.66
510.618	20988.45
510.986	21164.71
511.354	21606.73
511.722	21802.21
512.09	22143.22
512.458	22145.03
512.826	22449.65
513.193	22685.35
513.561	22871.11
513.929	23006.25
514.297	23453.01
514.664	23663.86
515.032	23693.01
515.4	24126.89
515.767	24219.09
516.135	24408.47
516.502	24427.9
516.869	24852.52
517.237	25059.52
517.604	25068.79
517.972	25518.5
518.339	25592.84
518.706	25731.6
519.073	25850.92
519.44	26040.29
519.808	26330.23
520.175	26407.74
520.542	26871.91
520.909	26872.13
521.276	27103.54
521.643	27344.44
522.009	27475.05
522.376	27601.15
522.743	27882.95
523.11	28096.06
523.477	28370.17
523.843	28454.46
524.21	28809.48
524.577	29015.58
524.943	29137.38
525.31	29188.91
525.676	29632.96
526.043	29809
526.409	29833.64
526.776	30201.31
527.142	30156.57
527.508	30328.54
527.874	30650.56
528.241	30843.78
528.607	30762.88
528.973	31146.6
529.339	31002.19
529.705	31472.69
530.071	31535.29
530.437	31680.37
530.803	31959.91
531.169	31976.86
531.535	31963.98
531.901	32072.45
532.267	32077.42
532.632	32360.12
532.998	32308.15
533.364	32528.03
533.73	32528.25
534.095	32810.28
534.461	32728.7
534.826	32882.37
535.192	32939.54
535.557	33088.69
535.923	32972.54
536.288	33233.1
536.653	33244.17
537.019	33181.12
537.384	33164.4
537.749	33221.34
538.114	33123.95
538.479	33311.74
538.845	33384.73
539.21	33269.93
539.575	33446.87
539.94	33377.5
540.305	33494.33
540.67	33492.98
541.034	33488
541.399	33333.21
541.764	33514.9
542.129	33346.31
542.494	33504.95
542.858	33559.87
543.223	33358.97
543.587	33510.15
543.952	33506.08
544.316	33544.5
544.681	33363.49
545.045	33573.88
545.41	33656.36
545.774	33589.7
546.138	33461.34
546.503	33543.82
546.867	33554.44
547.231	33778.84
547.595	33624.72
547.959	33645.06
548.324	33688.68
548.688	33590.37
549.052	33651.62
549.416	33509.7
549.779	33546.31
550.143	33646.64
550.507	33701.56
550.871	33606.42
551.235	33579.98
551.599	33940.42
551.962	33797.83
552.326	33806.19
552.689	33775.45
553.053	33571.84
553.417	33690.03
553.78	33725.29
554.143	33779.3
554.507	33845.73
554.87	33873.76
555.234	34056.58
555.597	33702.46
555.96	33900.2
556.323	33893.42
556.686	33946.07
557.05	34079.63
557.413	34029.68
557.776	33979.74
558.139	34167.99
558.502	34182.67
558.865	34173.41
559.228	34335.44
559.59	34369.34
559.953	34503.57
560.316	34604.36
560.679	34514.19
561.041	34694.98
561.404	34835.09
561.767	34920.51
562.129	34757.8
562.492	35043.67
562.854	34893.62
563.217	34984.01
563.579	34978.81
563.941	35116.44
564.304	35130.22
564.666	35433.04
565.028	35389.65
565.39	35487.05
565.753	35654.27
566.115	35537.22
566.477	35712.58
566.839	35778.56
567.201	36033.93
567.563	35889.52
567.925	36085.9
568.287	36126.8
568.648	36037.99
569.01	36318.66
569.372	36411.77
569.734	36303.52
570.095	36496.06
570.457	36666.23
570.819	36643.63
571.18	36632.78
571.542	36814.47
571.903	36743.74
572.265	36915.26
572.626	36965.65
572.987	36913.9
573.349	37077.51
573.71	37153.9
574.071	37212.65
574.432	37406.77
574.794	37530.16
575.155	37430.72
575.516	37391.63
575.877	37549.59
576.238	37381.69
576.599	37508.69
576.96	37443.83
577.32	37562.02
577.681	37666.42
578.042	37637.05
578.403	37587.1
578.763	37642.92
579.124	37703.49
579.485	37776.48
579.845	37852.63
580.206	37784.61
580.566	37791.17
580.927	37769.47
581.287	37839.3
581.648	37722.92
582.008	37960.43
582.368	37856.7
582.728	37699.42
583.089	37832.75
583.449	37786.65
583.809	37767.89
584.169	37998.17
584.529	37680.21
584.889	37928.34
585.249	37637.27
585.609	37425.3
585.969	37646.99
586.329	37558.86
586.688	37715.92
587.048	37593.43
587.408	37512.08
587.768	37546.88
588.127	37462.14
588.487	37332.87
588.846	37738.97
589.206	37177.62
589.565	37157.29
589.925	37423.27
590.284	37238.87
590.643	37166.78
591.003	37149.83
591.362	37335.81
591.721	37232.99
592.08	37260.79
592.44	37315.7
592.799	37346.66
593.158	37117.29
593.517	37140.11
593.876	37187.34
594.235	37176.49
594.593	37016.72
594.952	37051.3
595.311	36983.5
595.67	37146.44
596.029	37117.74
596.387	37176.95
596.746	37224.63
597.104	36963.62
597.463	36875.94
597.822	37072.09
598.18	36929.27
598.538	36903.73
598.897	37070.51
599.255	36823.06
599.613	37255.14
599.972	37065.76
600.33	37141.24
600.688	36895.37
601.046	36989.38
601.404	37273.21
601.762	37098.76
602.12	37099.43
602.478	36982.83
602.836	37167.68
603.194	36808.37
603.552	37035.71
603.91	36805.66
604.268	36999.1
604.625	36875.71
604.983	37198.87
605.341	36878.87
605.698	37124.07
606.056	37292.42
606.413	37122.26
606.771	37308.02
607.128	37325.42
607.485	37131.3
607.843	37135.37
608.2	37420.78
608.557	37373.78
608.914	37285.19
609.272	37547.78
609.629	37611.06
609.986	37607.22
610.343	37726.08
610.7	37759.08
611.057	37686.09
611.414	37682.02
611.771	37852.41
612.127	37912.52
612.484	37988
612.841	38038.17
613.198	37920.2
613.554	37761.34
613.911	37970.37
614.267	38070.03
614.624	38023.25
614.98	38100.99
615.337	38360.42
615.693	38317.93
616.05	38254.21
616.406	38521.09
616.762	38335.33
617.118	38355.45
617.475	38468.44
617.831	38628.21
618.187	38609.68
618.543	38552.73
618.899	38832.04
619.255	38691.48
619.611	38739.84
619.967	38807.86
620.323	39008.99
620.678	38881.99
621.034	38900.06
621.39	38888.54
621.746	38830.91
622.101	39303.44
622.457	38899.84
622.812	39173.96
623.168	39234.29
623.523	39220.06
623.879	39355.65
624.234	39017.35
624.589	39092.38
624.945	39129.21
625.3	39167.85
625.655	39121.08
626.01	39288.53
626.365	39072.94
626.72	39167.18
627.075	39028.87
627.43	39110.68
627.785	39115.43
628.14	39157.46
628.495	39102.32
628.85	39134.18
629.205	38951.36
629.559	39166.27
629.914	38989.78
630.269	39156.33
630.623	38953.4
630.978	38851.25
631.332	39033.17
631.687	39007.63
632.041	38958.37
632.396	38882.66
632.75	38790.69
633.104	38938.93
633.459	38513.41
633.813	38640.86
634.167	38681.31
634.521	38717.02
634.875	38705.95
635.229	38617.36
635.583	38373.75
635.937	38388.21
636.291	38655.78
636.645	38414.88
636.999	38266.86
637.352	38362.45
637.706	38137.82
638.06	38418.5
638.413	38306.18
638.767	38212.4
639.121	38172.63
639.474	38056.25
639.828	38002.46
640.181	37905.74
640.534	38047.21
640.888	37884.05
641.241	37558.63
641.594	37808.79
641.947	37955
642.301	37694.45
642.654	37678.85
643.007	37526.77
643.36	37817.83
643.713	37689.25
644.066	37690.15
644.419	37497.62
644.771	37128.13
645.124	36837.75
645.477	36849.5
645.83	36626.9
646.182	36726.79
646.535	36536.74
646.888	36763.62
647.24	36548.04
647.593	36811.76
647.945	36618.77
648.298	36400.24
648.65	36341.04
649.002	36153.47
649.355	36132.45
649.707	36043.64
650.059	36046.13
650.411	36542.84
650.763	36793.68
651.115	37293.78
651.467	37118.42
651.819	37136.27
652.171	37113.67
652.523	36974.01
652.875	37026.22
653.227	36963.39
653.578	37364.29
653.93	37193.67
654.282	37066.44
654.633	37068.93
654.985	37190.96
655.337	37181.92
655.688	36997.97
656.039	37289.26
656.391	36876.84
656.742	37140.34
657.094	37045.88
657.445	37117.96
657.796	37170.17
658.147	37115.25
658.498	37057.63
658.849	37204.52
659.2	37096.95
659.551	37192.99
659.902	37310.28
660.253	37055.37
660.604	37248.36
660.955	37025.54
661.306	37368.13
661.656	37232.09
662.007	37238.19
662.358	37256.49
662.708	37287.45
663.059	37222.14
663.409	37116.16
663.76	37331.97
664.11	37199.32
664.461	37413.55
664.811	37481.12
665.161	37410.16
665.511	37486.77
665.862	37449.03
666.212	37349.6
666.562	37509.37
666.912	37415.13
667.262	37347.79
667.612	37416.71
667.962	37451.52
668.312	37459.88
668.662	37721.34
669.011	37497.62
669.361	37361.12
669.711	37496.03
670.06	37392.31
670.41	37302.59
670.76	37447.22
671.109	37487.9
671.459	37379.88
671.808	37247.9
672.157	37367
672.507	37110.28
672.856	37213.56
673.205	37291.97
673.554	37362.03
673.904	37204.74
674.253	37461.46
674.602	37191.18
674.951	36764.98
675.3	36534.93
675.649	37260.11
675.998	37174.46
676.346	37129.26
676.695	37097.63
677.044	36947.8
677.393	37017.85
677.741	36913.22
678.09	36864.64
678.438	36815.6
678.787	36884.07
679.135	36959.78
679.484	36680.91
679.832	36793.68
680.181	36710.07
680.529	36600.01
680.877	36480.69
681.225	36540.35
681.573	36617.86
681.922	36359.11
682.27	36375.84
682.618	36292.68
682.966	36090.65
683.314	36198.89
683.661	36134.04
684.009	36061.72
684.357	35950.31
684.705	35816.53
685.053	35818.34
685.4	35439.36
685.748	35559.59
686.095	35468.06
686.443	35297.67
686.79	35326.15
687.138	35362.08
687.485	35264
687.832	35111.92
688.18	35082.76
688.527	35063.56
688.874	34904.46
689.221	34842.54
689.568	34629.44
689.915	34582.44
690.262	34435.78
690.609	34462.67
690.956	34303.8
691.303	34414.31
691.65	34136.35
691.997	34082.11
692.344	33808
692.69	33762.8
693.037	33750.6
693.383	33441.9
693.73	33546.99
694.077	33272.87
694.423	33352.41
694.769	33055.92
695.116	33120.56
695.462	32910.62
695.808	32703.17
696.155	32770.28
696.501	32474.02
696.847	32541.59
697.193	32247.36
697.539	32247.81
697.885	32039.23
698.231	31967.82
698.577	31908.38
698.923	31865.45
699.269	31670.42
699.614	31520.15
699.96	31371.9
700.306	31347.95
700.651	31201.51
700.997	31036.77
701.342	30988.63
701.688	30896.66
702.033	30617.34
702.379	30601.3
702.724	30476.33
703.069	30702.99
703.415	30183.23
703.76	30192.95
704.105	30103.91
704.45	30005.61
704.795	29930.36
705.14	29685.17
705.485	29589.8
705.83	29462.8
706.175	29566.98
706.52	29385.51
706.865	29278.17
707.209	29173.77
707.554	29116.37
707.899	29034.79
708.243	28963.15
708.588	28944.85
708.932	28802.25
709.277	28756.38
709.621	28686.55
709.966	28396.84
710.31	28543.73
710.654	28333.34
710.998	28333.11
711.342	28333.56
711.687	28338.31
712.031	28127.01
712.375	28012.22
712.719	28007.92
713.063	27856.29
713.407	28029.62
713.75	27796.85
714.094	27864.87
714.438	27696.97
714.782	27770.41
715.125	27587.59
715.469	27715.05
715.812	27498.33
716.156	27403.64
716.499	27499.46
716.843	27487.71
717.186	27326.36
717.53	27575.16
717.873	27361.61
718.216	27456.07
718.559	27318.9
718.902	27083.43
719.246	27142.18
719.589	27101.05
719.932	27155.74
720.275	27093.82
720.617	27081.17
720.96	26920.49
721.303	27025.12
721.646	26961.4
721.989	26864.67
722.331	27071.9
722.674	26856.77
723.016	26876.43
723.359	26813.15
723.701	26880.49
724.044	26828.52
724.386	26644.34
724.729	26883.66
725.071	26737.9
725.413	26826.71
725.755	26832.13
726.097	26672.59
726.439	26779.48
726.782	26713.94
727.124	26908.06
727.465	26815.41
727.807	26769.76
728.149	26803.21
728.491	26693.15
728.833	26999.36
729.175	26819.48
729.516	26667.39
729.858	26771.34
730.199	26849.08
730.541	26789.2
730.882	26752.81
731.224	26910.1
731.565	26675.75
731.906	26885.69
732.248	26972.24
732.589	26854.51
732.93	26763.21
733.271	26901.74
733.612	26970.66
733.953	27129.3
734.294	26990.1
734.635	27036.42
734.976	27138.34
735.317	26984.67
735.658	27040.94
735.999	27074.61
736.339	27029.64
736.68	27232.57
737.021	27214.04
737.361	27131.56
737.702	27359.35
738.042	27442.06
738.383	27346.02
738.723	27466.69
739.063	27332.91
739.404	27560.25
739.744	27649.06
740.084	27434.83
740.424	27771.32
740.764	27750.53
741.104	27923.63
741.444	27824.65
741.784	27865.1
742.124	28068.94
742.464	28090.86
742.804	28174.47
743.143	28185.77
743.483	28347.12
743.823	28176.96
744.162	28447.91
744.502	28533.11
744.841	28576.04
745.181	28829.14
745.52	28886.54
745.86	29134.22
746.199	29230.49
746.538	29238.62
746.877	29497.37
747.216	29496.24
747.556	29620.99
747.895	29898.72
748.234	29871.83
748.573	30125.38
748.911	30072.73
749.25	30433.62
749.589	30372.15
749.928	30706.83
750.267	30694.86
750.605	30951.57
750.944	31143.43
751.283	31191.11
751.621	31494.61
751.96	31491.22
752.298	31685.34
752.636	31988.38
752.975	32049.17
753.313	32182.95
753.651	32614.13
753.989	32629.5
754.327	32828.59
754.666	32865.87
