Data from 15-6437_FLMS001491_010.txt Node
Date: Thu Apr 19 15:40:36 BST 2018
User: hsy
Spectrometer: FLMS00149
Trigger mode: 0
Integration Time (sec): 1.000000E-2
Scans to average: 10
Electric dark correction enabled: true
Nonlinearity correction enabled: false
Boxcar width: 0
XAxis mode: Wavelengths
Number of Pixels in Spectrum: 2048
>>>>>Begin Spectral Data<<<<<
341.393	-1.95
341.776	-1.95
342.16	-1.95
342.543	-53.7
342.927	-65.9
343.31	-54.6
343.693	-60.48
344.077	-74.26
344.46	-68.84
344.843	-43.3
345.226	-45.79
345.61	-33.36
345.993	-21.61
346.376	-11.21
346.759	4.38
347.142	38.28
347.525	40.54
347.908	67.65
348.291	83.47
348.674	93.64
349.057	85.51
349.44	132.51
349.823	132.28
350.206	163.02
350.588	228.1
350.971	263.81
351.354	278.5
351.737	273.07
352.119	283.92
352.502	285.05
352.884	320.3
353.267	327.31
353.65	327.76
354.032	350.13
354.414	365.72
354.797	340.64
355.179	374.99
355.562	351.49
355.944	391.26
356.326	379.74
356.709	363.01
357.091	379.96
357.473	374.99
357.855	365.95
358.238	376.35
358.62	351.04
359.002	391.71
359.384	382.9
359.766	383.58
360.148	392.62
360.53	390.81
360.912	406.63
361.294	378.15
361.676	394.2
362.057	389
362.439	397.81
362.821	398.27
363.203	352.39
363.584	386.06
363.966	365.95
364.348	365.27
364.729	371.83
365.111	381.77
365.493	377.93
365.874	384.93
366.256	374.09
366.637	368.44
367.019	364.82
367.4	374.76
367.781	391.26
368.163	366.18
368.544	370.24
368.925	371.37
369.306	371.15
369.688	353.07
370.069	360.98
370.45	389.23
370.831	400.3
371.212	362.11
371.593	373.86
371.974	382.45
372.355	372.73
372.736	385.39
373.117	373.63
373.498	407.31
373.879	392.84
374.26	366.18
374.641	370.7
375.021	359.85
375.402	394.42
375.783	407.98
376.163	412.96
376.544	411.37
376.925	392.84
377.305	395.1
377.686	422.67
378.066	407.31
378.447	413.63
378.827	421.77
379.208	408.89
379.588	428.77
379.968	412.28
380.349	435.1
380.729	422.45
381.109	426.97
381.489	416.57
381.87	418.38
382.25	420.64
382.63	446.85
383.01	429.9
383.39	460.19
383.77	456.8
384.15	459.51
384.53	451.37
384.91	451.82
385.29	445.04
385.67	473.52
386.049	461.09
386.429	461.54
386.809	426.74
387.189	464.71
387.568	463.12
387.948	468.55
388.328	463.35
388.707	474.65
389.087	479.17
389.466	489.34
389.846	466.06
390.225	467.87
390.605	495.44
390.984	474.65
391.363	508.77
391.743	497.02
392.122	480.98
392.501	497.47
392.881	496.57
393.26	534.31
393.639	527.98
394.018	499.05
394.397	542.22
394.776	505.61
395.155	517.81
395.534	536.12
395.913	546.29
396.292	533.18
396.671	547.41
397.05	531.37
397.429	533.18
397.808	541.77
398.186	554.65
398.565	567.75
398.944	583.8
399.323	566.85
399.701	562.56
400.08	569.34
400.458	581.76
400.837	579.96
401.215	589.9
401.594	578.6
401.972	565.27
402.351	599.62
402.729	615.44
403.107	624.02
403.486	610.46
403.864	608.66
404.242	639.62
404.62	637.81
404.999	624.25
405.377	633.74
405.755	647.75
406.133	636.23
406.511	660.63
406.889	670.58
407.267	654.98
407.645	681.2
408.023	690.01
408.401	697.47
408.779	702.89
409.156	704.47
409.534	716.22
409.912	711.93
410.29	740.63
410.667	728.43
411.045	736.11
411.422	746.73
411.8	753.51
412.178	766.17
412.555	784.02
412.933	787.18
413.31	797.13
413.687	814.98
414.065	794.19
414.442	808.43
414.819	823.34
415.197	839.16
415.574	810.23
415.951	841.42
416.328	820.4
416.705	828.99
417.082	863.34
417.46	880.97
417.837	859.95
418.214	871.02
418.591	871.93
418.967	894.98
419.344	892.04
419.721	870.8
420.098	913.73
420.475	887.97
420.852	949.44
421.228	959.38
421.605	941.3
421.982	982.43
422.358	967.97
422.735	937.01
423.111	969.32
423.488	985.6
423.864	996.22
424.241	992.15
424.617	1005.93
424.994	993.28
425.37	1014.07
425.746	1007.97
426.123	1044.35
426.499	1016.56
426.875	1054.07
427.251	1052.94
427.627	1073.73
428.003	1087.29
428.379	1137.46
428.756	1110.56
429.132	1126.83
429.507	1133.61
429.883	1177.45
430.259	1165.25
430.635	1186.49
431.011	1196.21
431.387	1193.73
431.763	1248.41
432.138	1227.17
432.514	1235.98
432.89	1231.69
433.265	1280.73
433.641	1296.55
434.016	1302.42
434.392	1314.85
434.767	1346.72
435.143	1322.08
435.518	1369.54
435.894	1377.9
436.269	1390.56
436.644	1393.49
437.02	1424
437.395	1404.57
437.77	1430.78
438.145	1451.8
438.52	1470.78
438.895	1486.6
439.271	1489.09
439.646	1502.42
440.021	1546.26
440.395	1525.69
440.77	1497.67
441.145	1530.44
441.52	1565.02
441.895	1547.61
442.27	1541.06
442.645	1563.21
443.019	1586.03
443.394	1616.54
443.769	1636.65
444.143	1616.31
444.518	1635.52
444.892	1645.69
445.267	1651.57
445.641	1666.48
446.016	1671.23
446.39	1680.27
446.764	1664.45
447.139	1673.49
447.513	1687.5
447.887	1714.39
448.262	1742.41
448.636	1733.37
449.01	1753.48
449.384	1772.69
449.758	1780.83
450.132	1806.36
450.506	1838.45
450.88	1859.47
451.254	1842.3
451.628	1867.15
452.002	1870.54
452.376	1899.24
452.75	1919.13
453.123	1911.45
453.497	1967.49
453.871	1989.86
454.244	2019.69
454.618	2049.07
454.992	2068.96
455.365	2083.19
455.739	2103.53
456.112	2125.45
456.486	2155.73
456.859	2158.9
457.232	2200.48
457.606	2254.04
457.979	2257.65
458.352	2267.6
458.725	2333.81
459.099	2349.85
459.472	2354.6
459.845	2414.71
460.218	2445.9
460.591	2441.15
460.964	2474.14
461.337	2538.1
461.71	2597.53
462.083	2606.34
462.456	2582.84
462.829	2579.23
463.201	2665.78
463.574	2664.65
463.947	2722.5
464.32	2747.58
464.692	2783.51
465.065	2766.34
465.438	2836.62
465.81	2900.12
466.183	2877.98
466.555	2948.03
466.928	3010.85
467.3	2961.81
467.672	3024.86
468.045	3121.36
468.417	3106.67
468.789	3151.41
469.161	3132.88
469.534	3214.92
469.906	3214.46
470.278	3285.2
470.65	3307.57
471.022	3427.57
471.394	3442.48
471.766	3417.4
472.138	3487.9
472.51	3554.79
472.882	3642.02
473.253	3665.53
473.625	3716.6
473.997	3808.8
474.369	3830.04
474.74	3866.42
475.112	3972.41
475.484	3986.65
475.855	4065.06
476.227	4110.94
476.598	4243.36
476.97	4274.77
477.341	4313.42
477.713	4420.99
478.084	4492.85
478.455	4615.56
478.827	4650.36
479.198	4743.24
479.569	4834.31
479.94	4992.04
480.311	5016.68
480.682	5140.51
481.053	5266.39
481.424	5321.53
481.795	5381.64
482.166	5516.32
482.537	5586.38
482.908	5714.51
483.279	5783.44
483.65	5931
484.021	6102.3
484.391	6153.82
484.762	6303.2
485.133	6306.36
485.503	6440.14
485.874	6612.79
486.244	6728.27
486.615	6902.28
486.985	7006.68
487.356	7163.74
487.726	7243.74
488.097	7493.67
488.467	7498.64
488.837	7713.1
489.207	7892.31
489.578	8101.79
489.948	8216.59
490.318	8371.39
490.688	8529.13
491.058	8648.67
491.428	8849.12
491.798	8979.06
492.168	9253.63
492.538	9431.48
492.908	9615.43
493.278	9833.72
493.648	9896.55
494.017	10118.69
494.387	10294.73
494.757	10419.02
495.126	10690.2
495.496	10870.99
495.866	11030.98
496.235	11275.04
496.605	11458.77
496.974	11660.57
497.344	11987.11
497.713	12068.69
498.082	12389.82
498.452	12549.36
498.821	12785.51
499.19	12938.5
499.559	13112.51
499.928	13449.45
500.298	13623
500.667	13840.4
501.036	13988.42
501.405	14330.33
501.774	14506.37
502.143	14744.33
502.512	14989.52
502.88	15295.05
503.249	15410.08
503.618	15723.06
503.987	15986.56
504.356	16180.45
504.724	16447.34
505.093	16594
505.462	16907.44
505.83	17171.38
506.199	17508.1
506.567	17793.06
506.936	17996.45
507.304	18209.78
507.672	18482.31
508.041	18726.37
508.409	18967.95
508.777	19202.52
509.145	19544.2
509.514	19594.6
509.882	20006.56
510.25	20139.44
510.618	20332.88
510.986	20619.2
511.354	20786.43
511.722	21123.6
512.09	21397.04
512.458	21466.86
512.826	21692.4
513.193	21980.98
513.561	22204.02
513.929	22310.46
514.297	22566.05
514.664	22869.31
515.032	23046.48
515.4	23254.39
515.767	23573.7
516.135	23696.18
516.502	23708.16
516.869	24161.48
517.237	24319.22
517.604	24184.08
517.972	24603.73
518.339	24626.33
518.706	24932.54
519.073	25083.49
519.44	25188.35
519.808	25515.57
520.175	25475.12
520.542	25822.91
520.909	25955.79
521.276	26051.38
521.643	26430.58
522.009	26520.29
522.376	26685.71
522.743	26832.83
523.11	27269.65
523.477	27417.22
523.843	27572.92
524.21	27860.82
524.577	28024.21
524.943	28140.59
525.31	28238.66
525.676	28650.63
526.043	28786.9
526.409	28942.37
526.776	29174.46
527.142	29247
527.508	29392.08
527.874	29608.8
528.241	29735.12
528.607	29789.13
528.973	30122.23
529.339	30041.78
529.705	30326.29
530.071	30409.68
530.437	30639.51
530.803	30732.84
531.169	30721.54
531.535	30869.1
531.901	30922.89
532.267	31167.63
532.632	31252.6
532.998	31280.62
533.364	31437
533.73	31443.78
534.095	31724.9
534.461	31570.33
534.826	31730.78
535.192	31813.94
535.557	31878.12
535.923	31972.13
536.288	32054.84
536.653	32105.68
537.019	32180.48
537.384	32016.64
537.749	32187.49
538.114	32230.65
538.479	32211.89
538.845	32277.43
539.21	32232.91
539.575	32240.59
539.94	32122.4
540.305	32365.79
540.67	32315.39
541.034	32194.72
541.399	32280.37
541.764	32267.26
542.129	32311.1
542.494	32406.46
542.858	32430.42
543.223	32301.16
543.587	32426.8
543.952	32364.88
544.316	32389.29
544.681	32310.87
545.045	32507.7
545.41	32481.72
545.774	32472.45
546.138	32387.48
546.503	32478.33
546.867	32321.95
547.231	32454.82
547.595	32480.36
547.959	32522.17
548.324	32486.91
548.688	32493.47
549.052	32496.41
549.416	32475.62
549.779	32395.84
550.143	32355.17
550.507	32540.7
550.871	32484.65
551.235	32407.82
551.599	32691.2
551.962	32590.87
552.326	32634.25
552.689	32584.31
553.053	32277.65
553.417	32389.06
553.78	32799.9
554.143	32608.04
554.507	32805.78
554.87	32715.16
555.234	32857.53
555.597	32600.13
555.96	32721.94
556.323	32740.01
556.686	32786.12
557.05	32912.21
557.413	32960.57
557.776	32844.87
558.139	33017.75
558.502	33030.18
558.865	32875.83
559.228	33117.18
559.59	33138.65
559.953	33137.74
560.316	33381.81
560.679	33203.51
561.041	33332.99
561.404	33392.43
561.767	33539.99
562.129	33378.64
562.492	33728.46
562.854	33721.01
563.217	33730.72
563.579	33806.65
563.941	33828.8
564.304	34074.67
564.666	34150.83
565.028	34030.38
565.39	34123.03
565.753	34355.79
566.115	34317.6
566.477	34402.34
566.839	34465.39
567.201	34751.26
567.563	34611.6
567.925	34701.77
568.287	34834.2
568.648	34782.22
569.01	34981.31
569.372	35076
569.734	35064.25
570.095	35219.95
570.457	35417.23
570.819	35420.85
571.18	35192.83
571.542	35447.74
571.903	35457.46
572.265	35440.51
572.626	35734.06
572.987	35665.14
573.349	35793.95
573.71	35858.8
574.071	35889.99
574.432	36109.87
574.794	36189.64
575.155	36159.36
575.516	36113.94
575.877	36191.22
576.238	36251.11
576.599	36238.45
576.96	36174.27
577.32	36432.12
577.681	36373.82
578.042	36560.93
578.403	36329.98
578.763	36347.6
579.124	36479.58
579.485	36624.88
579.845	36540.14
580.206	36328.62
580.566	36435.06
580.927	36393.93
581.287	36519.35
581.648	36406.81
582.008	36447.26
582.368	36331.33
582.728	36461.95
583.089	36355.74
583.449	36335.85
583.809	36396.64
584.169	36474.15
584.529	36240.71
584.889	36507.37
585.249	36245.23
585.609	36038.69
585.969	36243.88
586.329	35995.07
586.688	36202.52
587.048	36077.33
587.408	36151.22
587.768	36103.99
588.127	36003.21
588.487	36123.88
588.846	36130.43
589.206	35832.36
589.565	35901.29
589.925	36007.27
590.284	35975.64
590.643	35878.01
591.003	35881.85
591.362	35975.18
591.721	35894.06
592.08	35921.85
592.44	35911.68
592.799	35790.78
593.158	35908.07
593.517	35700.39
593.876	35745.59
594.235	35657.23
594.593	35629.2
594.952	35655.42
595.311	35586.72
595.67	35521.86
596.029	35761.86
596.387	35722.76
596.746	35911.68
597.104	35595.53
597.463	35646.83
597.822	35833.49
598.18	35616.32
598.538	35559.15
598.897	35751.24
599.255	35499.72
599.613	35841.18
599.972	35592.14
600.33	35701.07
600.688	35703.78
601.046	35637.79
601.404	35819.93
601.762	35727.96
602.12	35769.09
602.478	35815.41
602.836	35777
603.194	35563.44
603.552	35558.25
603.91	35605.25
604.268	35803.44
604.625	35710.11
604.983	36024.9
605.341	35656.1
605.698	35903.32
606.056	35934.96
606.413	35865.36
606.771	35981.96
607.128	36122.52
607.485	35985.58
607.843	35940.38
608.2	36056.76
608.557	36250.88
608.914	36160.94
609.272	36222.41
609.629	36350.09
609.986	36483.87
610.343	36340.37
610.7	36447.71
611.057	36375.17
611.414	36341.28
611.771	36550.99
612.127	36675.73
612.484	36588.5
612.841	36778.55
613.198	36720.48
613.554	36595.51
613.911	36997.08
614.267	36847.03
614.624	36851.55
614.98	36914.82
615.337	37129.05
615.693	37048.6
616.05	37034.82
616.406	37130.41
616.762	37123.18
617.118	37107.58
617.475	37113.46
617.831	37307.35
618.187	37382.15
618.543	37300.8
618.899	37492.21
619.255	37380.34
619.611	37542.37
619.967	37660.11
620.323	37671.86
620.678	37533.79
621.034	37551.64
621.39	37465.09
621.746	37597.51
622.101	37872.54
622.457	37594.8
622.812	37774.91
623.168	37690.85
623.523	37800.22
623.879	37871.41
624.234	37650.62
624.589	37759.54
624.945	37906.88
625.3	37823.05
625.655	37834.34
626.01	37865.98
626.365	37830.73
626.72	37806.1
627.075	37702.6
627.43	37804.51
627.785	37828.92
628.14	37831.86
628.495	37678.64
628.85	37747.34
629.205	37751.63
629.559	37774.91
629.914	37711.18
630.269	37860.33
630.623	37494.92
630.978	37491.98
631.332	37687
631.687	37682.48
632.041	37594.12
632.396	37523.62
632.75	37536.5
633.104	37548.7
633.459	37239.56
633.813	37431.19
634.167	37409.72
634.521	37394.13
634.875	37394.58
635.229	37207.69
635.583	37081.37
635.937	37199.56
636.291	37199.33
636.645	37246.34
636.999	36873.92
637.352	37054.93
637.706	36839.34
638.06	36958.44
638.413	36888.38
638.767	36861.04
639.121	36790.3
639.474	36475.06
639.828	36648.61
640.181	36607.26
640.534	36699.68
640.888	36487.94
641.241	36364.1
641.594	36506.24
641.947	36445
642.301	36331.78
642.654	36486.36
643.007	36278
643.36	36391.9
643.713	36312.58
644.066	36487.03
644.419	36187.61
644.771	35926.15
645.124	35486.38
645.477	35513.5
645.83	35360.96
646.182	35562.77
646.535	35332.94
646.888	35523.67
647.24	35384.24
647.593	35732.48
647.945	35431.47
648.298	35374.07
648.65	35215.66
649.002	34917.13
649.355	34996.23
649.707	34835.78
650.059	34893.4
650.411	35415.2
650.763	35520.28
651.115	36129.76
651.467	35823.55
651.819	35880.95
652.171	35795.75
652.523	35707.62
652.875	35739.71
653.227	35692.03
653.578	35920.27
653.93	35816.09
654.282	35704.23
654.633	35527.29
654.985	35832.36
655.337	35772.25
655.688	35738.35
656.039	35805.47
656.391	35456.1
656.742	35687.73
657.094	35806.6
657.445	35616.55
657.796	35795.53
658.147	35604.12
658.498	35701.97
658.849	35942.87
659.2	35739.48
659.551	35615.42
659.902	35983.77
660.253	35715.08
660.604	36038.69
660.955	35886.82
661.306	35963.66
661.656	35893.38
662.007	35812.93
662.358	35973.15
662.708	36032.13
663.059	36008.86
663.409	35775.42
663.76	36040.95
664.11	36163.43
664.461	36126.59
664.811	36048.18
665.161	36106.71
665.511	35949.65
665.862	36071
666.212	36173.6
666.562	36179.92
666.912	36130.43
667.262	35970.44
667.612	36084.79
667.962	36152.35
668.312	36058.12
668.662	36194.16
669.011	36191.22
669.361	36097.89
669.711	36126.82
670.06	36134.28
670.41	35948.07
670.76	35978.57
671.109	36147.16
671.459	36107.38
671.808	36006.37
672.157	36075.07
672.507	35892.47
672.856	35818.13
673.205	35808.63
673.554	35959.14
673.904	35840.95
674.253	36111.9
674.602	35832.14
674.951	35446.61
675.3	35090.46
675.649	35795.08
675.998	35741.52
676.346	35733.38
676.695	35772.25
677.044	35549.88
677.393	35668.75
677.741	35741.97
678.09	35550.56
678.438	35510.11
678.787	35540.62
679.135	35674.85
679.484	35221.98
679.832	35531.58
680.181	35347.63
680.529	35294.75
680.877	35119.84
681.225	35153.28
681.573	35438.93
681.922	35017.02
682.27	35075.77
682.618	35023.57
682.966	34949.67
683.314	34873.74
683.661	34803.92
684.009	34707.65
684.357	34623.58
684.705	34599.85
685.053	34486.41
685.4	34471.49
685.748	34304.49
686.095	34264.95
686.443	34194.21
686.79	34205.29
687.138	34189.24
687.485	34088.23
687.832	33957.61
688.18	33948.12
688.527	33852.3
688.874	33761
689.221	33537.28
689.568	33536.15
689.915	33361.24
690.262	33391.75
690.609	33257.06
690.956	33075.83
691.303	33196.95
691.65	32955.38
691.997	32885.77
692.344	32606.46
692.69	32500.7
693.037	32530.53
693.383	32292.79
693.73	32399.23
694.077	32169.41
694.423	32168.05
694.769	32060.94
695.116	31882.41
695.462	31662.08
695.808	31713.38
696.155	31768.74
696.501	31402.2
696.847	31493.49
697.193	31204.46
697.539	31175.54
697.885	30943.45
698.231	30895.32
698.577	30793.63
698.923	30648.77
699.269	30419.85
699.614	30449.68
699.96	30259.4
700.306	30181.89
700.651	30005.17
700.997	29920.2
701.342	29806.53
701.688	29631.85
702.033	29701.45
702.379	29507.78
702.724	29361.57
703.069	29460.78
703.415	29159.54
703.76	29074.8
704.105	28977.85
704.45	28938.76
704.795	28872.32
705.14	28610.63
705.485	28591.88
705.83	28416.51
706.175	28565.21
706.52	28323.41
706.865	28294.48
707.209	28117.31
707.554	28080.02
707.899	28043.87
708.243	27861.27
708.588	27802.52
708.932	27736.53
709.277	27853.36
709.621	27546.48
709.966	27393.71
710.31	27433.49
710.654	27261.51
710.998	27243.89
711.342	27428.29
711.687	27137.22
712.031	27014.29
712.375	26946.72
712.719	26968.64
713.063	26925.7
713.407	27083.89
713.75	26806.84
714.094	26873.5
714.438	26722.55
714.782	26767.74
715.125	26537.92
715.469	26717.35
715.812	26419.96
716.156	26559.39
716.499	26360.52
716.843	26457.47
717.186	26295.66
717.53	26437.58
717.873	26510.12
718.216	26441.2
718.559	26201.2
718.902	26133.86
719.246	26182.9
719.589	26008.89
719.932	25931.83
720.275	26001.21
720.617	26106.06
720.96	25954.43
721.303	26083.01
721.646	26005.05
721.989	25858.16
722.331	26014.09
722.674	25972.51
723.016	25906.52
723.359	25925.5
723.701	25977.48
724.044	25903.36
724.386	25769.8
724.729	25840.99
725.071	25886.64
725.413	25844.15
725.755	25871.49
726.097	25810.93
726.439	25737.04
726.782	25806.64
727.124	25837.82
727.465	25784.27
727.807	25699.75
728.149	25768.45
728.491	25850.25
728.833	25818.61
729.175	25719.86
729.516	25761.22
729.858	25788.56
730.199	25837.15
730.541	25876.92
730.882	25783.81
731.224	25909.01
731.565	25816.81
731.906	25809.8
732.248	25934.77
732.589	25708.79
732.93	25686.87
733.271	25815.68
733.612	25875.79
733.953	25981.32
734.294	25848.22
734.635	25888.44
734.976	26026.29
735.317	25966.18
735.658	26052.96
735.999	25981.32
736.339	26022
736.68	26198.04
737.021	26016.58
737.361	26083.24
737.702	26348.54
738.042	26164.82
738.383	26211.6
738.723	26420.18
739.063	26361.43
739.404	26446.62
739.744	26426.51
740.084	26432.84
740.424	26568.43
740.764	26683.9
741.104	26866.05
741.444	26761.19
741.784	26787.18
742.124	26921.41
742.464	26961.41
742.804	26878.02
743.143	26997.34
743.483	27287.73
743.823	27241.63
744.162	27257.67
744.502	27399.59
744.841	27468.97
745.181	27731.78
745.52	27835.74
745.86	27805.46
746.199	27921.84
746.538	28046.35
746.877	28399.34
747.216	28408.38
747.556	28421.48
747.895	28698.31
748.234	28732.21
748.573	28897.63
748.911	29127.23
749.25	29174.23
749.589	29318.86
749.928	29559.08
750.267	29741.22
750.605	29811.28
750.944	29988.45
751.283	30115.23
751.621	30409.23
751.96	30352.96
752.298	30607.19
752.636	30925.37
752.975	30978.71
753.313	31070.23
753.651	31525.36
753.989	31494.4
754.327	31659.37
754.666	31735.52
755.004	32123.08
