Data from 15-6437_FLMS001491_007.txt Node
Date: Thu Apr 19 15:40:15 BST 2018
User: hsy
Spectrometer: FLMS00149
Trigger mode: 0
Integration Time (sec): 1.000000E-2
Scans to average: 10
Electric dark correction enabled: true
Nonlinearity correction enabled: false
Boxcar width: 0
XAxis mode: Wavelengths
Number of Pixels in Spectrum: 2048
>>>>>Begin Spectral Data<<<<<
341.393	-0.65
341.776	-0.65
342.16	-0.65
342.543	-44.26
342.927	-40.65
343.31	-70.25
343.693	-61.44
344.077	-73.64
344.46	-54.21
344.843	-70.48
345.226	-42.68
345.61	-27.09
345.993	-25.73
346.376	20.37
346.759	1.61
347.142	24.66
347.525	47.48
347.908	68.73
348.291	66.92
348.674	88.16
349.057	107.6
349.44	140.82
349.823	134.71
350.206	171.32
350.588	236.18
350.971	263.98
351.354	259.91
351.737	263.98
352.119	270.98
352.502	284.09
352.884	276.63
353.267	334.71
353.65	358.89
354.032	333.8
354.414	334.26
354.797	370.19
355.179	364.31
355.562	346.23
355.944	356.86
356.326	353.92
356.709	365.22
357.091	362.28
357.473	372.67
357.855	375.16
358.238	367.7
358.62	384.88
359.002	399.79
359.384	379.91
359.766	376.29
360.148	383.3
360.53	386.46
360.912	390.98
361.294	379.91
361.676	373.13
362.057	381.94
362.439	365.22
362.821	380.81
363.203	357.76
363.584	363.86
363.966	348.49
364.348	390.98
364.729	380.81
365.111	358.21
365.493	392.56
365.874	372.45
366.256	351.88
366.637	341.49
367.019	389.85
367.4	383.3
367.781	352.34
368.163	356.86
368.544	364.76
368.925	361.6
369.306	357.98
369.688	373.8
370.069	381.04
370.45	370.87
370.831	359.34
371.212	374.48
371.593	378.32
371.974	373.58
372.355	357.08
372.736	386.01
373.117	362.05
373.498	382.39
373.879	366.12
374.26	371.54
374.641	376.74
375.021	374.48
375.402	377.42
375.783	381.49
376.163	416.06
376.544	411.09
376.925	389.4
377.305	387.81
377.686	395.95
378.066	395.27
378.447	411.09
378.827	391.88
379.208	402.05
379.588	404.54
379.968	396.85
380.349	411.77
380.729	422.16
381.109	415.61
381.489	422.16
381.87	423.29
382.25	413.35
382.63	418.32
383.01	437.08
383.39	412.67
383.77	433.24
384.15	442.5
384.53	421.94
384.91	455.61
385.29	451.09
385.67	436.63
386.049	434.37
386.429	459
386.809	457.42
387.189	461.71
387.568	460.36
387.948	447.02
388.328	454.48
388.707	467.81
389.087	474.37
389.466	470.52
389.846	479.79
390.225	509.85
390.605	482.05
390.984	488.15
391.363	474.14
391.743	495.83
392.122	509.17
392.501	491.54
392.881	518.88
393.26	489.96
393.639	500.58
394.018	521.6
394.397	515.49
394.776	512.56
395.155	523.63
395.534	516.17
395.913	510.52
396.292	527.25
396.671	534.03
397.05	526.57
397.429	536.51
397.808	533.8
398.186	533.35
398.565	563.63
398.944	561.82
399.323	549.62
399.701	560.24
400.08	571.76
400.458	570.86
400.837	571.76
401.215	592.78
401.594	564.99
401.972	566.57
402.351	573.8
402.729	590.3
403.107	617.41
403.486	601.59
403.864	594.81
404.242	616.06
404.62	591.88
404.999	627.81
405.377	621.03
405.755	624.19
406.133	643.18
406.511	655.6
406.889	655.15
407.267	666.45
407.645	660.12
408.023	677.98
408.401	678.65
408.779	684.98
409.156	696.51
409.534	698.77
409.912	707.58
410.29	700.12
410.667	734.25
411.045	741.03
411.422	736.73
411.8	727.24
412.178	769.95
412.555	755.49
412.933	757.97
413.31	761.36
413.687	782.61
414.065	781.93
414.442	781.25
414.819	811.76
415.197	808.14
415.574	827.13
415.951	821.48
416.328	846.11
416.705	838.65
417.082	850.4
417.46	859.89
417.837	859.21
418.214	832.32
418.591	858.54
418.967	874.13
419.344	896.05
419.721	870.29
420.098	885.88
420.475	882.49
420.852	910.29
421.228	929.5
421.605	922.26
421.982	918.65
422.358	928.14
422.735	949.83
423.111	931.98
423.488	964.75
423.864	956.84
424.241	982.6
424.617	966.56
424.994	1000.68
425.37	1010.85
425.746	1018.31
426.123	1016.5
426.499	1023.96
426.875	1078.19
427.251	1061.02
427.627	1068.25
428.003	1103.5
428.379	1083.62
428.756	1093.11
429.132	1085.65
429.507	1139.43
429.883	1118.42
430.259	1143.05
430.635	1154.57
431.011	1152.31
431.387	1192.31
431.763	1183.5
432.138	1195.48
432.514	1216.95
432.89	1214.69
433.265	1261.69
433.641	1274.12
434.016	1271.41
434.392	1307.79
434.767	1286.55
435.143	1306.21
435.518	1311.18
435.894	1320.45
436.269	1354.34
436.644	1390.05
437.02	1409.93
437.395	1384.85
437.77	1375.36
438.145	1428.01
438.52	1417.17
438.895	1436.37
439.271	1442.93
439.646	1488.12
440.021	1485.41
440.395	1510.5
440.77	1461.23
441.145	1503.94
441.52	1538.97
441.895	1544.85
442.27	1552.08
442.645	1541
443.019	1557.05
443.394	1551.85
443.769	1563.38
444.143	1573.09
444.518	1585.98
444.892	1602.25
445.267	1630.95
445.641	1615.8
446.016	1636.6
446.39	1641.79
446.764	1653.32
447.139	1647.22
447.513	1663.49
447.887	1706.88
448.262	1703.94
448.636	1731.96
449.01	1706.65
449.384	1743.03
449.758	1726.76
450.132	1761.11
450.506	1770.83
450.88	1799.3
451.254	1794.11
451.628	1837.27
452.002	1859.87
452.376	1848.12
452.75	1898.74
453.123	1897.61
453.497	1914.33
453.871	1945.97
454.244	1980.77
454.618	1996.59
454.992	2016.92
455.365	2028.45
455.739	2079.3
456.112	2069.13
456.486	2092.63
456.859	2138.28
457.232	2188.45
457.606	2243.13
457.979	2216.92
458.352	2265.73
458.725	2269.35
459.099	2296.47
459.472	2327.42
459.845	2380.76
460.218	2386.63
460.591	2403.58
460.964	2448.55
461.337	2489
461.71	2486.74
462.083	2568.1
462.456	2548.44
462.829	2583.24
463.201	2625.27
463.574	2637.25
463.947	2676.79
464.32	2732.16
464.692	2719.28
465.065	2753.4
465.438	2774.87
465.81	2807.41
466.183	2835.43
466.555	2900.52
466.928	2904.58
467.3	2898.71
467.672	2975.32
468.045	3035.88
468.417	3083.34
468.789	3079.27
469.161	3093.96
469.534	3156.56
469.906	3164.92
470.278	3243.78
470.65	3280.85
471.022	3372.14
471.394	3409.66
471.766	3455.3
472.138	3461.41
472.51	3536.21
472.882	3557
473.253	3619.37
473.625	3698.01
473.997	3743.88
474.369	3791.57
474.74	3818.46
475.112	3882.19
475.484	3986.14
475.855	4054.16
476.227	4071.33
476.598	4182.97
476.97	4203.99
477.341	4313.14
477.713	4389.74
478.084	4416.18
478.455	4548.16
478.827	4624.31
479.198	4688.27
479.569	4782.95
479.94	4937.53
480.311	5003.29
480.682	5064.98
481.053	5229.95
481.424	5274.92
481.795	5321.24
482.166	5486.89
482.537	5529.6
482.908	5629.26
483.279	5705.87
483.65	5860.67
484.021	6003.94
484.391	6105.63
484.762	6241.67
485.133	6232.18
485.503	6396.02
485.874	6551.72
486.244	6643.02
486.615	6866.51
486.985	6972.27
487.356	7078.94
487.726	7214.75
488.097	7407.52
488.467	7483
488.837	7666.04
489.207	7762.76
489.578	7923.66
489.948	8154.62
490.318	8306.25
490.688	8395.74
491.058	8595.06
491.428	8752.79
491.798	8880.7
492.168	9153.01
492.538	9284.3
492.908	9429.16
493.278	9660.57
493.648	9804.52
494.017	9972.87
494.387	10209.7
494.757	10352.07
495.126	10565.63
495.496	10698.96
495.866	10907.76
496.235	11076.12
496.605	11402.89
496.974	11589.78
497.344	11760.4
497.713	11963.78
498.082	12239.93
498.452	12298.91
498.821	12618.45
499.19	12748.62
499.559	13061.15
499.928	13227.93
500.298	13460.01
500.667	13743.62
501.036	13780
501.405	14097.96
501.774	14312.19
502.143	14551.28
502.512	14834.21
502.88	15165.73
503.249	15202.34
503.618	15493.41
503.987	15684.14
504.356	15924.13
504.724	16311.01
505.093	16435.08
505.462	16675.97
505.83	16903.76
506.199	17201.38
506.567	17577.87
506.936	17699.45
507.304	17927.24
507.672	18183.5
508.041	18501.69
508.409	18758.18
508.777	18989.59
509.145	19313.42
509.514	19442.68
509.882	19666.18
510.25	19906.85
510.618	20157.46
510.986	20253.51
511.354	20521.97
511.722	20856.43
512.09	21166.25
512.458	21166.25
512.826	21568.95
513.193	21626.58
513.561	21902.73
513.929	22165.77
514.297	22413.9
514.664	22521.47
515.032	22768.7
515.4	22959.2
515.767	23154.45
516.135	23440.09
516.502	23258.63
516.869	23801.89
517.237	23901.55
517.604	23927.99
517.972	24316.45
518.339	24403.68
518.706	24714.86
519.073	24727.97
519.44	24930.22
519.808	25266.26
520.175	25329.08
520.542	25569.53
520.909	25790.54
521.276	25827.15
521.643	26304.87
522.009	26251.09
522.376	26533.79
522.743	26626.9
523.11	26897.63
523.477	27041.58
523.843	27286.99
524.21	27683.82
524.577	27705.51
524.943	27904.83
525.31	28032.06
525.676	28328.55
526.043	28425.04
526.409	28542.33
526.776	28886.73
527.142	28858.03
527.508	29174.63
527.874	29227.06
528.241	29397.45
528.607	29497.11
528.973	29663.66
529.339	29691.22
529.705	29904.1
530.071	30110.65
530.437	30141.61
530.803	30474.26
531.169	30639.22
531.535	30546.12
531.901	30607.13
532.267	30746.34
532.632	30852.32
532.998	30957.63
533.364	30973.23
533.73	31055.48
534.095	31274.46
534.461	31146.55
534.826	31475.13
535.192	31454.79
535.557	31591.74
535.923	31495.92
536.288	31625.86
536.653	31749.25
537.019	31671.74
537.384	31716.48
537.749	31761.45
538.114	31827.21
538.479	31828.8
538.845	31769.59
539.21	31708.12
539.575	31827.67
539.94	31758.06
540.305	31912.18
540.67	31938.17
541.034	31920.54
541.399	31994.89
541.764	31952.63
542.129	32073.08
542.494	31985.18
542.858	32105.4
543.223	31808.23
543.587	32125.51
543.952	32044.16
544.316	31932.3
544.681	31869.02
545.045	32101.11
545.41	32072.41
545.774	31999.86
546.138	31851.17
546.503	31989.7
546.867	31878.29
547.231	32148.34
547.595	32070.6
547.959	31997.38
548.324	31972.97
548.688	32043.03
549.052	32047.55
549.416	32005.29
549.779	32012.07
550.143	32054.78
550.507	32075.57
550.871	32083.93
551.235	32027.43
551.599	32326.41
551.962	32202.57
552.326	32206.64
552.689	32243.7
553.053	32068.56
553.417	32019.75
553.78	32221.55
554.143	32262.46
554.507	32144.04
554.87	32206.41
555.234	32478.27
555.597	32210.03
555.96	32288.9
556.323	32236.24
556.686	32252.97
557.05	32393.98
557.413	32309.69
557.776	32426.75
558.139	32457.25
558.502	32485.5
558.865	32387.2
559.228	32642.79
559.59	32676.91
559.953	32595.33
560.316	32900.86
560.679	32787.19
561.041	32871.48
561.404	32901.76
561.767	33141.53
562.129	33034.87
562.492	33195.31
562.854	33257.01
563.217	33219.95
563.579	33214.3
563.941	33346.04
564.304	33445.48
564.666	33609.77
565.028	33524.57
565.39	33744.68
565.753	33751.91
566.115	33720.05
566.477	33824
566.839	33916.88
567.201	34222.86
567.563	34068.74
567.925	34195.29
568.287	34332.01
568.648	34309.86
569.01	34436.86
569.372	34574.26
569.734	34530.87
570.095	34662.62
570.457	34842.05
570.819	34836.17
571.18	34841.15
571.542	34965.66
571.903	35013.57
572.265	35075.04
572.626	35264.41
572.987	35233.68
573.349	35249.04
573.71	35483.39
574.071	35465.76
574.432	35535.37
574.794	35614.69
575.155	35548.92
575.516	35614.01
575.877	35755.7
576.238	35618.07
576.599	35624.4
576.96	35764.51
577.32	35735.36
577.681	35793.21
578.042	35915.02
578.403	35803.83
578.763	35844.51
579.124	35873.66
579.485	36010.83
579.845	36032.08
580.206	35826.88
580.566	35924.28
580.927	35864.17
581.287	35862.36
581.648	35865.75
582.008	35926.32
582.368	35921.8
582.728	35759.54
583.089	35790.05
583.449	35833.89
583.809	35901.23
584.169	35923.83
584.529	35806.77
584.889	35897.39
585.249	35767.22
585.609	35580.56
585.969	35628.7
586.329	35582.37
586.688	35591.86
587.048	35506.89
587.408	35478.64
587.768	35574.01
588.127	35445.88
588.487	35425.09
588.846	35532.65
589.206	35301.7
589.565	35365.88
589.925	35410.62
590.284	35284.98
590.643	35258.99
591.003	35345.54
591.362	35484.29
591.721	35245.2
592.08	35163.62
592.44	35444.29
592.799	35214.92
593.158	35249.27
593.517	35263.28
593.876	35250.17
594.235	35183.51
594.593	35153.68
594.952	35156.17
595.311	35124.53
595.67	35091.08
596.029	35235.94
596.387	35225.32
596.746	35251.53
597.104	35054.7
597.463	35032.55
597.822	35206.11
598.18	34989.16
598.538	35137.18
598.897	35259.44
599.255	35045.66
599.613	35473.45
599.972	35010.18
600.33	35105.09
600.688	35075.94
601.046	35190.97
601.404	35298.99
601.762	35177.63
602.12	35333.34
602.478	35269.61
602.836	35348.48
603.194	35070.29
603.552	35151.19
603.91	35081.59
604.268	35216.05
604.625	35100.35
604.983	35363.84
605.341	35119.56
605.698	35256.5
606.056	35443.39
606.413	35337.4
606.771	35484.07
607.128	35350.74
607.485	35339.44
607.843	35435.93
608.2	35557.96
608.557	35672.76
608.914	35476.84
609.272	35645.87
609.629	35859.2
609.986	35791.86
610.343	35812.19
610.7	35857.84
611.057	35841.57
611.414	35789.6
611.771	35891.06
612.127	36056.48
612.484	36112.53
612.841	36096.71
613.198	35999.99
613.554	35977.84
613.911	36073.43
614.267	36326.53
614.624	36159.08
614.98	36235.23
615.337	36456.92
615.693	36488.56
616.05	36450.6
616.406	36575.79
616.762	36446.98
617.118	36454.66
617.475	36479.52
617.831	36764.03
618.187	36589.12
618.543	36706.63
618.899	36820.98
619.255	36764.94
619.611	36706.41
619.967	36879.96
620.323	36989.79
620.678	36728.78
621.034	36800.19
621.39	36925.39
621.746	36969.9
622.101	37323.79
622.457	36889.23
622.812	37035.66
623.168	37187.75
623.523	37190.69
623.879	37296.22
624.234	36925.39
624.589	37055.55
624.945	37077.7
625.3	37284.7
625.655	37166.96
626.01	37282.21
626.365	37286.28
626.72	37182.1
627.075	37153.18
627.43	37220.74
627.785	37132.61
628.14	37143.91
628.495	37188.2
628.85	37332.38
629.205	37058.04
629.559	37183.23
629.914	37133.06
630.269	37191.14
630.623	37039.05
630.978	36997.25
631.332	37122.44
631.687	37091.48
632.041	37022.78
632.396	36836.35
632.75	36898.04
633.104	36968.77
633.459	36791.38
633.813	36746.18
634.167	36746.63
634.521	36777.37
634.875	36657.14
635.229	36635.22
635.583	36437.49
635.937	36636.35
636.291	36444.04
636.645	36386.64
636.999	36180.55
637.352	36431.39
637.706	36113.65
638.06	36382.35
638.413	36297.6
638.767	36007.22
639.121	36201.34
639.474	36034.56
639.828	36015.35
640.181	36064.84
640.534	36108.23
640.888	35858.97
641.241	35697.17
641.594	35874.11
641.947	35934
642.301	35709.6
642.654	35742.59
643.007	35769.94
643.36	35902.14
643.713	35667.56
644.066	35914.34
644.419	35669.6
644.771	35228.93
645.124	34878.89
645.477	34866.23
645.83	34813.12
646.182	34689.06
646.535	34811.77
646.888	34833.91
647.24	34627.14
647.593	34968.83
647.945	34813.35
648.298	34736.52
648.65	34533.58
649.002	34453.36
649.355	34303.08
649.707	34178.79
650.059	34180.82
650.411	34778.55
650.763	34907.36
651.115	35484.07
651.467	35263.96
651.819	35397.06
652.171	35220.8
652.523	35254.69
652.875	35291.98
653.227	35045.43
653.578	35364.3
653.93	35147.35
654.282	35070.74
654.633	35141.93
654.985	35203.4
655.337	35083.4
655.688	35295.37
656.039	35372.43
656.391	35055.6
656.742	35137.64
657.094	35040.69
657.445	35240.91
657.796	35292.89
658.147	35155.04
658.498	35290.63
658.849	35323.39
659.2	35127.01
659.551	35221.25
659.902	35401.58
660.253	35209.5
660.604	35304.86
660.955	35149.61
661.306	35483.84
661.656	35316.39
662.007	35415.37
662.358	35491.3
662.708	35458.3
663.059	35450.17
663.409	35235.26
663.76	35386.89
664.11	35538.98
664.461	35543.27
664.811	35451.07
665.161	35522.48
665.511	35401.13
665.862	35571.3
666.212	35584.86
666.562	35737.85
666.912	35629.15
667.262	35438.19
667.612	35527.46
667.962	35524.52
668.312	35507.12
668.662	35654.68
669.011	35678.86
669.361	35482.49
669.711	35611.07
670.06	35432.32
670.41	35493.11
670.76	35550.96
671.109	35574.23
671.459	35562.71
671.808	35511.86
672.157	35525.42
672.507	35360.68
672.856	35213.11
673.205	35397.06
673.554	35355.71
673.904	35279.33
674.253	35526.1
674.602	35350.29
674.951	34882.73
675.3	34736.29
675.649	35197.29
675.998	35265.09
676.346	35278.2
676.695	35444.07
677.044	35173.79
677.393	35113.68
677.741	35154.81
678.09	35183.28
678.438	35065.09
678.787	35127.01
679.135	35017.19
679.484	34916.62
679.832	34967.47
680.181	34856.29
680.529	34802.05
680.877	34693.58
681.225	34706.69
681.573	34941.03
681.922	34679.34
682.27	34651.55
682.618	34604.32
682.966	34455.62
683.314	34400.93
683.661	34393.93
684.009	34152.12
684.357	34108.28
684.705	34039.59
685.053	34070.32
685.4	33840.27
685.748	33833.04
686.095	33831.91
686.443	33467.62
686.79	33637.56
687.138	33695.41
687.485	33550.11
687.832	33334.52
688.18	33410.22
688.527	33164.13
688.874	33166.84
689.221	33085.71
689.568	32909.45
689.915	32868.09
690.262	32817.92
690.609	32694.08
690.956	32533.41
691.303	32577.25
691.65	32410.48
691.997	32306.07
692.344	32051.39
692.69	31941.56
693.037	32102.01
693.383	31725.97
693.73	31860.43
694.077	31593.32
694.423	31615.02
694.769	31367.11
695.116	31363.27
695.462	31236.27
695.808	31010.96
696.155	31108.14
696.501	30737.98
696.847	30825.21
697.193	30508.15
697.539	30619.11
697.885	30228.39
698.231	30358.55
698.577	30246.01
698.923	30126.24
699.269	29887.6
699.614	29937.55
699.96	29740.72
700.306	29714.5
700.651	29553.15
700.997	29469.76
701.342	29333.95
701.688	29300.5
702.033	29089.43
702.379	29051.92
702.724	28947.29
703.069	29054.86
703.415	28587.98
703.76	28590.91
704.105	28590.46
704.45	28389.11
704.795	28345.5
705.14	28252.62
705.485	28256.91
705.83	27999.97
706.175	28097.82
706.52	27893.31
706.865	27802.01
707.209	27661.22
707.554	27728.34
707.899	27640.21
708.243	27443.37
708.588	27432.53
708.932	27307.56
709.277	27262.81
709.621	27109.82
709.966	27028.7
710.31	27002.26
710.654	26839.55
710.998	26908.7
711.342	26922.71
711.687	26790.74
712.031	26637.29
712.375	26515.72
712.719	26641.59
713.063	26470.29
713.407	26674.58
713.75	26398.43
714.094	26388.94
714.438	26251.32
714.782	26191.66
715.125	26103.52
715.469	26288.83
715.812	26179
716.156	26051.32
716.499	26061.94
716.843	26019.68
717.186	26026.69
717.53	26096.74
717.873	26067.14
718.216	25964.77
718.559	25843.42
718.902	25559.81
719.246	25738.79
719.589	25693.36
719.932	25661.73
720.275	25688.62
720.617	25716.41
720.96	25719.58
721.303	25782.63
721.646	25677.32
721.989	25548.28
722.331	25678.9
722.674	25536.08
723.016	25580.6
723.359	25515.52
723.701	25575.4
724.044	25572.92
724.386	25376.99
724.729	25462.86
725.071	25393.48
725.413	25465.35
725.755	25365.91
726.097	25424.9
726.439	25413.6
726.782	25310.78
727.124	25494.73
727.465	25509.41
727.807	25265.58
728.149	25496.98
728.491	25420.15
728.833	25518.23
729.175	25488.17
729.516	25486.14
729.858	25493.14
730.199	25571.33
730.541	25489.53
730.882	25525.23
731.224	25553.93
731.565	25481.17
731.906	25584.44
732.248	25738.33
732.589	25501.5
732.93	25490.43
733.271	25380.15
733.612	25543.31
733.953	25642.74
734.294	25665.12
734.635	25588.96
734.976	25663.76
735.317	25708.05
735.658	25542.63
735.999	25705.12
736.339	25716.64
736.68	25723.65
737.021	25915.96
737.361	25809.97
737.702	25976.52
738.042	25880.48
738.383	25966.58
738.723	26082.96
739.063	26088.83
739.404	26134.71
739.744	26124.77
740.084	26160.47
740.424	26303.74
740.764	26333.8
741.104	26418.32
741.444	26405.44
741.784	26318.88
742.124	26644.07
742.464	26592.78
742.804	26793.67
743.143	26844.97
743.483	26869.83
743.823	26919.77
744.162	26981.92
744.502	27260.33
744.841	27218.75
745.181	27354.79
745.52	27473.66
745.86	27606.53
746.199	27687.44
746.538	27813.31
746.877	28043.36
747.216	28120.42
747.556	28140.76
747.895	28323.13
748.234	28409.22
748.573	28670.01
748.911	28705.49
749.25	28820.29
749.589	29065.93
749.928	29202.88
750.267	29423.89
750.605	29407.62
750.944	29704.33
751.283	29772.13
751.621	30108.39
751.96	30104.77
752.298	30333.24
752.636	30548.6
752.975	30579.79
753.313	30941.36
753.651	31212.54
753.989	31252.54
754.327	31549.93
