Data from 152_FLMS001491_010.txt Node
Date: Thu Apr 19 16:17:55 BST 2018
User: hsy
Spectrometer: FLMS00149
Trigger mode: 0
Integration Time (sec): 1.000000E-2
Scans to average: 10
Electric dark correction enabled: true
Nonlinearity correction enabled: false
Boxcar width: 0
XAxis mode: Wavelengths
Number of Pixels in Spectrum: 2048
>>>>>Begin Spectral Data<<<<<
341.393	-27.94
341.776	-27.94
342.16	-27.94
342.543	-47.82
342.927	-53.25
343.31	-82.4
343.693	-63.42
344.077	-72.23
344.46	-66.13
344.843	-50.08
345.226	-41.04
345.61	-34.49
345.993	-23.42
346.376	-3.3
346.759	1.44
347.142	26.07
347.525	55.9
347.908	83.25
348.291	80.08
348.674	88.9
349.057	100.87
349.44	134.77
349.823	132.51
350.206	180.42
350.588	218.38
350.971	252.96
351.354	242.34
351.737	273.07
352.119	309.23
352.502	285.5
352.884	324.82
353.267	317.36
353.65	339.28
354.032	340.64
354.414	358.27
354.797	369.34
355.179	397.36
355.562	371.6
355.944	365.95
356.326	395.78
356.709	383.8
357.091	378.61
357.473	391.71
357.855	389.91
358.238	389.23
358.62	397.14
359.002	398.49
359.384	396.01
359.766	383.13
360.148	388.55
360.53	390.58
360.912	414.99
361.294	408.21
361.676	391.26
362.057	385.84
362.439	382.22
362.821	377.93
363.203	386.06
363.584	372.5
363.966	399.17
364.348	384.71
364.729	368.44
365.111	352.39
365.493	376.35
365.874	390.81
366.256	391.03
366.637	394.65
367.019	370.47
367.4	383.58
367.781	381.77
368.163	377.25
368.544	401.2
368.925	377.25
369.306	382
369.688	392.84
370.069	398.72
370.45	383.8
370.831	358.49
371.212	387.87
371.593	364.37
371.974	388.32
372.355	384.93
372.736	393.07
373.117	384.93
373.498	356.69
373.879	396.46
374.26	386.52
374.641	387.87
375.021	395.1
375.402	416.12
375.783	413.18
376.163	428.1
376.544	410.7
376.925	401.2
377.305	401.66
377.686	392.84
378.066	388.78
378.447	415.44
378.827	419.28
379.208	412.05
379.588	412.05
379.968	417.47
380.349	422.9
380.729	438.04
381.109	415.89
381.489	433.97
381.87	418.6
382.25	428.55
382.63	433.52
383.01	468.55
383.39	438.72
383.77	450.24
384.15	444.14
384.53	446.4
384.91	448.21
385.29	430.81
385.67	466.06
386.049	461.99
386.429	474.65
386.809	475.1
387.189	490.47
387.568	476
387.948	479.62
388.328	469.9
388.707	474.42
389.087	465.61
389.466	504.48
389.846	488.21
390.225	488.43
390.605	495.21
390.984	471.71
391.363	494.99
391.743	513.07
392.122	520.07
392.501	520.52
392.881	498.38
393.26	507.19
393.639	522.1
394.018	517.59
394.397	505.83
394.776	522.33
395.155	550.8
395.534	538.6
395.913	544.03
396.292	533.63
396.671	541.09
397.05	550.13
397.429	537.25
397.808	575.44
398.186	567.3
398.565	549.67
398.944	562.78
399.323	567.75
399.701	575.44
400.08	588.09
400.458	577.47
400.837	561.88
401.215	578.6
401.594	573.63
401.972	588.54
402.351	574.98
402.729	594.19
403.107	590.8
403.486	606.17
403.864	622.44
404.242	630.35
404.62	587.87
404.999	611.59
405.377	607.98
405.755	623.57
406.133	645.72
406.511	635.32
406.889	642.78
407.267	662.89
407.645	653.4
408.023	678.26
408.401	670.58
408.779	687.07
409.156	687.3
409.534	680.52
409.912	694.3
410.29	709.9
410.667	714.87
411.045	731.82
411.422	739.27
411.8	727.98
412.178	750.8
412.555	756.22
412.933	730.46
413.31	762.32
413.687	774.75
414.065	769.1
414.442	772.49
414.819	771.14
415.197	811.36
415.574	808.43
415.951	792.61
416.328	806.39
416.705	825.15
417.082	806.39
417.46	817.01
417.837	817.46
418.214	820.63
418.591	835.09
418.967	823.34
419.344	849.55
419.721	883.45
420.098	859.05
420.475	882.1
420.852	893.62
421.228	889.55
421.605	905.82
421.982	874.86
422.358	901.76
422.735	923.9
423.111	908.76
423.488	925.26
423.864	942.88
424.241	906.28
424.617	960.29
424.994	962.55
425.37	960.06
425.746	951.92
426.123	943.11
426.499	980.4
426.875	1003.22
427.251	984.69
427.627	1004.58
428.003	1040.74
428.379	1029.44
428.756	1038.02
429.132	1030.11
429.507	1052.71
429.883	1060.85
430.259	1101.98
430.635	1095.42
431.011	1127.51
431.387	1124.8
431.763	1131.58
432.138	1133.84
432.514	1169.32
432.89	1187.85
433.265	1184.23
433.641	1209.32
434.016	1195.08
434.392	1230.11
434.767	1235.53
435.143	1230.33
435.518	1250.45
435.894	1283.21
436.269	1282.99
436.644	1296.55
437.02	1277.11
437.395	1304.91
437.77	1326.6
438.145	1350.56
438.52	1353.04
438.895	1361.4
439.271	1325.7
439.646	1379.03
440.021	1367.05
440.395	1414.96
440.77	1363.66
441.145	1400.27
441.52	1421.97
441.895	1430.1
442.27	1440.72
442.645	1435.98
443.019	1433.95
443.394	1450.22
443.769	1459.71
444.143	1481.18
444.518	1478.46
444.892	1497.67
445.267	1468.07
445.641	1497.9
446.016	1515.07
446.39	1522.3
446.764	1529.99
447.139	1524.34
447.513	1535.19
447.887	1529.99
448.262	1577.9
448.636	1558.91
449.01	1590.78
449.384	1604.11
449.758	1608.18
450.132	1616.54
450.506	1617.67
450.88	1621.96
451.254	1656.99
451.628	1666.26
452.002	1717.55
452.376	1716.65
452.75	1743.77
453.123	1724.11
453.497	1780.6
453.871	1739.02
454.244	1807.49
454.618	1825.8
454.992	1814.05
455.365	1826.48
455.739	1878.91
456.112	1894.05
456.486	1884.78
456.859	1903.31
457.232	1970.65
457.606	1972.69
457.979	1979.02
458.352	2008.39
458.725	2045.45
459.099	2050.65
459.472	2069.18
459.845	2139.69
460.218	2124.77
460.591	2180.14
460.964	2171.78
461.337	2191.21
461.71	2248.16
462.083	2273.02
462.456	2254.49
462.829	2294.49
463.201	2302.17
463.574	2306.69
463.947	2327.71
464.32	2375.39
464.692	2412.45
465.065	2418.33
465.438	2436.63
465.81	2484.54
466.183	2484.09
466.555	2547.36
466.928	2563.41
467.3	2576.29
467.672	2578.1
468.045	2651.31
468.417	2647.02
468.789	2675.72
469.161	2730.63
469.534	2778.99
469.906	2792.78
470.278	2852.67
470.65	2833.23
471.022	2907.58
471.394	2916.17
471.766	2931.99
472.138	2961.36
472.51	3044.75
472.882	3075.03
473.253	3088.82
473.625	3185.54
473.997	3225.31
474.369	3259.66
474.74	3308.7
475.112	3320.22
475.484	3347.57
475.855	3444.74
476.227	3482.93
476.598	3541.23
476.97	3585.3
477.341	3634.79
477.713	3672.53
478.084	3773.32
478.455	3814.9
478.827	3904.39
479.198	3997.04
479.569	4004.95
479.94	4077.27
480.311	4115.91
480.682	4244.04
481.053	4315
481.424	4416.47
481.795	4383.25
482.166	4477.26
482.537	4530.36
482.908	4649.45
483.279	4721.09
483.65	4856
484.021	4929.9
484.391	4959.28
484.762	5040.4
485.133	5060.06
485.503	5182.1
485.874	5316.1
486.244	5366.05
486.615	5479.26
486.985	5561.29
487.356	5647.62
487.726	5800.61
488.097	5902.75
488.467	5924.22
488.837	6051.23
489.207	6207.61
489.578	6245.12
489.948	6380.71
490.318	6450.31
490.688	6570.08
491.058	6685.33
491.428	6700.93
491.798	6823.86
492.168	6999.22
492.538	7049.62
492.908	7191.53
493.278	7277.86
493.648	7347.46
494.017	7445.54
494.387	7539.1
494.757	7653.67
495.126	7709.71
495.496	7822.03
495.866	7968.01
496.235	8058.18
496.605	8225.63
496.974	8230.83
497.344	8327.1
497.713	8480.09
498.082	8577.71
498.452	8640.54
498.821	8659.97
499.19	8845.28
499.559	8883.47
499.928	9001.43
500.298	9079.62
500.667	9195.78
501.036	9280.29
501.405	9405.94
501.774	9393.51
502.143	9536.33
502.512	9651.13
502.88	9777.45
503.249	9865.14
503.618	9939.48
503.987	9996.21
504.356	10064.68
504.724	10212.02
505.093	10305.35
505.462	10358
505.83	10431.67
506.199	10566.59
506.567	10711.22
506.936	10843.42
507.304	10873.25
507.672	10923.19
508.041	11061.94
508.409	11129.74
508.777	11225.33
509.145	11347.36
509.514	11392.55
509.882	11482.27
510.25	11531.08
510.618	11606.11
510.986	11628.71
511.354	11858.3
511.722	11967.45
512.09	12094
512.458	12054.01
512.826	12216.94
513.193	12200.67
513.561	12382.81
513.929	12456.48
514.297	12586.19
514.664	12647.44
515.032	12723.59
515.4	12848.56
515.767	12896.24
516.135	12948.44
516.502	12974.21
516.869	13180.76
517.237	13323.12
517.604	13242.22
517.972	13466.4
518.339	13554.08
518.706	13549.11
519.073	13633.85
519.44	13677.69
519.808	13968.08
520.175	13919.72
520.542	14101.18
520.909	14200.62
521.276	14212.82
521.643	14443.09
522.009	14576.2
522.376	14722.64
522.743	14741.84
523.11	14908.39
523.477	14988.62
523.843	15030.65
524.21	15340.25
524.577	15422.73
524.943	15588.38
525.31	15663.18
525.676	15854.81
526.043	15940.23
526.409	16028.36
526.776	16220.45
527.142	16346.77
527.508	16429.48
527.874	16510.16
528.241	16682.13
528.607	16746.09
528.973	16942.46
529.339	17003.03
529.705	17167.09
530.071	17209.35
530.437	17337.71
530.803	17477.82
531.169	17652.73
531.535	17663.35
531.901	17685.27
532.267	17695.44
532.632	18010.91
532.998	18012.49
533.364	18150.12
533.73	18221.3
534.095	18333.16
534.461	18462.2
534.826	18601.4
535.192	18618.8
535.557	18766.6
535.923	18831.45
536.288	18847.27
536.653	19011.56
537.019	19010.66
537.384	19074.16
537.749	19203.65
538.114	19209.98
538.479	19328.39
538.845	19360.03
539.21	19377.88
539.575	19505.56
539.94	19651.77
540.305	19740.58
540.67	19786.91
541.034	19901.26
541.399	19913.01
541.764	19937.64
542.129	20108.03
542.494	19996.85
542.858	20186.9
543.223	20176.96
543.587	20227.8
543.952	20338.31
544.316	20404.97
544.681	20429.6
545.045	20602.48
545.41	20665.08
545.774	20658.75
546.138	20620.33
546.503	20728.58
546.867	20745.98
547.231	20992.08
547.595	20988.69
547.959	21044.05
548.324	20961.34
548.688	21098.29
549.052	21212.41
549.416	21120.43
549.779	21166.08
550.143	21246.98
550.507	21413.76
550.871	21513.64
551.235	21515.9
551.599	21718.16
551.962	21694.66
552.326	21814.2
552.689	21910.47
553.053	21812.84
553.417	21830.92
553.78	22229.33
554.143	22207.86
554.507	22115.21
554.87	22312.49
555.234	22477.23
555.597	22409.44
555.96	22477.69
556.323	22565.14
556.686	22634.97
557.05	22751.12
557.413	22857.11
557.776	22939.37
558.139	23064.34
558.502	23027.95
558.865	23086.26
559.228	23252.13
559.59	23299.36
559.953	23348.62
560.316	23665.68
560.679	23574.61
561.041	23766.24
561.404	23955.84
561.767	24167.58
562.129	24048.94
562.492	24222.05
562.854	24282.16
563.217	24235.15
563.579	24410.97
563.941	24633.56
564.304	24707.68
564.666	24895.02
565.028	24961.01
565.39	24901.8
565.753	25169.14
566.115	25291.4
566.477	25445.07
566.839	25566.19
567.201	25765.73
567.563	25758.05
567.925	26001.66
568.287	25909.23
568.648	26029
569.01	26263.12
569.372	26497.24
569.734	26409.56
570.095	26586.96
570.457	26894.97
570.819	26992.37
571.18	26886.38
571.542	27412.47
571.903	27334.51
572.265	27426.71
572.626	27631.67
572.987	27727.27
573.349	27892.23
573.71	28026.47
574.071	28208.83
574.432	28392.33
574.794	28638.88
575.155	28627.58
575.516	28635.72
575.877	28858.08
576.238	28982.37
576.599	29165.87
576.96	29144.63
577.32	29388.01
577.681	29533.55
578.042	29776.48
578.403	29823.71
578.763	29938.73
579.124	30178.73
579.485	30412.62
579.845	30602.44
580.206	30703.46
580.566	30779.61
580.927	30909.33
581.287	31102.77
581.648	31236.78
582.008	31622.3
582.368	31751.57
582.728	31965.57
583.089	32180.93
583.449	32416.41
583.809	32592.9
584.169	32902.95
584.529	32974.36
584.889	33617.51
585.249	33495.25
585.609	33729.82
585.969	34283.7
586.329	34285.06
586.688	34746.29
587.048	34904.25
587.408	35356.22
587.768	35613.61
588.127	35893.6
588.487	36224.89
588.846	36863.97
589.206	36996.17
589.565	37291.76
589.925	37860.33
590.284	38145.52
590.643	38499.41
591.003	39006.74
591.362	39575.77
591.721	39773.73
592.08	40162.64
592.44	40718.11
592.799	40971.89
593.158	41381.6
593.517	41859.78
593.876	42344.06
594.235	42730.71
594.593	43102.91
594.952	43556.68
595.311	43910.12
595.67	44477.79
596.029	44881.84
596.387	45275.5
596.746	45860.12
597.104	46033.68
597.463	46415.59
597.822	46939.42
598.18	47277.71
598.538	47522.23
598.897	48232.04
599.255	48207.18
599.613	49041.06
599.972	49135.97
600.33	49499.35
600.688	49727.82
601.046	50266.11
601.404	50705.42
601.762	50867.22
602.12	51241.45
602.478	51446.87
602.836	51780.64
603.194	51768.67
603.552	52172.5
603.91	52472.6
604.268	52840.05
604.625	52876.43
604.983	53388.96
605.341	53388.06
605.698	53738.56
606.056	54150.07
606.413	54078.21
606.771	54531.31
607.128	54691.08
607.485	54742.15
607.843	54943.95
608.2	55202.02
608.557	55530.38
608.914	55582.35
609.272	55893.76
609.629	56140.3
609.986	56343.69
610.343	56427.53
610.7	56684.92
611.057	56758.37
611.414	56899.38
611.771	57162.2
612.127	57315.64
612.484	57379.37
612.841	57594.95
613.198	57668.17
613.554	57804.21
613.911	58049.86
614.267	58173.24
614.624	58203.07
614.98	58390.64
615.337	58611.2
615.693	58633.8
616.05	58732.55
616.406	58932.55
616.762	59010.06
617.118	59079.21
617.475	59173.22
617.831	59363.5
618.187	59427.45
618.543	59430.61
618.899	59711.06
619.255	59676.48
619.611	59742.92
619.967	59912.41
620.323	60090.93
620.678	60010.71
621.034	60039.86
621.39	60164.15
621.746	60164.83
622.101	60486.18
622.457	60278.73
622.812	60486.86
623.168	60546.06
623.523	60589
623.879	60654.31
624.234	60595.33
624.589	60729.34
624.945	60802.78
625.3	60842.78
625.655	60870.57
626.01	60906.51
626.365	61001.87
626.72	60884.13
627.075	60903.57
627.43	61050
627.785	61029.89
628.14	60998.48
628.495	61096.78
628.85	61157.57
629.205	61118.7
629.559	61220.4
629.914	61145.14
630.269	61160.06
630.623	61104.01
630.978	61071.02
631.332	61217.91
631.687	61249.55
632.041	61214.52
632.396	61230.11
632.75	61205.26
633.104	61268.98
633.459	61082.77
633.813	61137.01
634.167	61132.71
634.521	61164.8
634.875	61142.43
635.229	61155.54
635.583	61010.01
635.937	61045.03
636.291	61105.82
636.645	61060.17
636.999	60927.97
637.352	61067.41
637.706	60949.44
638.06	61035.32
638.413	60929.56
638.767	60898.14
639.121	60958.26
639.474	60906.28
639.828	60831.48
640.181	60866.51
640.534	60988.09
640.888	60811.59
641.241	60693.4
641.594	60772.5
641.947	60899.27
642.301	60805.27
642.654	60814.98
643.007	60692.27
643.36	60798.03
643.713	60797.13
644.066	60799.62
644.419	60631.94
644.771	60405.95
645.124	60198.05
645.477	60189.01
645.83	60050.94
646.182	60065.17
646.535	60006.19
646.888	60052.74
647.24	59937.49
647.593	60097.94
647.945	59984.72
648.298	59879.87
648.65	59812.07
649.002	59765.07
649.355	59681.91
649.707	59629.93
650.059	59659.08
650.411	59997.83
650.763	60061.56
651.115	60411.83
651.467	60317.59
651.819	60232.17
652.171	60164.38
652.523	60073.08
652.875	60137.03
653.227	60022.24
653.578	60236.69
653.93	60095
654.282	59996.7
654.633	59990.15
654.985	60051.39
655.337	60041.67
655.688	60024.27
656.039	60076.25
656.391	59910.37
656.742	59884.39
657.094	59893.88
657.445	59974.78
657.796	59933.42
658.147	59866.76
658.498	59880.32
658.849	59967.77
659.2	59865.18
659.551	59818.62
659.902	59957.38
660.253	59772.75
660.604	59907.21
660.955	59744.05
661.306	59872.18
661.656	59779.08
662.007	59742.69
662.358	59725.07
662.708	59741.34
663.059	59710.15
663.409	59608.46
663.76	59708.12
664.11	59741.79
664.461	59787.89
664.811	59686.65
665.161	59758.06
665.511	59630.16
665.862	59694.56
666.212	59640.32
666.562	59704.96
666.912	59612.98
667.262	59556.94
667.612	59585.18
667.962	59619.31
668.312	59554.45
668.662	59696.82
669.011	59623.6
669.361	59574.11
669.711	59605.52
670.06	59524.4
670.41	59526.2
670.76	59451.4
671.109	59598.74
671.459	59539.76
671.808	59492.98
672.157	59568.46
672.507	59433.55
672.856	59446.88
673.205	59492.53
673.554	59532.98
673.904	59391.97
674.253	59547.45
674.602	59450.27
674.951	59170.05
675.3	58991.3
675.649	59409.37
675.998	59416.83
676.346	59429.26
676.695	59430.84
677.044	59238.75
677.393	59319.88
677.741	59410.05
678.09	59309.94
678.438	59263.84
678.787	59259.09
679.135	59276.04
679.484	59171.64
679.832	59328.02
680.181	59101.13
680.529	59251.63
680.877	59122.37
681.225	59091.19
681.573	59269.03
681.922	59106.33
682.27	59004.41
682.618	59020.23
682.966	58963.05
683.314	58985.65
683.661	58983.17
684.009	58910.85
684.357	58836.05
684.705	58743.17
685.053	58895.94
685.4	58770.74
685.748	58709.5
686.095	58706.11
686.443	58569.17
686.79	58618.43
687.138	58631.99
687.485	58531.88
687.832	58544.76
688.18	58575.49
688.527	58454.82
688.874	58445.78
689.221	58447.36
689.568	58334.37
689.915	58296.63
690.262	58318.55
690.609	58298.44
690.956	58195.16
691.303	58142.51
691.65	58060.03
691.997	58059.35
692.344	57883.99
692.69	57901.61
693.037	57913.59
693.383	57659.59
693.73	57808.51
694.077	57634.05
694.423	57673.14
694.769	57631.79
695.116	57587.27
695.462	57447.39
695.808	57389.99
696.155	57529.42
696.501	57320.39
696.847	57431.34
697.193	57185.93
697.539	57229.54
697.885	57033.39
698.231	56976.67
698.577	56939.6
698.923	56892.6
699.269	56713.17
699.614	56679.72
699.96	56622.55
700.306	56726.73
700.651	56602.44
700.997	56490.8
701.342	56432.73
701.688	56395.89
702.033	56216.23
702.379	56276.8
702.724	56058.72
703.069	56197.48
703.415	55933.3
703.76	55845.17
704.105	55995.22
704.45	55789.35
704.795	55825.74
705.14	55677.04
705.485	55681.78
705.83	55544.61
706.175	55655.12
706.52	55363.15
706.865	55372.87
707.209	55455.12
707.554	55340.1
707.899	55280.67
708.243	55165.87
708.588	55123.16
708.932	54978.53
709.277	54971.07
709.621	54890.39
709.966	54748.25
710.31	54756.39
710.654	54700.57
710.998	54679.1
711.342	54630.06
711.687	54472.78
712.031	54431.65
712.375	54354.59
712.719	54302.61
713.063	54238.88
713.407	54306.23
713.75	54109.4
714.094	54101.49
714.438	53950.98
714.782	53995.95
715.125	53853.36
715.469	53942.4
715.812	53702.85
716.156	53713.7
716.499	53708.05
716.843	53646.81
717.186	53499.47
717.53	53672.8
717.873	53573.59
718.216	53518
718.559	53403.65
718.902	53131.34
719.246	53225.58
719.589	53116.88
719.932	53046.37
720.275	53061.29
720.617	52989.43
720.96	52969.77
721.303	52924.79
721.646	53032.59
721.989	52711.24
722.331	52835.53
722.674	52744.69
723.016	52657.91
723.359	52632.83
723.701	52648.42
724.044	52570.91
724.386	52363.23
724.729	52508.76
725.071	52461.3
725.413	52432.83
725.755	52315.77
726.097	52206.62
726.439	52171.37
726.782	52208.66
727.124	52266.28
727.465	52082.56
727.807	51954.42
728.149	52074.42
728.491	51968.89
728.833	51980.41
729.175	51892.96
729.516	51772.06
729.858	51746.07
730.199	51796.01
730.541	51736.35
730.882	51666.52
731.224	51651.83
731.565	51554.44
731.906	51576.13
732.248	51491.39
732.589	51403.03
732.93	51292.52
733.271	51307.89
733.612	51333.42
733.953	51450.03
734.294	51207.1
734.635	51066.09
734.976	51182.02
735.317	51052.3
735.658	51055.92
735.999	51048.69
736.339	50928.01
736.68	51019.76
737.021	50909.48
737.361	50801.01
737.702	50941.12
738.042	50808.92
738.383	50774.57
738.723	50823.38
739.063	50621.13
739.404	50790.39
739.744	50594.23
740.084	50579.77
740.424	50556.5
740.764	50528.7
741.104	50682.82
741.444	50453
741.784	50294.13
742.124	50386.1
742.464	50314.92
742.804	50306.56
743.143	50195.83
743.483	50171.19
743.823	50047.36
744.162	50085.77
744.502	50068.15
744.841	49955.61
745.181	49980.01
745.52	49872.67
745.86	49869.51
746.199	49827.93
746.538	49916.06
746.877	49810.53
747.216	49771.66
747.556	49535.05
747.895	49693.24
748.234	49476.07
748.573	49444.43
748.911	49293.93
749.25	49379.8
749.589	49160.83
749.928	49323.99
750.267	49288.28
750.605	49101.39
750.944	49104.56
751.283	48974.16
751.621	49072.24
751.96	48885.81
752.298	48822.98
752.636	48811.23
752.975	48739.14
753.313	48490.56
753.651	48642.42
753.989	48478.58
754.327	48424.57
754.666	48187.74
755.004	48362.43
755.342	48256.44
755.679	48174.86
