Data from 152_FLMS001491_001.txt Node
Date: Thu Apr 19 16:17:33 BST 2018
User: hsy
Spectrometer: FLMS00149
Trigger mode: 0
Integration Time (sec): 1.000000E-2
Scans to average: 10
Electric dark correction enabled: true
Nonlinearity correction enabled: false
Boxcar width: 0
XAxis mode: Wavelengths
Number of Pixels in Spectrum: 2048
>>>>>Begin Spectral Data<<<<<
341.393	6.43
341.776	6.43
342.16	6.43
342.543	-46.23
342.927	-68.6
343.31	-69.73
343.693	-83.97
344.077	-76.74
344.46	-69.96
344.843	-53.23
345.226	-30.18
345.61	-28.83
345.993	-26.12
346.376	6.2
346.759	-0.58
347.142	41
347.525	30.15
347.908	80.77
348.291	85.52
348.674	85.97
349.057	109.7
349.44	137.95
349.823	121.68
350.206	175.69
350.588	204.61
350.971	242.13
351.354	269.7
351.737	273.99
352.119	302.24
352.502	297.94
352.884	322.12
353.267	312.86
353.65	325.97
354.032	332.75
354.414	352.63
354.797	362.35
355.179	377.26
355.562	343.82
355.944	385.17
356.326	363.93
356.709	365.96
357.091	388.56
357.473	367.55
357.855	387.43
358.238	391.5
358.62	375.23
359.002	385.4
359.384	389.47
359.766	401.9
360.148	395.34
360.53	408.68
360.912	380.43
361.294	384.5
361.676	371.84
362.057	380.65
362.439	392.63
362.821	374.78
363.203	361.9
363.584	373.2
363.966	383.59
364.348	369.58
364.729	380.88
365.111	372.97
365.493	384.04
365.874	366.19
366.256	361.45
366.637	386.76
367.019	361.22
367.4	392.18
367.781	384.5
368.163	379.3
368.544	353.54
368.925	377.72
369.306	361.9
369.688	381.11
370.069	374.1
370.45	394.89
370.831	384.72
371.212	388.56
371.593	392.63
371.974	384.72
372.355	382.69
372.736	403.25
373.117	395.12
373.498	386.76
373.879	363.03
374.26	366.87
374.641	387.66
375.021	378.85
375.402	408.22
375.783	413.65
376.163	427.66
376.544	402.35
376.925	387.66
377.305	396.92
377.686	414.33
378.066	407.77
378.447	393.31
378.827	405.06
379.208	414.1
379.588	416.36
379.968	420.43
380.349	436.25
380.729	402.8
381.109	416.13
381.489	431.27
381.87	419.52
382.25	421.33
382.63	429.69
383.01	425.85
383.39	450.26
383.77	413.42
384.15	427.88
384.53	435.34
384.91	446.19
385.29	449.58
385.67	443.93
386.049	463.14
386.429	464.04
386.809	476.47
387.189	440.99
387.568	437.15
387.948	463.36
388.328	475.57
388.707	497.26
389.087	459.3
389.466	483.48
389.846	476.47
390.225	487.32
390.605	465.85
390.984	479.86
391.363	467.88
391.743	505.85
392.122	490.48
392.501	523.25
392.881	487.32
393.26	524.6
393.639	537.49
394.018	490.03
394.397	496.13
394.776	497.71
395.155	499.97
395.534	510.82
395.913	535
396.292	530.71
396.671	528.22
397.05	533.87
397.429	553.3
397.808	533.64
398.186	524.83
398.565	542.91
398.944	553.76
399.323	548.56
399.701	570.03
400.08	562.12
400.458	550.37
400.837	586.98
401.215	582.68
401.594	568.45
401.972	570.71
402.351	571.84
402.729	572.29
403.107	580.42
403.486	582.23
403.864	568.9
404.242	591.04
404.62	622.46
404.999	617.26
405.377	593.76
405.755	593.98
406.133	595.79
406.511	627.88
406.889	630.59
407.267	628.1
407.645	632.17
408.023	637.82
408.401	658.39
408.779	668.56
409.156	657.93
409.534	679.18
409.912	670.36
410.29	664.49
410.667	681.66
411.045	682.79
411.422	676.47
411.8	677.14
412.178	720.31
412.555	706.29
412.933	718.72
413.31	736.8
413.687	744.94
414.065	723.24
414.442	756.92
414.819	758.72
415.197	755.79
415.574	770.47
415.951	774.99
416.328	762.11
416.705	763.47
417.082	786.74
417.46	794.88
417.837	809.57
418.214	782.9
418.591	785.39
418.967	811.6
419.344	816.57
419.721	819.74
420.098	811.83
420.475	849.79
420.852	821.77
421.228	841.66
421.605	866.74
421.982	842.34
422.358	864.26
422.735	843.24
423.111	868.55
423.488	885.05
423.864	869.68
424.241	927.53
424.617	902.22
424.994	902.45
425.37	907.19
425.746	931.37
426.123	921.66
426.499	939.96
426.875	957.81
427.251	955.78
427.627	962.56
428.003	991.26
428.379	951.71
428.756	1029.9
429.132	1000.07
429.507	990.81
429.883	1024.03
430.259	1040.3
430.635	1040.52
431.011	1039.62
431.387	1068.55
431.763	1072.61
432.138	1080.97
432.514	1104.48
432.89	1122.78
433.265	1112.61
433.641	1127.3
434.016	1132.95
434.392	1138.37
434.767	1181.31
435.143	1170.01
435.518	1198.49
435.894	1212.27
436.269	1216.34
436.644	1242.55
437.02	1224.47
437.395	1251.82
437.77	1254.53
438.145	1266.96
438.52	1264.25
438.895	1301.76
439.271	1284.36
439.646	1320.06
440.021	1318.48
440.395	1347.63
440.77	1329.1
441.145	1356
441.52	1333.85
441.895	1348.99
442.27	1352.15
442.645	1317.58
443.019	1354.87
443.394	1399.84
443.769	1379.95
444.143	1353.51
444.518	1383.79
444.892	1371.14
445.267	1405.26
445.641	1437.12
446.016	1420.85
446.39	1442.32
446.764	1467.86
447.139	1422.21
447.513	1459.72
447.887	1471.02
448.262	1472.15
448.636	1470.34
449.01	1480.29
449.384	1511.02
449.758	1514.86
450.132	1537.23
450.506	1527.52
450.88	1550.79
451.254	1556.67
451.628	1601.64
452.002	1562.54
452.376	1640.28
452.75	1620.62
453.123	1640.51
453.497	1648.19
453.871	1681.41
454.244	1695.42
454.618	1691.81
454.992	1725.25
455.365	1751.92
455.739	1739.04
456.112	1784.01
456.486	1776.55
456.859	1799.15
457.232	1852.03
457.606	1843.21
457.979	1861.07
458.352	1936.77
458.725	1942.42
459.099	1925.7
459.472	1949.43
459.845	1993.72
460.218	2025.36
460.591	2027.16
460.964	2038.92
461.337	2069.87
461.71	2136.77
462.083	2113.26
462.456	2104.68
462.829	2148.97
463.201	2159.14
463.574	2194.39
463.947	2194.62
464.32	2217.89
464.692	2248.4
465.065	2250.89
465.438	2319.81
465.81	2393.48
466.183	2344.44
466.555	2383.99
466.928	2402.52
467.3	2406.36
467.672	2452.01
468.045	2501.95
468.417	2485.68
468.789	2509.41
469.161	2555.51
469.534	2553.93
469.906	2599.13
470.278	2647.94
470.65	2673.47
471.022	2713.7
471.394	2765.9
471.766	2765.9
472.138	2813.13
472.51	2842.51
472.882	2877.54
473.253	2939
473.625	2954.37
473.997	3035.95
474.369	3055.39
474.74	3042.28
475.112	3119.11
475.484	3163.86
475.855	3207.92
476.227	3226.68
476.598	3329.5
476.97	3397.07
477.341	3454.25
477.713	3462.15
478.084	3520.68
478.455	3566.33
478.827	3662.6
479.198	3715.93
479.569	3724.75
479.94	3811.75
480.311	3876.61
480.682	3917.51
481.053	4045.64
481.424	4117.73
481.795	4165.19
482.166	4233.43
482.537	4300.78
482.908	4346.88
483.279	4470.94
483.65	4535.12
484.021	4603.14
484.391	4699.64
484.762	4698.96
485.133	4782.12
485.503	4853.08
485.874	4966.52
486.244	5051.49
486.615	5146.18
486.985	5267.53
487.356	5311.6
487.726	5395.44
488.097	5511.37
488.467	5567.18
488.837	5690.57
489.207	5794.97
489.578	5868.19
489.948	5975.99
490.318	6058.02
490.688	6090.33
491.058	6225.92
491.428	6375.3
491.798	6441.74
492.168	6563.09
492.538	6581.62
492.908	6763.08
493.278	6850.99
493.648	6879.69
494.017	7032.23
494.387	7170.53
494.757	7201.49
495.126	7342.28
495.496	7394.93
495.866	7522.84
496.235	7570.3
496.605	7720.8
496.974	7806.45
497.344	7939.1
497.713	7994.46
498.082	8100.45
498.452	8189.71
498.821	8290.73
499.19	8327.11
499.559	8496.6
499.928	8563.72
500.298	8667.44
500.667	8781.11
501.036	8823.82
501.405	8920.54
501.774	8948.34
502.143	9167.99
502.512	9188.56
502.88	9316.92
503.249	9372.96
503.618	9504.71
503.987	9528.89
504.356	9621.77
504.724	9769.79
505.093	9830.12
505.462	9923.91
505.83	9986.95
506.199	10154.18
506.567	10247.74
506.936	10288.42
507.304	10401.86
507.672	10504.23
508.041	10586.49
508.409	10611.35
508.777	10753.49
509.145	10874.16
509.514	10916.42
509.882	11074.16
510.25	11078
510.618	11264.44
510.986	11313.93
511.354	11395.28
511.722	11492.45
512.09	11600.7
512.458	11567.93
512.826	11736.51
513.193	11802.05
513.561	11866.68
513.929	11901.93
514.297	12134.47
514.664	12185.77
515.032	12243.39
515.4	12360
515.767	12530.16
516.135	12504.4
516.502	12489.49
516.869	12742.14
517.237	12859.65
517.604	12755.92
517.972	13018.29
518.339	12992.75
518.706	13136.93
519.073	13117.72
519.44	13196.59
519.808	13430.03
520.175	13427.77
520.542	13637.25
520.909	13738.95
521.276	13751.83
521.643	13938.72
522.009	13954.99
522.376	14094.42
522.743	14218.03
523.11	14376.44
523.477	14428.65
523.843	14572.37
524.21	14723.55
524.577	14887.62
524.943	15044.22
525.31	15030.66
525.676	15277.21
526.043	15258.91
526.409	15405.57
526.776	15573.93
527.142	15668.39
527.508	15805.78
527.874	15970.07
528.241	16030.86
528.607	16108.15
528.973	16348.82
529.339	16321.48
529.705	16512.66
530.071	16659.55
530.437	16758.53
530.803	16838.53
531.169	16957.17
531.535	17093.21
531.901	17076.26
532.267	17248.91
532.632	17310.15
532.998	17389.02
533.364	17583.14
533.73	17591.5
534.095	17705.4
534.461	17858.84
534.826	17907.65
535.192	18077.36
535.557	18124.14
535.923	18147.64
536.288	18298.37
536.653	18437.13
537.019	18435.77
537.384	18517.58
537.749	18545.15
538.114	18688.2
538.479	18712.83
538.845	18712.38
539.21	18896.1
539.575	18839.6
539.94	18913.95
540.305	19127.51
540.67	19128.64
541.034	19221.29
541.399	19326.82
541.764	19291.12
542.129	19368.63
542.494	19460.38
542.858	19479.59
543.223	19515.97
543.587	19673.71
543.952	19649.3
544.316	19799.8
544.681	19766.58
545.045	19955.51
545.41	19938.56
545.774	20011.32
546.138	20070.31
546.503	20085.45
546.867	20253.58
547.231	20254.03
547.595	20398.88
547.959	20350.75
548.324	20552.78
548.688	20593.23
549.052	20565.89
549.416	20527.02
549.779	20685.43
550.143	20806.33
550.507	20897.85
550.871	20938.31
551.235	20910.28
551.599	21177.4
551.962	21228.24
552.326	21140.79
552.689	21258.07
553.053	21186.66
553.417	21333.78
553.78	21519.76
554.143	21651.96
554.507	21566.99
554.87	21662.35
555.234	21845.17
555.597	21770.6
555.96	21913.65
556.323	22088.56
556.686	22069.12
557.05	22141.89
557.413	22174.43
557.776	22329
558.139	22421.2
558.502	22498.26
558.865	22547.08
559.228	22683.34
559.59	22748.2
559.953	22890.57
560.316	23191.81
560.679	23081.75
561.041	23318.81
561.404	23331.01
561.767	23473.83
562.129	23390.9
562.492	23735.52
562.854	23728.97
563.217	23777.78
563.579	23899.81
563.941	23920.83
564.304	24174.6
564.666	24312.45
565.028	24384.54
565.39	24432.9
565.753	24670.64
566.115	24727.13
566.477	24811.42
566.839	24913.12
567.201	25211.64
567.563	25162.38
567.925	25423.16
568.287	25419.09
568.648	25561.01
569.01	25802.58
569.372	25973.2
569.734	25990.6
570.095	26136.59
570.457	26300.88
570.819	26427.2
571.18	26444.6
571.542	26603.47
571.903	26773.86
572.265	26862.22
572.626	27082.32
572.987	27307.4
573.349	27365.03
573.71	27417.91
574.071	27629.2
574.432	27903.32
574.794	28030.77
575.155	28087.5
575.516	28295.63
575.877	28391.89
576.238	28417.88
576.599	28656.07
576.96	28879.57
577.32	28813.8
577.681	29096.96
578.042	29316.39
578.403	29424.86
578.763	29398.65
579.124	29592.32
579.485	29967.9
579.845	30055.81
580.206	30161.57
580.566	30411.73
580.927	30397.72
581.287	30705.96
581.648	30786.86
582.008	31148.66
582.368	31238.6
582.728	31448.76
583.089	31710.45
583.449	31821.64
583.809	32152.02
584.169	32440.83
584.529	32535.97
584.889	33082.62
585.249	33159.9
585.609	33281.26
585.969	33689.38
586.329	33742.49
586.688	34346.09
587.048	34411.17
587.408	34908.79
587.768	35086.63
588.127	35495.44
588.487	35826.95
588.846	36301.29
589.206	36458.58
589.565	36758.45
589.925	37326.35
590.284	37612.44
590.643	37977.18
591.003	38318.19
591.362	38906.19
591.721	39317.03
592.08	39665.5
592.44	40208.53
592.799	40598.35
593.158	40968.97
593.517	41208.96
593.876	41852.78
594.235	42255.26
594.593	42563.5
594.952	43135.24
595.311	43356.47
595.67	43906.52
596.029	44357.8
596.387	44879.14
596.746	45432.35
597.104	45508.05
597.463	45861.04
597.822	46496.05
598.18	46678.19
598.538	47062.14
598.897	47606.76
599.255	47840.87
599.613	48540.52
599.972	48568.31
600.33	49110.9
600.688	49301.85
601.046	49760.15
601.404	50241.26
601.762	50389.51
602.12	50799.67
602.478	51101.13
602.836	51478.29
603.194	51474.68
603.552	51844.84
603.91	52043.48
604.268	52463.35
604.625	52631.03
604.983	52931.59
605.341	52965.26
605.698	53397.34
606.056	53747.39
606.413	53815.41
606.771	54105.57
607.128	54266.92
607.485	54364.77
607.843	54616.74
608.2	54939.22
608.557	55051.53
608.914	55240.23
609.272	55620.78
609.629	55766.09
609.986	55917.72
610.343	56076.59
610.7	56417.6
611.057	56449.46
611.414	56505.51
611.771	56849.9
612.127	56925.38
612.484	57135.09
612.841	57228.88
613.198	57341.64
613.554	57431.13
613.911	57679.94
614.267	57787.96
614.624	57860.72
614.98	58062.53
615.337	58286.7
615.693	58351.56
616.05	58501.84
616.406	58588.16
616.762	58653.7
617.118	58787.71
617.475	58856.4
617.831	59021.82
618.187	59126
618.543	59161.71
618.899	59403.51
619.255	59463.39
619.611	59472.21
619.967	59650.06
620.323	59756.72
620.678	59742.03
621.034	59679.89
621.39	59875.59
621.746	59894.12
622.101	60226.54
622.457	60056.6
622.812	60219.31
623.168	60250.04
623.523	60280.1
623.879	60456.36
624.234	60403.03
624.589	60447.1
624.945	60590.37
625.3	60601.22
625.655	60601.22
626.01	60680.76
626.365	60747.65
626.72	60611.16
627.075	60698.84
627.43	60739.74
627.785	60808.67
628.14	60825.17
628.495	60814.32
628.85	60912.85
629.205	60852.74
629.559	61019.74
629.914	60889.12
630.269	60956.01
630.623	60886.41
630.978	60845.05
631.332	60999.4
631.687	61007.08
632.041	60924.82
632.396	61060.87
632.75	60945.16
633.104	61024.26
633.459	60911.94
633.813	60954.88
634.167	60954.43
634.521	60925.5
634.875	60988.78
635.229	60856.13
635.583	60860.42
635.937	60837.14
636.291	60883.92
636.645	60838.05
636.999	60756.92
637.352	60878.72
637.706	60702.01
638.06	60851.61
638.413	60758.73
638.767	60726.86
639.121	60789.91
639.474	60668.33
639.828	60605.74
640.181	60666.07
640.534	60695.9
640.888	60607.32
641.241	60543.82
641.594	60557.38
641.947	60672.63
642.301	60508.79
642.654	60615
643.007	60466.98
643.36	60613.19
643.713	60526.19
644.066	60528
644.419	60422.24
644.771	60156.94
645.124	59945.87
645.477	59911.29
645.83	59855.93
646.182	59776.38
646.535	59789.26
646.888	59781.8
647.24	59746.32
647.593	59859.77
647.945	59740.9
648.298	59705.65
648.65	59596.5
649.002	59501.13
649.355	59484.41
649.707	59404.41
650.059	59396.28
650.411	59630.85
650.763	59819.09
651.115	60120.1
651.467	60042.59
651.819	60043.72
652.171	59992.42
652.523	59940.22
652.875	59933.44
653.227	59875.81
653.578	60011.63
653.93	59895.02
654.282	59830.84
654.633	59744.52
654.985	59780.45
655.337	59861.58
655.688	59763.73
656.039	59866.55
656.391	59544.52
656.742	59702.26
657.094	59704.97
657.445	59712.43
657.796	59691.18
658.147	59595.82
658.498	59605.54
658.849	59690.51
659.2	59607.57
659.551	59526.22
659.902	59667
660.253	59612.77
660.604	59608.48
660.955	59490.06
661.306	59604.86
661.656	59544.75
662.007	59488.93
662.358	59485.09
662.708	59476.28
663.059	59472.89
663.409	59291.42
663.76	59481.7
664.11	59441.93
664.461	59468.37
664.811	59459.55
665.161	59455.94
665.511	59319.9
665.862	59401.7
666.212	59435.15
666.562	59444.64
666.912	59469.72
667.262	59304.08
667.612	59389.27
667.962	59386.33
668.312	59279.44
668.662	59544.52
669.011	59436.5
669.361	59285.32
669.711	59383.62
670.06	59307.47
670.41	59295.94
670.76	59313.12
671.109	59371.42
671.459	59296.17
671.808	59257.52
672.157	59327.13
672.507	59169.16
672.856	59218.43
673.205	59238.99
673.554	59312.89
673.904	59204.87
674.253	59358.99
674.602	59224.53
674.951	58969.4
675.3	58813.69
675.649	59257.52
675.998	59201.48
676.346	59169.39
676.695	59270.86
677.044	59045.78
677.393	59081.94
677.741	59210.97
678.09	59128.26
678.438	59083.74
678.787	59129.17
679.135	59099.79
679.484	58952.22
679.832	59061.6
680.181	58981.6
680.529	59001.71
680.877	58968.04
681.225	58980.69
681.573	59116.28
681.922	58970.53
682.27	58841.72
682.618	58911.09
682.966	58867.03
683.314	58853.69
683.661	58895.5
684.009	58762.85
684.357	58676.75
684.705	58596.75
685.053	58664.55
685.4	58608.95
685.748	58577.77
686.095	58536.41
686.443	58442.86
686.79	58453.25
687.138	58512.46
687.485	58505
687.832	58342.75
688.18	58400.15
688.527	58266.59
688.874	58304.1
689.221	58355.85
689.568	58155.63
689.915	58126.71
690.262	58206.48
690.609	58142.3
690.956	58048.52
691.303	57954.51
691.65	57929.65
691.997	57878.13
692.344	57832.25
692.69	57710.9
693.037	57794.74
693.383	57512.26
693.73	57658.92
694.077	57535.54
694.423	57530.11
694.769	57415.99
695.116	57374.18
695.462	57337.57
695.808	57242.66
696.155	57290.57
696.501	57111.14
696.847	57185.04
697.193	56996.34
697.539	56997.24
697.885	56801.54
698.231	56707.99
698.577	56760.19
698.923	56736.91
699.269	56628.44
699.614	56532.85
699.96	56484.72
700.306	56449.24
700.651	56388.45
700.997	56257.6
701.342	56280.2
701.688	56141.67
702.033	56148
702.379	56090.15
702.724	55962.47
703.069	55993.65
703.415	55771.97
703.76	55709.37
704.105	55750.5
704.45	55670.73
704.795	55573.33
705.14	55482.93
705.485	55465.99
705.83	55284.52
706.175	55487.23
706.52	55342.82
706.865	55237.97
707.209	55088.82
707.554	55086.56
707.899	55060.12
708.243	54949.84
708.588	54930.86
708.932	54781.94
709.277	54787.36
709.621	54729.73
709.966	54449.97
710.31	54541.72
710.654	54317.99
710.998	54455.62
711.342	54342.17
711.687	54406.8
712.031	54266.24
712.375	54120.26
712.719	54179.47
713.063	54052.46
713.407	54207.04
713.75	53971.79
714.094	53908.51
714.438	53845.01
714.782	53876.87
715.125	53671.46
715.469	53809.98
715.812	53550.1
716.156	53508.07
716.499	53479.6
716.843	53563.21
717.186	53305.82
717.53	53491.35
717.873	53389.66
718.216	53317.12
718.559	53211.58
718.902	52878.03
719.246	52999.61
719.589	53036.9
719.932	52842.55
720.275	52888.2
720.617	52806.39
720.96	52818.6
721.303	52801.65
721.646	52811.59
721.989	52586.74
722.331	52618.83
722.674	52566.63
723.016	52573.41
723.359	52457.02
723.701	52439.62
724.044	52278.5
724.386	52155.56
724.729	52249.8
725.071	52121.67
725.413	52129.8
725.755	52058.84
726.097	51971.16
726.439	51904.72
726.782	51850.71
727.124	52017.49
727.465	51919.86
727.807	51790.6
728.149	51862.69
728.491	51641.23
728.833	51677.61
729.175	51608.01
729.516	51593.77
729.858	51471.97
730.199	51593.77
730.541	51523.49
730.882	51384.06
731.224	51471.29
731.565	51353.1
731.906	51362.36
732.248	51335.25
732.589	51097.96
732.93	51146.32
733.271	51189.04
733.612	51024.29
733.953	51237.17
734.294	51053.9
734.635	50833.79
734.976	51070.62
735.317	50855.71
735.658	50880.34
735.999	50833.79
736.339	50673.57
736.68	50721.7
737.021	50713.79
737.361	50608.49
737.702	50843.28
738.042	50676.96
738.383	50691.42
738.723	50646
739.063	50429.96
739.404	50612.1
739.744	50513.57
740.084	50425.67
740.424	50336.85
740.764	50331.2
741.104	50472.44
741.444	50271.32
741.784	50070.19
742.124	50244.43
742.464	50198.78
742.804	49999.01
743.143	50003.3
743.483	50049.4
743.823	49884.44
744.162	49854.16
744.502	49909.07
744.841	49666.59
745.181	49858.67
745.52	49691.67
745.86	49685.35
746.199	49640.6
746.538	49610.77
746.877	49728.28
747.216	49545.91
747.556	49436.77
747.895	49523.32
748.234	49358.58
748.573	49346.37
748.911	49226.38
749.25	49204
749.589	49137.56
749.928	49119.49
750.267	49132.14
750.605	48912.49
750.944	49062.09
751.283	48909.32
751.621	48925.82
751.96	48678.37
752.298	48665.94
752.636	48561.53
752.975	48559.27
753.313	48339.84
753.651	48601.98
753.989	48439.05
754.327	48317.47
754.666	48024.37
755.004	48234.76
755.342	48111.15
755.679	48089.46
756.017	47720.43
