Data from 152_FLMS001491_006.txt Node
Date: Thu Apr 19 16:17:45 BST 2018
User: hsy
Spectrometer: FLMS00149
Trigger mode: 0
Integration Time (sec): 1.000000E-2
Scans to average: 10
Electric dark correction enabled: true
Nonlinearity correction enabled: false
Boxcar width: 0
XAxis mode: Wavelengths
Number of Pixels in Spectrum: 2048
>>>>>Begin Spectral Data<<<<<
341.393	-16.48
341.776	-16.48
342.16	-16.48
342.543	-62.81
342.927	-65.07
343.31	-58.52
343.693	-71.4
344.077	-62.36
344.46	-59.19
344.843	-65.97
345.226	-34.34
345.61	-33.21
345.993	-6.54
346.376	-9.25
346.759	-0.89
347.142	13.12
347.525	51.99
347.908	46.11
348.291	91.76
348.674	82.05
349.057	116.62
349.44	144.87
349.823	151.65
350.206	186.22
350.588	243.62
350.971	251.98
351.354	259.89
351.737	283.62
352.119	279.33
352.502	292.89
352.884	295.83
353.267	320.91
353.65	321.81
354.032	341.02
354.414	325.66
354.797	340.57
355.179	346.45
355.562	378.54
355.944	371.3
356.326	362.94
356.709	369.72
357.091	388.48
357.473	372.89
357.855	387.12
358.238	395.48
358.62	402.26
359.002	369.95
359.384	390.96
359.766	383.73
360.148	382.15
360.53	369.04
360.912	384.18
361.294	387.35
361.676	367.46
362.057	378.76
362.439	364.3
362.821	378.54
363.203	360.91
363.584	387.35
363.966	365.2
364.348	382.38
364.729	375.82
365.111	379.44
365.493	393.22
365.874	361.13
366.256	369.04
366.637	376.28
367.019	371.53
367.4	381.02
367.781	365.65
368.163	381.02
368.544	373.79
368.925	381.25
369.306	376.5
369.688	362.72
370.069	361.36
370.45	359.33
370.831	378.31
371.212	399.78
371.593	369.5
371.974	364.75
372.355	348.71
372.736	381.7
373.117	379.44
373.498	370.85
373.879	368.82
374.26	383.51
374.641	370.63
375.021	388.48
375.402	375.15
375.783	396.61
376.163	377.63
376.544	402.72
376.925	393.68
377.305	401.59
377.686	383.28
378.066	395.26
378.447	384.18
378.827	393.22
379.208	416.05
379.588	407.24
379.968	391.19
380.349	388.7
380.729	416.27
381.109	420.79
381.489	407.01
381.87	400.46
382.25	430.96
382.63	407.69
383.01	405.65
383.39	430.06
383.77	428.25
384.15	435.03
384.53	437.97
384.91	451.53
385.29	439.1
385.67	432.09
386.049	447.91
386.429	464.41
386.809	459.44
387.189	469.61
387.568	449.72
387.948	457.86
388.328	473.9
388.707	470.74
389.087	482.26
389.466	456.73
389.846	471.19
390.225	474.13
390.605	480.23
390.984	453.11
391.363	491.98
391.743	478.65
392.122	490.62
392.501	493.56
392.881	512.77
393.26	484.3
393.639	482.26
394.018	498.08
394.397	504.41
394.776	518.87
395.155	504.63
395.534	519.77
395.913	526.78
396.292	524.07
396.671	517.29
397.05	510.96
397.429	536.5
397.808	530.62
398.186	539.21
398.565	536.95
398.944	531.07
399.323	545.99
399.701	521.36
400.08	552.99
400.458	561.81
400.837	556.16
401.215	557.51
401.594	555.03
401.972	576.72
402.351	571.07
402.729	576.95
403.107	557.74
403.486	593.67
403.864	606.1
404.242	587.34
404.62	603.39
404.999	585.54
405.377	611.07
405.755	600
406.133	605.87
406.511	582.82
406.889	626.44
407.267	645.42
407.645	638.64
408.023	646.1
408.401	629.83
408.779	644.06
409.156	663.05
409.534	662.14
409.912	677.51
410.29	690.84
410.667	686.1
411.045	673.22
411.422	675.7
411.8	685.65
412.178	690.84
412.555	724.74
412.933	711.18
413.31	717.96
413.687	743.27
414.065	728.81
414.442	752.54
414.819	757.28
415.197	756.83
415.574	780.33
415.951	758.64
416.328	760.45
416.705	774.91
417.082	761.12
417.46	783.95
417.837	801.57
418.214	808.58
418.591	814.68
418.967	814
419.344	817.39
419.721	829.6
420.098	808.13
420.475	842.03
420.852	843.16
421.228	835.47
421.605	871.4
421.982	869.14
422.358	874.12
422.735	857.62
423.111	868.24
423.488	884.06
423.864	879.77
424.241	902.59
424.617	905.3
424.994	931.06
425.37	927.22
425.746	943.27
426.123	944.62
426.499	960.44
426.875	954.11
427.251	961.57
427.627	987.33
428.003	964.96
428.379	997.95
428.756	1012.19
429.132	1006.09
429.507	1023.94
429.883	1040.44
430.259	1035.24
430.635	1014
431.011	1055.58
431.387	1094.22
431.763	1087.9
432.138	1091.96
432.514	1118.18
432.89	1116.82
433.265	1143.26
433.641	1131.51
434.016	1166.54
434.392	1166.54
434.767	1183.49
435.143	1176.48
435.518	1192.53
435.894	1213.77
436.269	1216.25
436.644	1233.65
437.02	1221.22
437.395	1248.79
437.77	1225.52
438.145	1262.58
438.52	1278.4
438.895	1286.31
439.271	1311.84
439.646	1307.32
440.021	1315.46
440.395	1312.3
440.77	1299.87
441.145	1339.64
441.52	1359.3
441.895	1348
442.27	1351.84
442.645	1371.5
443.019	1379.41
443.394	1393.88
443.769	1389.58
444.143	1402.01
444.518	1388.45
444.892	1404.27
445.267	1409.47
445.641	1444.5
446.016	1430.94
446.39	1437.94
446.764	1448.34
447.139	1457.83
447.513	1446.76
447.887	1493.31
448.262	1493.08
448.636	1501.9
449.01	1497.6
449.384	1526.08
449.758	1529.01
450.132	1526.53
450.506	1576.92
450.88	1550.71
451.254	1555.91
451.628	1578.73
452.002	1586.87
452.376	1593.64
452.75	1651.5
453.123	1663.93
453.497	1632.29
453.871	1646.52
454.244	1703.92
454.618	1750.02
454.992	1754.77
455.365	1766.07
455.739	1788.22
456.112	1797.26
456.486	1827.76
456.859	1802.9
457.232	1878.16
457.606	1887.87
457.979	1912.28
458.352	1950.7
458.725	1950.02
459.099	1967.42
459.472	1962.45
459.845	1977.36
460.218	2005.84
460.591	2053.07
460.964	2090.81
461.337	2095.1
461.71	2125.38
462.083	2171.71
462.456	2157.02
462.829	2166.06
463.201	2218.03
463.574	2216.68
463.947	2273.17
464.32	2288.32
464.692	2260.97
465.065	2332.38
465.438	2334.42
465.81	2328.09
466.183	2354.75
466.555	2410.57
466.928	2406.5
467.3	2437.01
467.672	2480.85
468.045	2515.88
468.417	2524.24
468.789	2529.89
469.161	2521.08
469.534	2586.39
469.906	2651.7
470.278	2671.58
470.65	2674.75
471.022	2752.94
471.394	2762.2
471.766	2824.35
472.138	2873.61
472.51	2870.22
472.882	2934.17
473.253	2958.13
473.625	3015.08
473.997	3061.85
474.369	3074.96
474.74	3088.52
475.112	3193.83
475.484	3204.45
475.855	3279.7
476.227	3292.58
476.598	3367.16
476.97	3414.39
477.341	3476.31
477.713	3528.28
478.084	3593.37
478.455	3670.88
478.827	3698.67
479.198	3789.29
479.569	3793.13
479.94	3881.49
480.311	3945.22
480.682	4020.25
481.053	4120.13
481.424	4153.13
481.795	4209.85
482.166	4258.21
482.537	4395.6
482.908	4420.01
483.279	4516.05
483.65	4584.98
484.021	4702.26
484.391	4727.8
484.762	4835.59
485.133	4871.75
485.503	4945.19
485.874	5064.06
486.244	5130.27
486.615	5228.13
486.985	5335.02
487.356	5426.09
487.726	5449.59
488.097	5556.7
488.467	5667.66
488.837	5781.78
489.207	5891.84
489.578	5973.19
489.948	6054.32
490.318	6166.86
490.688	6225.16
491.058	6304.03
491.428	6438.04
491.798	6504.25
492.168	6671.7
492.538	6723.68
492.908	6763.9
493.278	6943.56
493.648	6966.16
494.017	7162.99
494.387	7195.76
494.757	7278.92
495.126	7407.05
495.496	7466.71
495.866	7602.53
496.235	7725.23
496.605	7835.51
496.974	7925.23
497.344	8004.55
497.713	8080.71
498.082	8201.38
498.452	8341.72
498.821	8387.82
499.19	8472.79
499.559	8544.42
499.928	8678.43
500.298	8761.59
500.667	8851.76
501.036	8910.74
501.405	8995.71
501.774	9059.44
502.143	9241.81
502.512	9243.61
502.88	9362.03
503.249	9460.1
503.618	9541.68
503.987	9654
504.356	9815.8
504.724	9848.34
505.093	9905.74
505.462	9994.78
505.83	10047.43
506.199	10143.93
506.567	10335.56
506.936	10378.72
507.304	10512.96
507.672	10596.57
508.041	10635.67
508.409	10736
508.777	10820.97
509.145	10909.56
509.514	10923.57
509.882	11105.03
510.25	11108.2
510.618	11220.74
510.986	11315.2
511.354	11493.5
511.722	11602.19
512.09	11639.48
512.458	11646.26
512.826	11789.76
513.193	11787.27
513.561	11935.07
513.929	12048.28
514.297	12211.22
514.664	12154.27
515.032	12335.51
515.4	12438.78
515.767	12448.73
516.135	12626.8
516.502	12498.89
516.869	12834.7
517.237	12799.23
517.604	12816.4
517.972	12967.58
518.339	13081.93
518.706	13142.49
519.073	13203.73
519.44	13340.45
519.808	13471.3
520.175	13554.23
520.542	13591.07
520.909	13716.26
521.276	13789.48
521.643	13913.32
522.009	13976.6
522.376	14101.79
522.743	14358.96
523.11	14451.84
523.477	14578.84
523.843	14620.42
524.21	14772.28
524.577	14960.98
524.943	15009.79
525.31	15134.31
525.676	15270.35
526.043	15348.31
526.409	15479.61
526.776	15676.21
527.142	15699.26
527.508	15824.23
527.874	16025.58
528.241	16054.06
528.607	16217.67
528.973	16371.56
529.339	16416.98
529.705	16504.44
530.071	16744.43
530.437	16801.38
530.803	16939.68
531.169	17022.62
531.535	17019
531.901	17091.32
532.267	17212.22
532.632	17399.56
532.998	17498.54
533.364	17516.84
533.73	17621.02
534.095	17762.71
534.461	17871.18
534.826	17924.51
535.192	18068.01
535.557	18152.53
535.923	18173.55
536.288	18323.6
536.653	18433.65
537.019	18388.91
537.384	18479.08
537.749	18496.48
538.114	18619.19
538.479	18627.09
538.845	18704.16
539.21	18797.49
539.575	18880.65
539.94	18908.67
540.305	19029.8
540.67	18997.03
541.034	19187.76
541.399	19254.65
541.764	19267.3
542.129	19364.7
542.494	19352.27
542.858	19519.27
543.223	19430.24
543.587	19653.06
543.952	19605.83
544.316	19643.11
544.681	19755.88
545.045	19936.89
545.41	20025.25
545.774	19979.6
546.138	19975.31
546.503	20150.22
546.867	20040.39
547.231	20205.81
547.595	20328.52
547.959	20358.12
548.324	20420.72
548.688	20425.92
549.052	20523.09
549.416	20514.95
549.779	20617.33
550.143	20638.34
550.507	20813.03
550.871	20849.41
551.235	20837.88
551.599	21022.51
551.962	21022.96
552.326	21167.82
552.689	21147.71
553.053	21174.82
553.417	21180.7
553.78	21469.73
554.143	21420.47
554.507	21533.69
554.87	21596.51
555.234	21853.45
555.597	21623.17
555.96	21736.39
556.323	21910.62
556.686	21914.69
557.05	22057.29
557.413	22031.75
557.776	22144.74
558.139	22332.53
558.502	22241.92
558.865	22344.06
559.228	22669.93
559.59	22742.24
559.953	22696.82
560.316	22945.85
560.679	22856.36
561.041	22993.76
561.404	23193.3
561.767	23413.41
562.129	23304.49
562.492	23589.9
562.854	23438.27
563.217	23577.7
563.579	23764.36
563.941	23833.74
564.304	23978.82
564.666	24300.84
565.028	24180.17
565.39	24327.06
565.753	24451.8
566.115	24502.42
566.477	24664.68
566.839	24681.4
567.201	24871
567.563	24902.41
567.925	25252.91
568.287	25216.3
568.648	25284.1
569.01	25557.76
569.372	25797.98
569.734	25752.33
570.095	25884.76
570.457	26083.17
570.819	26114.13
571.18	26235.93
571.542	26556.15
571.903	26463.5
572.265	26666.66
572.626	26802.47
572.987	26787.33
573.349	27121.33
573.71	27218.28
574.071	27463.25
574.432	27596.12
574.794	27881.77
575.155	27862.11
575.516	27752.5
575.877	28078.15
576.238	28144.36
576.599	28353.84
576.96	28471.36
577.32	28481.53
577.681	28793.83
578.042	29025.01
578.403	29102.07
578.763	29131.23
579.124	29320.83
579.485	29654.6
579.845	29672
580.206	29822.51
580.566	30128.04
580.927	30150.41
581.287	30461.59
581.648	30646.89
582.008	30844.17
582.368	31078.74
582.728	31176.6
583.089	31536.13
583.449	31621.33
583.809	31945.16
584.169	32204.14
584.529	32254.31
584.889	32866.49
585.249	32834.86
585.609	33095.87
585.969	33510.09
586.329	33755.51
586.688	34050.87
587.048	34191.88
587.408	34534.02
587.768	34952.09
588.127	35315.7
588.487	35462.81
588.846	36323.35
589.206	36224.15
589.565	36554.53
589.925	37102.32
590.284	37383.21
590.643	37760.38
591.003	38261.61
591.362	38832.67
591.721	39111.53
592.08	39470.61
592.44	40006.87
592.799	40329.12
593.158	40701.54
593.517	40950.8
593.876	41628.3
594.235	42044.56
594.593	42311.22
594.952	42987.58
595.311	43212.21
595.67	43684.74
596.029	44251.28
596.387	44816.46
596.746	45289.67
597.104	45399.5
597.463	45720.62
597.822	46418
598.18	46755.62
598.538	46952.45
598.897	47573.9
599.255	47705.43
599.613	48673.76
599.972	48552.41
600.33	49073.07
600.688	49241.66
601.046	49640.52
601.404	50137.23
601.762	50363.21
602.12	50714.84
602.478	50998
602.836	51287.03
603.194	51253.13
603.552	51763.62
603.91	51953.9
604.268	52439.09
604.625	52624.62
604.983	52932.63
605.341	53008.56
605.698	53431.15
606.056	53735.32
606.413	53735.78
606.771	54140.29
607.128	54313.84
607.485	54483.78
607.843	54621.85
608.2	54965.8
608.557	55155.85
608.914	55322.18
609.272	55626.8
609.629	55822.5
609.986	56055.94
610.343	56132.1
610.7	56468.59
611.057	56518.75
611.414	56643.04
611.771	56941.12
612.127	57062.47
612.484	57205.29
612.841	57308.56
613.198	57375.23
613.554	57489.35
613.911	57772.96
614.267	57876.01
614.624	57926.63
614.98	58070.35
615.337	58363.68
615.693	58415.43
616.05	58490.91
616.406	58679.15
616.762	58673.05
617.118	58854.74
617.475	58939.48
617.831	59127.72
618.187	59158.68
618.543	59308.06
618.899	59455.17
619.255	59461.28
619.611	59525
619.967	59748.95
620.323	59824.43
620.678	59827.14
621.034	59829.85
621.39	59920.92
621.746	59967.93
622.101	60261.48
622.457	60130.64
622.812	60321.59
623.168	60342.38
623.523	60363.4
623.879	60460.57
624.234	60396.62
624.589	60581.02
624.945	60599.1
625.3	60658.31
625.655	60690.4
626.01	60762.03
626.365	60838.41
626.72	60787.34
627.075	60802.26
627.43	60854.01
627.785	60895.14
628.14	60889.94
628.495	61001.57
628.85	60987.34
629.205	60998.41
629.559	61096.03
629.914	60926.32
630.269	61041.12
630.623	60919.77
630.978	60947.56
631.332	61097.62
631.687	61071.18
632.041	61033.44
632.396	61072.98
632.75	61051.74
633.104	61129.71
633.459	61005.87
633.813	60987.56
634.167	60982.14
634.521	60994.79
634.875	61054.23
635.229	60955.02
635.583	60901.24
635.937	60926.77
636.291	60847
636.645	60936.26
636.999	60824.18
637.352	60963.38
637.706	60844.52
638.06	60890.39
638.413	60840.45
638.767	60739.21
639.121	60847.68
639.474	60751.41
639.828	60763.16
640.181	60762.48
640.534	60769.94
640.888	60743.73
641.241	60590.29
641.594	60620.79
641.947	60735.37
642.301	60647.69
642.654	60634.58
643.007	60636.16
643.36	60600.91
643.713	60576.95
644.066	60701.69
644.419	60521.59
644.771	60291.31
645.124	60037.98
645.477	59999.79
645.83	59929.96
646.182	59872.79
646.535	59828.95
646.888	59974.71
647.24	59836.63
647.593	59915.73
647.945	59862.62
648.298	59806.35
648.65	59734.04
649.002	59585.79
649.355	59579.92
649.707	59534.04
650.059	59515.74
650.411	59836.86
650.763	59941.71
651.115	60217.41
651.467	60150.52
651.819	60086.57
652.171	60068.27
652.523	60073.01
652.875	60074.59
653.227	59925.9
653.578	60117.08
653.93	60019.9
654.282	59900.81
654.633	59881.83
654.985	59909.4
655.337	59946.46
655.688	59935.16
656.039	59991.66
656.391	59733.58
656.742	59801.61
657.094	59791.44
657.445	59821.04
657.796	59823.07
658.147	59743.75
658.498	59770.19
658.849	59804.77
659.2	59759.8
659.551	59643.42
659.902	59775.17
660.253	59638.9
660.604	59747.82
660.955	59570.88
661.306	59701.27
661.656	59551.44
662.007	59569.75
662.358	59568.84
662.708	59553.93
663.059	59601.16
663.409	59405.01
663.76	59587.6
664.11	59515.74
664.461	59572.91
664.811	59558.22
665.161	59575.62
665.511	59440.49
665.862	59473.03
666.212	59537.66
666.562	59480.71
666.912	59438.68
667.262	59404.78
667.612	59412.92
667.962	59510.99
668.312	59396.42
668.662	59533.36
669.011	59482.29
669.361	59421.05
669.711	59428.28
670.06	59388.74
670.41	59364.1
670.76	59308.96
671.109	59448.17
671.459	59354.61
671.808	59340.83
672.157	59395.29
672.507	59278.46
672.856	59338.79
673.205	59355.74
673.554	59384.44
673.904	59259.47
674.253	59527.49
674.602	59263.99
674.951	59032.13
675.3	58843.66
675.649	59325.91
675.998	59331.11
676.346	59338.79
676.695	59337.89
677.044	59144.45
677.393	59247.95
677.741	59297.44
678.09	59244.11
678.438	59177.22
678.787	59253.37
679.135	59202.98
679.484	59049.99
679.832	59241.39
680.181	59049.53
680.529	59132.24
680.877	59039.59
681.225	58965.47
681.573	59139.48
681.922	59019.48
682.27	58928.86
682.618	58995.07
682.966	58878.92
683.314	58942.65
683.661	58920.72
684.009	58694.74
684.357	58803.21
684.705	58759.15
685.053	58729.32
685.4	58696.55
685.748	58641.41
686.095	58612.48
686.443	58454.75
686.79	58462.66
687.138	58553.73
687.485	58535.2
687.832	58354.86
688.18	58458.14
688.527	58345.37
688.874	58347.41
689.221	58337.01
689.568	58216.56
689.915	58167.52
690.262	58194.42
690.609	58125.94
690.956	58025.38
691.303	58056.57
691.65	57990.58
691.997	57911.49
692.344	57831.49
692.69	57774.99
693.037	57777.93
693.383	57644.83
693.73	57741.55
694.077	57561.89
694.423	57621.78
694.769	57500.42
695.116	57448
695.462	57376.36
695.808	57337.04
696.155	57438.5
696.501	57125.97
696.847	57196.7
697.193	57029.02
697.539	57049.81
697.885	56941.12
698.231	56834.45
698.577	56842.14
698.923	56848.24
699.269	56631.52
699.614	56550.39
699.96	56563.95
700.306	56575.25
700.651	56465.2
700.997	56422.49
701.342	56345.65
701.688	56294.58
702.033	56214.13
702.379	56170.97
702.724	56140.46
703.069	56146.33
703.415	55854.59
703.76	55829.05
704.105	55834.03
704.45	55758.32
704.795	55692.56
705.14	55610.08
705.485	55521.49
705.83	55361.95
706.175	55567.14
706.52	55382.29
706.865	55270.43
707.209	55209.18
707.554	55152.01
707.899	55112.46
708.243	55059.58
708.588	54985.24
708.932	54888.97
709.277	54923.09
709.621	54758.8
709.966	54637
710.31	54665.24
710.654	54486.27
710.998	54569.88
711.342	54614.17
711.687	54409.88
712.031	54436.55
712.375	54249.89
712.719	54254.63
713.063	54059.61
713.407	54283.11
713.75	54065.03
714.094	54031.14
714.438	53917.47
714.782	53874.3
715.125	53767.87
715.469	53865.04
715.812	53606.74
716.156	53661.43
716.499	53616.91
716.843	53661.88
717.186	53486.97
717.53	53536.46
717.873	53558.15
718.216	53405.62
718.559	53348.44
718.902	53114.1
719.246	53182.34
719.589	53138.05
719.932	52983.93
720.275	53019.41
720.617	52978.06
720.96	52873.43
721.303	52902.35
721.646	52887.21
721.989	52748.01
722.331	52769.25
722.674	52753.2
723.016	52668.01
723.359	52553.21
723.701	52535.36
724.044	52470.95
724.386	52321.35
724.729	52419.88
725.071	52377.85
725.413	52356.83
725.755	52240
726.097	52124.29
726.439	52164.29
726.782	52014.92
727.124	52098.31
727.465	52140.11
727.807	51962.72
728.149	51981.47
728.491	51809.95
728.833	51893.79
729.175	51829.61
729.516	51705.1
729.858	51688.82
730.199	51804.98
730.541	51708.94
730.882	51585.1
731.224	51645.21
731.565	51429.62
731.906	51485.21
732.248	51409.96
732.589	51341.94
732.93	51213.36
733.271	51257.42
733.612	51140.36
733.953	51355.5
734.294	51138.56
734.635	50980.59
734.976	51232.79
735.317	51009.07
735.658	50934.95
735.999	50939.92
736.339	50908.28
736.68	50913.03
737.021	50927.49
737.361	50751.9
737.702	50926.36
738.042	50645.24
738.383	50615.41
738.723	50805.23
739.063	50471.91
739.404	50577.67
739.744	50545.35
740.084	50381.06
740.424	50421.97
740.764	50373.6
741.104	50460.16
741.444	50343.32
741.784	50243.66
742.124	50308.07
742.464	50139.49
742.804	50154.4
743.143	50167.73
743.483	50177.68
743.823	49952.15
744.162	49896.78
744.502	49913.96
744.841	49691.81
745.181	49909.89
745.52	49792.38
745.86	49855.43
746.199	49706.28
746.538	49666.73
746.877	49838.03
747.216	49675.09
747.556	49455.44
747.895	49656.79
748.234	49453.18
748.573	49414.76
748.911	49383.57
749.25	49281.66
749.589	49105.39
749.928	49241.21
750.267	49185.39
750.605	49102.68
750.944	48991.95
751.283	48960.76
751.621	49000.53
751.96	48768.68
752.298	48744.5
752.636	48801.89
752.975	48629.24
753.313	48548.34
753.651	48767.32
753.989	48363.49
754.327	48447.33
754.666	48211.63
755.004	48210.5
755.342	48154.23
755.679	48148.35
