Data from 152_FLMS001491_004.txt Node
Date: Thu Apr 19 16:17:40 BST 2018
User: hsy
Spectrometer: FLMS00149
Trigger mode: 0
Integration Time (sec): 1.000000E-2
Scans to average: 10
Electric dark correction enabled: true
Nonlinearity correction enabled: false
Boxcar width: 0
XAxis mode: Wavelengths
Number of Pixels in Spectrum: 2048
>>>>>Begin Spectral Data<<<<<
341.393	-20.42
341.776	-20.42
342.16	-20.42
342.543	-55.68
342.927	-53.64
343.31	-64.72
343.693	-72.85
344.077	-66.07
344.46	-74.21
344.843	-53.64
345.226	-29.69
345.61	-41.44
345.993	-21.55
346.376	-6.86
346.759	-11.61
347.142	65
347.525	56.18
347.908	53.25
348.291	89.18
348.674	78.33
349.057	100.7
349.44	139.57
349.823	151.1
350.206	184.32
350.588	252.34
350.971	257.99
351.354	268.38
351.737	276.29
352.119	299.12
352.502	295.27
352.884	317.2
353.267	336.86
353.65	329.62
354.032	353.58
354.414	353.8
354.797	372.11
355.179	387.7
355.562	382.05
355.944	371.2
356.326	370.75
356.709	379.79
357.091	392.22
357.473	380.47
357.855	423.63
358.238	379.11
358.62	396.74
359.002	394.26
359.384	386.57
359.766	395.39
360.148	377.76
360.53	405.33
360.912	395.16
361.294	402.39
361.676	389.28
362.057	375.5
362.439	409.17
362.821	379.79
363.203	381.83
363.584	378.89
363.966	374.82
364.348	375.95
364.729	379.34
365.111	380.47
365.493	387.93
365.874	378.44
366.256	385.89
366.637	384.09
367.019	378.66
367.4	391.32
367.781	403.29
368.163	368.72
368.544	401.03
368.925	383.86
369.306	383.86
369.688	401.94
370.069	384.31
370.45	365.78
370.831	388.61
371.212	382.28
371.593	365.56
371.974	396.29
372.355	386.35
372.736	394.03
373.117	391.77
373.498	396.51
373.879	399.23
374.26	389.51
374.641	373.24
375.021	386.57
375.402	420.02
375.783	410.3
376.163	391.54
376.544	411.2
376.925	399.23
377.305	410.75
377.686	416.85
378.066	400.36
378.447	419.79
378.827	387.25
379.208	414.59
379.588	427.25
379.968	426.34
380.349	414.37
380.729	422.5
381.109	436.51
381.489	435.16
381.87	423.18
382.25	428.15
382.63	449.62
383.01	423.63
383.39	431.99
383.77	433.58
384.15	439.23
384.53	450.52
384.91	461.6
385.29	435.84
385.67	447.59
386.049	456.63
386.429	446.23
386.809	468.15
387.189	467.02
387.568	462.5
387.948	494.59
388.328	484.2
388.707	466.12
389.087	462.5
389.466	472.9
389.846	493.91
390.225	488.26
390.605	480.58
390.984	513.8
391.363	477.64
391.743	496.85
392.122	506.79
392.501	517.64
392.881	509.28
393.26	513.8
393.639	509.51
394.018	497.76
394.397	532.78
394.776	533.69
395.155	520.35
395.534	513.35
395.913	552.22
396.292	535.72
396.671	552.22
397.05	542.73
397.429	564.42
397.808	534.14
398.186	543.86
398.565	530.52
398.944	571.2
399.323	545.44
399.701	564.19
400.08	569.84
400.458	578.21
400.837	561.03
401.215	559.67
401.594	580.92
401.972	602.84
402.351	584.98
402.729	592.89
403.107	594.02
403.486	586.57
403.864	612.33
404.242	605.55
404.62	591.54
404.999	616.4
405.377	626.79
405.755	622.5
406.133	653.01
406.511	616.17
406.889	646.68
407.267	655.27
407.645	665.43
408.023	675.83
408.401	665.66
408.779	663.63
409.156	669.28
409.534	691.65
409.912	674.7
410.29	710.63
410.667	708.6
411.045	695.72
411.422	728.71
411.8	732.78
412.178	737.97
412.555	722.83
412.933	747.47
413.31	777.75
413.687	749.27
414.065	783.4
414.442	772.78
414.819	801.93
415.197	769.84
415.574	809.39
415.951	807.13
416.328	806.9
416.705	801.25
417.082	821.59
417.46	829.05
417.837	811.42
418.214	848.03
418.591	867.01
418.967	842.6
419.344	848.93
419.721	863.17
420.098	842.15
420.475	877.86
420.852	874.47
421.228	865.66
421.605	876.28
421.982	900.91
422.358	899.1
422.735	907.01
423.111	907.69
423.488	925.99
423.864	898.42
424.241	929.38
424.617	966.22
424.994	940
425.37	932.77
425.746	977.52
426.123	990.4
426.499	966.9
426.875	981.58
427.251	1010.96
427.627	986.56
428.003	1029.72
428.379	1036.27
428.756	1035.82
429.132	1064.29
429.507	1077.4
429.883	1073.11
430.259	1090.73
430.635	1116.27
431.011	1112.2
431.387	1096.84
431.763	1135.48
432.138	1127.57
432.514	1144.29
432.89	1148.81
433.265	1193.1
433.641	1196.95
434.016	1192.2
434.392	1235.36
434.767	1226.32
435.143	1211.18
435.518	1239.43
435.894	1262.03
436.269	1266.1
436.644	1262.25
437.02	1269.03
437.395	1295.02
437.77	1304.29
438.145	1323.95
438.52	1327.11
438.895	1362.59
439.271	1338.86
439.646	1381.35
440.021	1386.32
440.395	1358.98
440.77	1340.9
441.145	1411.18
441.52	1437.17
441.895	1377.28
442.27	1434.91
442.645	1422.02
443.019	1421.35
443.394	1443.04
443.769	1461.57
444.143	1450.72
444.518	1444.17
444.892	1457.73
445.267	1467.67
445.641	1490.95
446.016	1503.15
446.39	1480.33
446.764	1520.33
447.139	1517.16
447.513	1523.04
447.887	1523.04
448.262	1550.38
448.636	1555.35
449.01	1561.68
449.384	1590.38
449.758	1571.4
450.132	1605.52
450.506	1619.99
450.88	1652.53
451.254	1647.56
451.628	1646.43
452.002	1678.29
452.376	1685.75
452.75	1687.33
453.123	1722.58
453.497	1727.1
453.871	1756.48
454.244	1748.34
454.618	1824.95
454.992	1814.56
455.365	1819.98
455.739	1850.49
456.112	1879.19
456.486	1884.39
456.859	1923.25
457.232	1941.79
457.606	1973.42
457.979	1974.33
458.352	2009.81
458.725	2005.06
459.099	2012.29
459.472	2090.71
459.845	2097.26
460.218	2101.1
460.591	2137.49
460.964	2153.76
461.337	2147.2
461.71	2232.4
462.083	2258.84
462.456	2268.33
462.829	2251.83
463.201	2292.51
463.574	2306.97
463.947	2335.9
464.32	2342.9
464.692	2380.64
465.065	2404.82
465.438	2441.66
465.81	2457.7
466.183	2448.21
466.555	2560.07
466.928	2533.18
467.3	2580.64
467.672	2534.09
468.045	2639.39
468.417	2673.52
468.789	2673.52
469.161	2669.22
469.534	2706.74
469.906	2776.79
470.278	2783.8
470.65	2821.08
471.022	2882.55
471.394	2914.41
471.766	2926.17
472.138	2997.35
472.51	3039.61
472.882	3048.87
473.253	3098.36
473.625	3158.48
473.997	3184.69
474.369	3179.94
474.74	3245.93
475.112	3280.28
475.484	3331.35
475.855	3381.3
476.227	3455.64
476.598	3503.33
476.97	3508.75
477.341	3629.65
477.713	3684.11
478.084	3684.11
478.455	3796.2
478.827	3808.63
479.198	3963.2
479.569	3963.65
479.94	4051.56
480.311	4116.87
480.682	4202.29
481.053	4252.23
481.424	4367.94
481.795	4416.07
482.166	4445.67
482.537	4550.08
482.908	4582.17
483.279	4695.16
483.65	4821.03
484.021	4860.58
484.391	4901.48
484.762	4993.46
485.133	5088.6
485.503	5108.48
485.874	5274.8
486.244	5263.51
486.615	5459.43
486.985	5508.24
487.356	5616.26
487.726	5637.96
488.097	5834.11
488.467	5878.18
488.837	6053.54
489.207	6078.4
489.578	6203.37
489.948	6330.14
490.318	6388.9
490.688	6423.7
491.058	6589.8
491.428	6680.42
491.798	6744.37
492.168	6942.11
492.538	6963.12
492.908	7108.2
493.278	7142.55
493.648	7234.53
494.017	7343.22
494.387	7561.75
494.757	7591.35
495.126	7696.21
495.496	7795.19
495.866	7874.96
496.235	7950.89
496.605	8088.06
496.974	8140.04
497.344	8252.13
497.713	8418.9
498.082	8491.44
498.452	8578.67
498.821	8629.07
499.19	8767.82
499.559	8868.38
499.928	8939.12
500.298	9017.31
500.667	9157.41
501.036	9140.92
501.405	9321.48
501.774	9397.86
502.143	9563.05
502.512	9608.48
502.88	9643.28
503.249	9808.92
503.618	9749.94
503.987	9931.63
504.356	10021.57
504.724	10137.05
505.093	10249.82
505.462	10251.62
505.83	10344.5
506.199	10441.9
506.567	10633.53
506.936	10664.49
507.304	10799.41
507.672	10878.73
508.041	10916.24
508.409	11059.96
508.777	11130.24
509.145	11242.78
509.514	11314.42
509.882	11350.13
510.25	11508.77
510.618	11600.97
510.986	11660.17
511.354	11704.47
511.722	11824.24
512.09	11947.17
512.458	12028.3
512.826	12095.19
513.193	12219.71
513.561	12293.83
513.929	12393.71
514.297	12486.37
514.664	12623.76
515.032	12655.85
515.4	12736.3
515.767	12806.58
516.135	12909.86
516.502	12957.09
516.869	13073.24
517.237	13190.75
517.604	13156.18
517.972	13360.69
518.339	13386.46
518.706	13563.4
519.073	13609.5
519.44	13669.16
519.808	13905.54
520.175	13877.06
520.542	14072.09
520.909	14097.4
521.276	14130.17
521.643	14419.2
522.009	14406.99
522.376	14615.58
522.743	14639.98
523.11	14809.47
523.477	14893.99
523.843	14928.11
524.21	15253.3
524.577	15329.91
524.943	15423.24
525.31	15423.92
525.676	15616
526.043	15792.95
526.409	15920.85
526.776	16033.39
527.142	16145.71
527.508	16265.02
527.874	16367.39
528.241	16521.97
528.607	16648.29
528.973	16779.36
529.339	16793.15
529.705	17043.99
530.071	17031.78
530.437	17174.6
530.803	17363.75
531.169	17442.39
531.535	17521.26
531.901	17600.13
532.267	17766.68
532.632	17823.4
532.998	17971.19
533.364	18041.25
533.73	18081.25
534.095	18249.38
534.461	18335.48
534.826	18418.64
535.192	18466.1
535.557	18698.86
535.923	18702.7
536.288	18686.2
536.653	18951.73
537.019	18901.34
537.384	18911.96
537.749	19072.63
538.114	19087.1
538.479	19106.76
538.845	19232.18
539.21	19296.36
539.575	19296.58
539.94	19450.7
540.305	19543.58
540.67	19655.67
541.034	19655.44
541.399	19672.84
541.764	19667.42
542.129	19866.29
542.494	19956
542.858	20013.63
543.223	19974.31
543.587	20182.44
543.952	20155.54
544.316	20238.03
544.681	20259.95
545.045	20340.4
545.41	20515.31
545.774	20455.65
546.138	20530.9
546.503	20671.46
546.867	20555.76
547.231	20718.01
547.595	20783.55
547.959	20861.97
548.324	20905.58
548.688	20945.58
549.052	20971.57
549.416	20920.04
549.779	21023.54
550.143	21150.77
550.507	21280.03
550.871	21432.12
551.235	21344.44
551.599	21507.15
551.962	21699.23
552.326	21610.42
552.689	21663.3
553.053	21589.4
553.417	21821.49
553.78	21860.58
554.143	22006.79
554.507	22051.54
554.87	22067.81
555.234	22272.78
555.597	22218.09
555.96	22305.09
556.323	22380.8
556.686	22462.83
557.05	22652.65
557.413	22684.06
557.776	22699.21
558.139	22927.45
558.502	22933.32
558.865	23022.13
559.228	23173.32
559.59	23099.19
559.953	23247.21
560.316	23556.58
560.679	23519.07
561.041	23563.14
561.404	23780.53
561.767	23862.56
562.129	23899.17
562.492	24083.8
562.854	24005.39
563.217	24229.56
563.579	24246.28
563.941	24352.72
564.304	24405.6
564.666	24723.11
565.028	24700.28
565.39	24854.85
565.753	25023.89
566.115	25009.88
566.477	25219.37
566.839	25308.85
567.201	25582.52
567.563	25531.9
567.925	25725.34
568.287	25698.67
568.648	25823.87
569.01	26095.5
569.372	26225.44
569.734	26255.04
570.095	26537.3
570.457	26646.45
570.819	26716.5
571.18	26643.73
571.542	26948.13
571.903	27031.75
572.265	27131.63
572.626	27462.24
572.987	27478.06
573.349	27672.86
573.71	27756.25
574.071	28008.67
574.432	28119.18
574.794	28244.82
575.155	28442.11
575.516	28435.1
575.877	28662.89
576.238	28711.02
576.599	28942.43
576.96	29216.77
577.32	29235.08
577.681	29411.57
578.042	29584.9
578.403	29642.75
578.763	29630.77
579.124	29791
579.485	30221.27
579.845	30433.24
580.206	30476.63
580.566	30482.96
580.927	30793.46
581.287	30989.16
581.648	31027.57
582.008	31301.69
582.368	31564.51
582.728	31749.14
583.089	31972.86
583.449	32213.31
583.809	32428.89
584.169	32709.56
584.529	32848.09
584.889	33369.66
585.249	33445.14
585.609	33553.84
585.969	33897.1
586.329	34070.88
586.688	34440.14
587.048	34784.54
587.408	34979.33
587.768	35445.08
588.127	35817.73
588.487	36043.71
588.846	36642.57
589.206	36717.59
589.565	37063.8
589.925	37619.04
590.284	37959.6
590.643	38278.46
591.003	38754.6
591.362	39258.32
591.721	39532.89
592.08	40069.37
592.44	40499.42
592.799	40797.26
593.158	41343.23
593.517	41641.98
593.876	42152.03
594.235	42487.16
594.593	42934.83
594.952	43428.15
595.311	43726.68
595.67	44180.67
596.029	44699.76
596.387	45262.45
596.746	45642.78
597.104	45780.41
597.463	46236.44
597.822	46827.38
598.18	47134.95
598.538	47439.8
598.897	48125.88
599.255	48083.4
599.613	48948.01
599.972	48880.89
600.33	49286.3
600.688	49710.92
601.046	49993.85
601.404	50585.25
601.762	50720.62
602.12	51208.96
602.478	51393.59
602.836	51652.57
603.194	51721.27
603.552	52200.35
603.91	52267.24
604.268	52768.25
604.625	52872.65
604.983	53287.55
605.341	53325.97
605.698	53775.68
606.056	54101.54
606.413	54160.53
606.771	54497.01
607.128	54617.01
607.485	54738.36
607.843	54891.81
608.2	55187.84
608.557	55447.95
608.914	55535.86
609.272	55814.94
609.629	56108.72
609.986	56263.52
610.343	56313.69
610.7	56590.52
611.057	56679.78
611.414	56840.91
611.771	57074.57
612.127	57150.28
612.484	57352.31
612.841	57595.01
613.198	57532.41
613.554	57680.21
613.911	57984.83
614.267	58064.6
614.624	58169.23
614.98	58354.77
615.337	58595.21
615.693	58564.48
616.05	58714.76
616.406	58883.34
616.762	58937.57
617.118	59019.61
617.475	59122.88
617.831	59319.94
618.187	59353.61
618.543	59501.18
618.899	59686.93
619.255	59692.13
619.611	59690.1
619.967	59913.37
620.323	60015.29
620.678	59940.71
621.034	60011.67
621.39	60026.59
621.746	60117.88
622.101	60430.64
622.457	60269.52
622.812	60478.55
623.168	60501.83
623.523	60536.4
623.879	60696.85
624.234	60531.88
624.589	60604.2
624.945	60682.39
625.3	60829.05
625.655	60848.94
626.01	60864.76
626.365	60895.49
626.72	60910.4
627.075	60923.96
627.43	60917.64
627.785	61020.23
628.14	61026.11
628.495	61123.51
628.85	61134.35
629.205	61087.57
629.559	61234.01
629.914	61145.88
630.269	61157.4
630.623	61064.07
630.978	61114.92
631.332	61269.04
631.687	61223.16
632.041	61193.56
632.396	61230.85
632.75	61196.5
633.104	61234.69
633.459	61107.69
633.813	61178.19
634.167	61107.01
634.521	61154.47
634.875	61134.58
635.229	61184.75
635.583	61033.34
635.937	61103.39
636.291	61028.59
636.645	61072.89
636.999	61013.45
637.352	61063.39
637.706	60961.25
638.06	61008.71
638.413	60946.11
638.767	60894.36
639.121	61031.98
639.474	60862.5
639.828	60818.66
640.181	60856.85
640.534	60942.49
640.888	60812.33
641.241	60697.3
641.594	60751.99
641.947	60853.68
642.301	60745.66
642.654	60733.46
643.007	60720.13
643.36	60796.96
643.713	60680.35
644.066	60827.02
644.419	60604.65
644.771	60445.78
645.124	60068.84
645.477	60150.2
645.83	60027.04
646.182	60064.1
646.535	59982.07
646.888	60048.73
647.24	59956.3
647.593	60060.93
647.945	59954.27
648.298	59843.31
648.65	59781.39
649.002	59641.28
649.355	59618.91
649.707	59534.85
650.059	59650.32
650.411	59918.34
650.763	60007.6
651.115	60375.5
651.467	60245.34
651.819	60175.28
652.171	60168.95
652.523	60060.26
652.875	60106.13
653.227	60037.43
653.578	60244.43
653.93	60118.79
654.282	60002.86
654.633	59963.99
654.985	60017.55
655.337	60038.79
655.688	59994.27
656.039	60061.16
656.391	59774.39
656.742	59916.76
657.094	59927.15
657.445	59933.48
657.796	59909.75
658.147	59815.07
658.498	59884.44
658.849	59923.54
659.2	59830.88
659.551	59670.66
659.902	59834.27
660.253	59756.31
660.604	59797.21
660.955	59667.95
661.306	59785.69
661.656	59740.72
662.007	59773.03
662.358	59654.62
662.708	59727.16
663.059	59663.21
663.409	59544.56
663.76	59727.84
664.11	59753.37
664.461	59665.01
664.811	59706.59
665.161	59713.15
665.511	59599.03
665.862	59629.08
666.212	59685.35
666.562	59711.11
666.912	59622.75
667.262	59544.11
667.612	59599.48
667.962	59642.19
668.312	59549.54
668.662	59683.32
669.011	59601.51
669.361	59559.93
669.711	59511.34
670.06	59514.73
670.41	59484
670.76	59456.43
671.109	59548.86
671.459	59444.91
671.808	59468.86
672.157	59512.7
672.507	59380.5
672.856	59358.35
673.205	59363.33
673.554	59486.03
673.904	59331.01
674.253	59573.94
674.602	59418.47
674.951	59011.47
675.3	58961.98
675.649	59408.97
675.998	59375.08
676.346	59399.71
676.695	59433.83
677.044	59219.6
677.393	59329.2
677.741	59369.2
678.09	59295.08
678.438	59192.26
678.787	59255.08
679.135	59291.24
679.484	59144.35
679.832	59233.61
680.181	59125.82
680.529	59175.53
680.877	59116.33
681.225	59072.94
681.573	59279.03
681.922	59039.72
682.27	59019.15
682.618	59098.47
682.966	58948.87
683.314	59008.53
683.661	58963.11
684.009	58917.01
684.357	58914.07
684.705	58818.71
685.053	58848.99
685.4	58797.47
685.748	58771.25
686.095	58764.92
686.443	58573.97
686.79	58638.15
687.138	58685.38
687.485	58662.1
687.832	58609.9
688.18	58588.66
688.527	58446.97
688.874	58463.46
689.221	58449.9
689.568	58306.86
689.915	58292.62
690.262	58329.45
690.609	58213.53
690.956	58183.02
691.303	58239.97
691.65	58063.25
691.997	58092.85
692.344	57967.88
692.69	57919.97
693.037	57931.05
693.383	57735.8
693.73	57804.05
694.077	57710.26
694.423	57788
694.769	57649.02
695.116	57600.21
695.462	57496.03
695.808	57446.54
696.155	57456.03
696.501	57224.17
696.847	57389.14
697.193	57157.28
697.539	57149.6
697.885	57050.84
698.231	56947.34
698.577	57037.29
698.923	56935.37
699.269	56751.64
699.614	56765.65
699.96	56671.87
700.306	56778.54
700.651	56546.23
700.997	56439.79
701.342	56406.79
701.688	56438.88
702.033	56294.71
702.379	56309.85
702.724	56197.53
703.069	56145.33
703.415	55900.82
703.76	55966.35
704.105	55965.68
704.45	55859.24
704.795	55735.4
705.14	55713.7
705.485	55648.85
705.83	55461.73
706.175	55570.66
706.52	55455.41
706.865	55307.84
707.209	55286.15
707.554	55132.48
707.899	55224.45
708.243	55054.06
708.588	55067.17
708.932	54862.88
709.277	54912.6
709.621	54748.76
709.966	54641.42
710.31	54728.87
710.654	54532.49
710.998	54628.99
711.342	54623.79
711.687	54378.82
712.031	54349.67
712.375	54237.59
712.719	54192.61
713.063	54173.63
713.407	54298.37
713.75	54137.47
714.094	54126.4
714.438	54000.98
714.782	53944.94
715.125	53762.8
715.469	53911.49
715.812	53691.38
716.156	53567.09
716.499	53544.72
716.843	53693.42
717.186	53521.45
717.53	53580.88
717.873	53592.86
718.216	53493.42
718.559	53298.63
718.902	53202.36
719.246	53242.81
719.589	53117.61
719.932	53059.99
720.275	53049.82
720.617	53065.41
720.96	52892.76
721.303	52937.28
721.646	52886.89
721.989	52728.92
722.331	52835.59
722.674	52680.79
723.016	52648.02
723.359	52563.96
723.701	52658.42
724.044	52571.41
724.386	52297.07
724.729	52476.73
725.071	52418.42
725.413	52390.63
725.755	52323.51
726.097	52278.09
726.439	52142.27
726.782	51978.44
727.124	52172.78
727.465	52127.36
727.807	51951.09
728.149	51933.69
728.491	51913.58
728.833	51907.25
729.175	51900.02
729.516	51805.78
729.858	51791.1
730.199	51820.47
730.541	51743.19
730.882	51652.34
731.224	51664.77
731.565	51494.83
731.906	51556.75
732.248	51498.22
732.589	51424.78
732.93	51249.64
733.271	51406.47
733.612	51308.62
733.953	51388.17
734.294	51240.83
734.635	51124.9
734.976	51260.94
735.317	51089.87
735.658	50966.26
735.999	50907.05
736.339	50925.13
736.68	51009.87
737.021	50924.9
737.361	50744.8
737.702	51057.56
738.042	50768.52
738.383	50852.36
738.723	50806.49
739.063	50559.72
739.404	50688.98
739.744	50650.56
740.084	50593.39
740.424	50604.91
740.764	50508.87
741.104	50549.55
741.444	50284.47
741.784	50310.68
742.124	50392.04
742.464	50243.34
742.804	50324.92
743.143	50033.85
743.483	50222.78
743.823	49958.15
744.162	49896.68
744.502	50011.48
744.841	49834.54
745.181	50035.89
745.52	49802.45
745.86	49883.35
746.199	49829.34
746.538	49748.21
746.877	49835.22
747.216	49648.33
747.556	49507.54
747.895	49599.52
748.234	49509.8
748.573	49345.51
748.911	49398.84
749.25	49367.43
749.589	49148.23
749.928	49290.82
750.267	49252.18
750.605	49084.5
750.944	49011.28
751.283	49040.66
751.621	48990.49
751.96	48854.9
752.298	48741.46
752.636	48814
752.975	48671.86
753.313	48568.13
753.651	48680.67
753.989	48499.88
754.327	48477.96
754.666	48169.72
755.004	48266.44
755.342	48151.19
755.679	48173.34
