Data from 152_FLMS001491_009.txt Node
Date: Thu Apr 19 16:17:52 BST 2018
User: hsy
Spectrometer: FLMS00149
Trigger mode: 0
Integration Time (sec): 1.000000E-2
Scans to average: 10
Electric dark correction enabled: true
Nonlinearity correction enabled: false
Boxcar width: 0
XAxis mode: Wavelengths
Number of Pixels in Spectrum: 2048
>>>>>Begin Spectral Data<<<<<
341.393	-14.84
341.776	-14.84
342.16	-14.84
342.543	-52.81
342.927	-79.02
343.31	-76.99
343.693	-81.96
344.077	-65.69
344.46	-59.36
344.843	-59.36
345.226	-52.81
345.61	-26.82
345.993	-15.07
346.376	-4.68
346.759	16.79
347.142	23.35
347.525	52.5
347.908	51.37
348.291	80.07
348.674	104.93
349.057	113.74
349.44	137.24
349.823	140.18
350.206	180.18
350.588	239.61
350.971	263.34
351.354	268.54
351.737	290.68
352.119	292.49
352.502	292.04
352.884	338.82
353.267	324.36
353.65	360.74
354.032	364.13
354.414	361.42
354.797	358.48
355.179	362.09
355.562	373.62
355.944	364.35
356.326	377.91
356.709	384.69
357.091	385.37
357.473	393.05
357.855	372.49
358.238	376.78
358.62	389.44
359.002	395.09
359.384	396.9
359.766	378.82
360.148	370.91
360.53	399.61
360.912	379.95
361.294	398.25
361.676	377.46
362.057	384.47
362.439	377.69
362.821	375.43
363.203	367.29
363.584	374.3
363.966	387.63
364.348	384.47
364.729	383.56
365.111	378.82
365.493	360.29
365.874	371.59
366.256	384.02
366.637	371.81
367.019	361.42
367.4	376.33
367.781	376.56
368.163	376.56
368.544	391.92
368.925	384.92
369.306	379.72
369.688	386.95
370.069	379.95
370.45	397.12
370.831	367.52
371.212	388.76
371.593	380.85
371.974	381.08
372.355	384.92
372.736	379.95
373.117	395.54
373.498	379.72
373.879	389.66
374.26	409.55
374.641	395.09
375.021	383.79
375.402	405.03
375.783	398.93
376.163	426.73
376.544	415.43
376.925	408.65
377.305	402.32
377.686	409.78
378.066	385.82
378.447	425.6
378.827	435.77
379.208	435.54
379.588	433.05
379.968	417.91
380.349	412.04
380.729	422.66
381.109	433.28
381.489	425.14
381.87	456.1
382.25	442.09
382.63	426.5
383.01	424.69
383.39	461.3
383.77	468.08
384.15	447.52
384.53	459.95
384.91	456.78
385.29	461.53
385.67	439.61
386.049	460.17
386.429	458.36
386.809	456.1
387.189	484.58
387.568	473.96
387.948	493.16
388.328	475.54
388.707	486.61
389.087	485.26
389.466	495.65
389.846	487.52
390.225	478.93
390.605	499.94
390.984	515.99
391.363	523.45
391.743	515.31
392.122	524.58
392.501	524.35
392.881	515.54
393.26	531.81
393.639	527.74
394.018	519.15
394.397	541.53
394.776	558.47
395.155	523.45
395.534	538.59
395.913	552.82
396.292	546.72
396.671	558.47
397.05	581.52
397.429	555.99
397.808	548.3
398.186	559.83
398.565	562.09
398.944	564.12
399.323	567.51
399.701	588.53
400.08	577.46
400.458	590.11
400.837	612.71
401.215	595.76
401.594	602.77
401.972	588.08
402.351	624.91
402.729	617.91
403.107	594.18
403.486	603.9
403.864	616.1
404.242	635.53
404.62	609.77
404.999	635.76
405.377	656.78
405.755	634.18
406.133	650.45
406.511	658.81
406.889	687.51
407.267	696.78
407.645	680.05
408.023	673.5
408.401	715.98
408.779	697.23
409.156	721.86
409.534	707.85
409.912	729.77
410.29	732.71
410.667	744.46
411.045	721.86
411.422	754.85
411.8	766.6
412.178	773.16
412.555	782.87
412.933	794.4
413.31	788.3
413.687	807.51
414.065	816.09
414.442	807.73
414.819	811.8
415.197	813.38
415.574	836.66
415.951	845.92
416.328	833.27
416.705	849.77
417.082	864
417.46	855.87
417.837	880.27
418.214	870.78
418.591	882.53
418.967	890.67
419.344	899.93
419.721	902.42
420.098	894.74
420.475	908.97
420.852	886.15
421.228	937
421.605	941.06
421.982	933.83
422.358	940.84
422.735	937.22
423.111	947.84
423.488	983.77
423.864	968.41
424.241	988.52
424.617	960.72
424.994	991.46
425.37	989.2
425.746	976.54
426.123	1016.99
426.499	1014.51
426.875	1027.16
427.251	1058.35
427.627	1078.91
428.003	1095.41
428.379	1088.18
428.756	1109.42
429.132	1135.63
429.507	1170.66
429.883	1118.46
430.259	1169.76
430.635	1144
431.011	1181.51
431.387	1188.51
431.763	1218.8
432.138	1172.24
432.514	1226.48
432.89	1208.85
433.265	1268.06
433.641	1252.47
434.016	1278.46
434.392	1293.6
434.767	1311.9
435.143	1301.96
435.518	1326.59
435.894	1322.97
436.269	1346.7
436.644	1365.23
437.02	1367.72
437.395	1401.84
437.77	1387.6
438.145	1409.98
438.52	1409.3
438.895	1443.87
439.271	1438.68
439.646	1422.41
440.021	1466.7
440.395	1493.36
440.77	1462.41
441.145	1470.09
441.52	1498.56
441.895	1488.85
442.27	1514.38
442.645	1514.61
443.019	1555.28
443.394	1531.1
443.769	1558.22
444.143	1527.26
444.518	1591.22
444.892	1600.93
445.267	1576.75
445.641	1598.45
446.016	1588.28
446.39	1608.62
446.764	1614.04
447.139	1627.6
447.513	1655.62
447.887	1639.12
448.262	1635.73
448.636	1639.58
449.01	1690.42
449.384	1671.89
449.758	1693.59
450.132	1708.95
450.506	1732.68
450.88	1742.85
451.254	1749.4
451.628	1753.47
452.002	1769.97
452.376	1829.4
452.75	1797.76
453.123	1848.61
453.497	1859.91
453.871	1870.08
454.244	1892.68
454.618	1921.38
454.992	1975.16
455.365	1957.76
455.739	1974.48
456.112	1985.1
456.486	2035.95
456.859	2047.02
457.232	2080.02
457.606	2131.31
457.979	2143.74
458.352	2147.58
458.725	2142.84
459.099	2188.71
459.472	2233.23
459.845	2270.52
460.218	2266.9
460.591	2314.81
460.964	2325.66
461.337	2338.77
461.71	2378.31
462.083	2389.84
462.456	2428.93
462.829	2452.21
463.201	2499.89
463.574	2508.25
463.947	2550.51
464.32	2558.42
464.692	2598.65
465.065	2552.77
465.438	2633.9
465.81	2695.82
466.183	2665.09
466.555	2738.98
466.928	2761.13
467.3	2729.49
467.672	2818.08
468.045	2843.39
468.417	2844.06
468.789	2860.11
469.161	2900.56
469.534	2939.43
469.906	2977.62
470.278	3035.7
470.65	3075.7
471.022	3110.05
471.394	3156.6
471.766	3189.14
472.138	3232.53
472.51	3270.49
472.882	3320.89
473.253	3366.08
473.625	3419.42
473.997	3491.73
474.369	3487.44
474.74	3557.94
475.112	3602.69
475.484	3622.57
475.855	3715
476.227	3732.18
476.598	3849.91
476.97	3854.21
477.341	3978.27
477.713	3986.63
478.084	4045.84
478.455	4096.01
478.827	4119.74
479.198	4282.67
479.569	4341.2
479.94	4432.72
480.311	4485.6
480.682	4543
481.053	4701.42
481.424	4687.86
481.795	4790.91
482.166	4865.71
482.537	4987.51
482.908	5056.66
483.279	5107.28
483.65	5216.88
484.021	5353.15
484.391	5355.41
484.762	5444.22
485.133	5539.59
485.503	5646.93
485.874	5743.2
486.244	5803.53
486.615	5951.1
486.985	5965.56
487.356	6140.7
487.726	6185.67
488.097	6357.42
488.467	6368.04
488.837	6565.77
489.207	6583.4
489.578	6779.55
489.948	6862.26
490.318	7018.19
490.688	6951.53
491.058	7132.76
491.428	7236.49
491.798	7337.73
492.168	7572.98
492.538	7563.94
492.908	7748.79
493.278	7883.71
493.648	7837.83
494.017	7970.93
494.387	8143.81
494.757	8179.97
495.126	8337.25
495.496	8461.09
495.866	8538.38
496.235	8661.31
496.605	8788.31
496.974	8854.75
497.344	8986.28
497.713	9103.11
498.082	9176.1
498.452	9234.4
498.821	9446.15
499.19	9439.82
499.559	9579.71
499.928	9762.53
500.298	9803.88
500.667	9875.07
501.036	9936.08
501.405	10037.32
501.774	10135.62
502.143	10221.27
502.512	10356.86
502.88	10532.45
503.249	10472.11
503.618	10604.76
503.987	10709.62
504.356	10821.71
504.724	11003.85
505.093	11033.23
505.462	11120
505.83	11166.33
506.199	11262.83
506.567	11463.95
506.936	11444.97
507.304	11625.53
507.672	11692.64
508.041	11815.58
508.409	11896.25
508.777	11941.45
509.145	12153.65
509.514	12208.56
509.882	12284.04
510.25	12370.14
510.618	12498.05
510.986	12524.71
511.354	12655.78
511.722	12810.13
512.09	12826.17
512.458	12828.66
512.826	13060.74
513.193	13074.3
513.561	13224.81
513.929	13303.22
514.297	13426.38
514.664	13552.03
515.032	13560.84
515.4	13771.46
515.767	13688.98
516.135	13793.38
516.502	13788.86
516.869	14086.48
517.237	14167.16
517.604	14102.52
517.972	14414.83
518.339	14432.91
518.706	14528.05
519.073	14663.64
519.44	14626.35
519.808	14866.12
520.175	14877.65
520.542	14994.48
520.909	15181.14
521.276	15279.44
521.643	15408.03
522.009	15450.96
522.376	15683.5
522.743	15777.51
523.11	15955.13
523.477	16052.98
523.843	16119.19
524.21	16311.51
524.577	16444.84
524.943	16603.02
525.31	16635.79
525.676	16889.8
526.043	17031.04
526.409	17153.74
526.776	17286.4
527.142	17423.79
527.508	17517.58
527.874	17637.8
528.241	17762.77
528.607	17807.06
528.973	17942.88
529.339	18091.12
529.705	18386.25
530.071	18374.5
530.437	18511
530.803	18651.78
531.169	18805.45
531.535	18790.54
531.901	18885.68
532.267	19001.15
532.632	19099
532.998	19294.93
533.364	19368.6
533.73	19506.45
534.095	19649.95
534.461	19682.49
534.826	19754.58
535.192	19894.01
535.557	20117.28
535.923	20014.91
536.288	20243.83
536.653	20277.5
537.019	20261.46
537.384	20409.93
537.749	20464.17
538.114	20482.92
538.479	20539.87
538.845	20626.87
539.21	20704.61
539.575	20759.75
539.94	20858.73
540.305	20992.29
540.67	21071.61
541.034	21230.25
541.399	21144.6
541.764	21197.71
542.129	21327.42
542.494	21430.02
542.858	21470.47
543.223	21449.22
543.587	21591.14
543.952	21559.5
544.316	21729.89
544.681	21646.96
545.045	21842.21
545.41	21825.94
545.774	21889.44
546.138	21959.95
546.503	22100.73
546.867	22052.6
547.231	22206.94
547.595	22205.59
547.959	22354.96
548.324	22434.28
548.688	22472.02
549.052	22441.74
549.416	22479.25
549.779	22537.56
550.143	22637.44
550.507	22860.94
550.871	22897.1
551.235	22873.14
551.599	23037.66
551.962	23011.22
552.326	23109.75
552.689	23167.82
553.053	23079.69
553.417	23285.79
553.78	23613.46
554.143	23567.81
554.507	23483.52
554.87	23737.53
555.234	23802.83
555.597	23779.11
555.96	23900.23
556.323	24027.24
556.686	24051.42
557.05	24220.68
557.413	24295.03
557.776	24274.46
558.139	24439.88
558.502	24507.9
558.865	24544.06
559.228	24766.88
559.59	24724.62
559.953	24808.01
560.316	25174.1
560.679	25045.51
561.041	25206.19
561.404	25437.59
561.767	25569.79
562.129	25561.21
562.492	25726.85
562.854	25828.09
563.217	25765.04
563.579	25874.87
563.941	25986.51
564.304	26204.13
564.666	26378.13
565.028	26354.41
565.39	26516.44
565.753	26684.11
566.115	26745.81
566.477	26982.19
566.839	27087.72
567.201	27295.62
567.563	27258.11
567.925	27415.17
568.287	27580.14
568.648	27536.3
569.01	27863.07
569.372	28070.97
569.734	28098.99
570.095	28214.92
570.457	28477.29
570.819	28589.6
571.18	28567.68
571.542	28782.14
571.903	28829.14
572.265	28972.87
572.626	29310.94
572.987	29241.56
573.349	29406.08
573.71	29619.86
574.071	29771.72
574.432	29981.66
574.794	30318.14
575.155	30305.71
575.516	30204.47
575.877	30489.21
576.238	30602.2
576.599	30693.5
576.96	30830.22
577.32	30975.75
577.681	31179.14
578.042	31342.52
578.403	31521.28
578.763	31587.49
579.124	31749.74
579.485	32053.92
579.845	32110.64
580.206	32234.25
580.566	32488.03
580.927	32601.25
581.287	32810.51
581.648	32943.39
582.008	33209.37
582.368	33463.15
582.728	33740.43
583.089	33874.89
583.449	34080.76
583.809	34276.68
584.169	34421.99
584.529	34698.59
584.889	35180.61
585.249	35219.94
585.609	35300.84
585.969	35789.41
586.329	36000.25
586.688	36371.09
587.048	36626.23
587.408	36927.46
587.768	37223.95
588.127	37589.82
588.487	37884.72
588.846	38442.45
589.206	38447.65
589.565	38880.86
589.925	39448.98
590.284	39651.23
590.643	39948.4
591.003	40556.74
591.362	40987.02
591.721	41348.14
592.08	41672.2
592.44	42135.23
592.799	42518.95
593.158	42933.18
593.517	43295.66
593.876	43827.39
594.235	44113.26
594.593	44538.79
594.952	45125.21
595.311	45320.01
595.67	45840.9
596.029	46225.52
596.387	46658.5
596.746	47179.62
597.104	47260.97
597.463	47650.57
597.822	48341.17
598.18	48469.08
598.538	48695.06
598.897	49323.75
599.255	49315.84
599.613	50131.41
599.972	50215.93
600.33	50566.88
600.688	50750.83
601.046	51143.36
601.404	51601.43
601.762	51753.06
602.12	52166.61
602.478	52392.82
602.836	52768.4
603.194	52774.95
603.552	53023.08
603.91	53196.86
604.268	53537.19
604.625	53747.13
604.983	54138.08
605.341	54075.26
605.698	54488.81
606.056	54808.8
606.413	54849.02
606.771	55259.41
607.128	55364.49
607.485	55460.99
607.843	55690.13
608.2	55963.57
608.557	56146.84
608.914	56243.34
609.272	56474.29
609.629	56772.82
609.986	56958.8
610.343	57013.03
610.7	57355.4
611.057	57398.11
611.414	57491.44
611.771	57733.47
612.127	57901.82
612.484	57990.18
612.841	58165.32
613.198	58216.84
613.554	58323.28
613.911	58629.72
614.267	58675.36
614.624	58819.09
614.98	58991.97
615.337	59129.14
615.693	59210.49
616.05	59343.59
616.406	59472.41
616.762	59551.73
617.118	59611.84
617.475	59713.08
617.831	59901.55
618.187	59975.22
618.543	60015.44
618.899	60256.34
619.255	60312.61
619.611	60330.69
619.967	60488.42
620.323	60595.09
620.678	60578.36
621.034	60605.26
621.39	60642.32
621.746	60734.29
622.101	61081.85
622.457	60867.4
622.812	60995.08
623.168	61176.54
623.523	61173.38
623.879	61293.15
624.234	61237.78
624.589	61271
624.945	61322.75
625.3	61394.61
625.655	61480.26
626.01	61440.94
626.365	61493.37
626.72	61549.41
627.075	61533.82
627.43	61614.27
627.785	61603.87
628.14	61590.09
628.495	61653.36
628.85	61732.68
629.205	61749.41
629.559	61820.14
629.914	61664.89
630.269	61805.68
630.623	61683.65
630.978	61663.08
631.332	61817.88
631.687	61790.54
632.041	61734.04
632.396	61825.11
632.75	61806.81
633.104	61826.92
633.459	61707.15
633.813	61735.85
634.167	61729.52
634.521	61726.58
634.875	61766.58
635.229	61786.47
635.583	61593.93
635.937	61656.75
636.291	61653.14
636.645	61726.13
636.999	61653.14
637.352	61741.95
637.706	61564.33
638.06	61714.61
638.413	61602.74
638.767	61551.22
639.121	61608.62
639.474	61455.63
639.828	61453.14
640.181	61540.37
640.534	61511
640.888	61461.51
641.241	61374.5
641.594	61388.96
641.947	61443.43
642.301	61327.95
642.654	61336.54
643.007	61292.7
643.36	61339.93
643.713	61315.75
644.066	61360.94
644.419	61222.42
644.771	61004.34
645.124	60783.56
645.477	60769.77
645.83	60734.97
646.182	60629.21
646.535	60552.83
646.888	60587.86
647.24	60488.42
647.593	60615.65
647.945	60560.96
648.298	60501.53
648.65	60418.37
649.002	60304.7
649.355	60311.93
649.707	60249.56
650.059	60278.94
650.411	60535.65
650.763	60631.7
651.115	60927.28
651.467	60862.88
651.819	60862.43
652.171	60780.62
652.523	60702.43
652.875	60747.85
653.227	60711.24
653.578	60771.13
653.93	60693.62
654.282	60584.92
654.633	60568.87
654.985	60615.43
655.337	60607.06
655.688	60605.93
656.039	60616.1
656.391	60382.21
656.742	60493.17
657.094	60448.65
657.445	60487.52
657.796	60506.73
658.147	60405.04
658.498	60482.1
658.849	60461.76
659.2	60396.45
659.551	60351.03
659.902	60575.65
660.253	60377.92
660.604	60406.17
660.955	60270.12
661.306	60463.34
661.656	60293.85
662.007	60318.94
662.358	60351.48
662.708	60320.97
663.059	60339.95
663.409	60145.61
663.76	60316.22
664.11	60269.22
664.461	60322.1
664.811	60286.4
665.161	60252.72
665.511	60206.62
665.862	60230.8
666.212	60259.05
666.562	60255.21
666.912	60242.78
667.262	60174.08
667.612	60201.2
667.962	60183.12
668.312	60088.66
668.662	60211.59
669.011	60198.49
669.361	60117.36
669.711	60189
670.06	60106.96
670.41	60061.09
670.76	60057.25
671.109	60232.61
671.459	60130.47
671.808	60097.02
672.157	60154.42
672.507	59987.42
672.856	60015.67
673.205	60072.62
673.554	60116.68
673.904	60037.14
674.253	60223.12
674.602	60014.31
674.951	59725.73
675.3	59597.15
675.649	60028.55
675.998	60085.04
676.346	60000.98
676.695	60106.29
677.044	59913.07
677.393	59975.22
677.741	59992.62
678.09	59978.61
678.438	59860.19
678.787	59898.38
679.135	59898.61
679.484	59772.28
679.832	59836.46
680.181	59766.18
680.529	59784.94
680.877	59746.52
681.225	59738.39
681.573	59869.23
681.922	59758.73
682.27	59689.35
682.618	59666.52
682.966	59649.8
683.314	59636.02
683.661	59596.02
684.009	59500.88
684.357	59442.8
684.705	59410.49
685.053	59489.35
685.4	59429.02
685.748	59308.12
686.095	59335.46
686.443	59185.86
686.79	59183.37
687.138	59268.57
687.485	59266.53
687.832	59214.56
688.18	59230.38
688.527	59171.17
688.874	59086.43
689.221	59025.41
689.568	58985.41
689.915	58875.36
690.262	59005.98
690.609	58861.57
690.956	58740.9
691.303	58745.42
691.65	58659.77
691.997	58615.03
692.344	58571.64
692.69	58522.37
693.037	58606.89
693.383	58342.49
693.73	58447.8
694.077	58354.47
694.423	58277.63
694.769	58193.12
695.116	58189.73
695.462	58150.63
695.808	58049.17
696.155	58124.42
696.501	57885.55
696.847	58000.81
697.193	57789.51
697.539	57861.37
697.885	57676.07
698.231	57625
698.577	57552.46
698.923	57571.44
699.269	57388.84
699.614	57266.36
699.96	57214.39
700.306	57308.62
700.651	57182.52
700.997	57119.25
701.342	57065.01
701.688	57021.85
702.033	56907.05
702.379	56872.25
702.724	56767.84
703.069	56902.76
703.415	56587.96
703.76	56521.52
704.105	56552.26
704.45	56409.21
704.795	56380.28
705.14	56340.28
705.485	56318.59
705.83	56131.25
706.175	56266.61
706.52	56222.77
706.865	56068.65
707.209	55931.03
707.554	55886.28
707.899	55928.09
708.243	55754.99
708.588	55732.84
708.932	55616.01
709.277	55694.43
709.621	55537.14
709.966	55422.34
710.31	55463.7
710.654	55228.45
710.998	55309.58
711.342	55330.82
711.687	55182.35
712.031	55047.21
712.375	54974.9
712.719	54948.46
713.063	54893.54
713.407	54987.33
713.75	54856.71
714.094	54836.82
714.438	54769.7
714.782	54660.33
715.125	54587.11
715.469	54705.75
715.812	54414.91
716.156	54312.77
716.499	54442.48
716.843	54362.26
717.186	54227.57
717.53	54438.41
717.873	54337.62
718.216	54261.47
718.559	54139.21
718.902	53868.71
719.246	53909.39
719.589	53772.67
719.932	53782.16
720.275	53781.26
720.617	53742.61
720.96	53651.54
721.303	53734.48
721.646	53688.15
721.989	53441.38
722.331	53555.27
722.674	53471.21
723.016	53402.51
723.359	53276.64
723.701	53314.6
724.044	53203.64
724.386	52979.02
724.729	53250.65
725.071	53273.02
725.413	53165.23
725.755	53084.1
726.097	52993.25
726.439	52938.34
726.782	52832.81
727.124	53018.11
727.465	52881.84
727.807	52872.35
728.149	52829.42
728.491	52561.17
728.833	52645.01
729.175	52733.15
729.516	52512.81
729.858	52443.89
730.199	52542.19
730.541	52446.38
730.882	52441.63
731.224	52503.55
731.565	52192.82
731.906	52312.82
732.248	52261.3
732.589	52097.23
732.93	52013.84
733.271	52155.08
733.612	52139.94
733.953	52138.59
734.294	52021.08
734.635	51975.43
734.976	52032.83
735.317	51921.42
735.658	51873.51
735.999	51745.15
736.339	51731.37
736.68	51796.45
737.021	51702.89
737.361	51585.38
737.702	51805.71
738.042	51621.99
738.383	51658.15
738.723	51629.45
739.063	51378.83
739.404	51608.43
739.744	51427.19
740.084	51414.76
740.424	51417.93
740.764	51307.42
741.104	51442.79
741.444	51180.87
741.784	51097.48
742.124	51194.88
742.464	51115.79
742.804	50957.37
743.143	50932.97
743.483	50989.01
743.823	50882.35
744.162	50907.21
744.502	50857.94
744.841	50773.65
745.181	50838.96
745.52	50660.66
745.86	50617.72
746.199	50581.57
746.538	50664.73
746.877	50614.56
747.216	50536.59
747.556	50540.66
747.895	50510.83
748.234	50334.34
748.573	50322.14
748.911	50227.9
749.25	50264.51
749.589	50172.76
749.928	50257.96
750.267	50245.3
750.605	50002.82
750.944	49921.02
751.283	49888.25
751.621	49980
751.96	49733.68
752.298	49759.21
752.636	49748.14
752.975	49495.72
753.313	49353.12
753.651	49619.56
753.989	49416.85
754.327	49407.36
754.666	49165.78
755.004	49196.97
