Data from 152_FLMS001491_008.txt Node
Date: Thu Apr 19 16:17:50 BST 2018
User: hsy
Spectrometer: FLMS00149
Trigger mode: 0
Integration Time (sec): 1.000000E-2
Scans to average: 10
Electric dark correction enabled: true
Nonlinearity correction enabled: false
Boxcar width: 0
XAxis mode: Wavelengths
Number of Pixels in Spectrum: 2048
>>>>>Begin Spectral Data<<<<<
341.393	-28.28
341.776	-28.28
342.16	-28.28
342.543	-47.03
342.927	-56.3
343.31	-74.83
343.693	-64.21
344.077	-59.24
344.46	-52.23
344.843	-59.69
345.226	-28.28
345.61	-23.98
345.993	-4.1
346.376	-5.68
346.759	-1.38
347.142	22.8
347.525	49.91
347.908	45.17
348.291	75.22
348.674	75.9
349.057	104.6
349.44	129.91
349.823	143.47
350.206	184.6
350.588	253.07
350.971	239.74
351.354	269.12
351.737	289
352.119	310.92
352.502	327.42
352.884	300.98
353.267	334.88
353.65	344.14
354.032	344.14
354.414	364.26
354.797	380.53
355.179	381.88
355.562	366.74
355.944	386.85
356.326	369.23
356.709	389.11
357.091	393.86
357.473	389.79
357.855	380.98
358.238	379.85
358.62	388.21
359.002	374.88
359.384	399.51
359.766	394.09
360.148	388.89
360.53	406.51
360.912	413.52
361.294	413.75
361.676	383.69
362.057	390.92
362.439	400.19
362.821	392.28
363.203	405.61
363.584	374.88
363.966	379.85
364.348	398.15
364.729	389.57
365.111	367.19
365.493	390.24
365.874	410.58
366.256	385.95
366.637	372.39
367.019	376.23
367.4	386.63
367.781	387.98
368.163	383.24
368.544	369.68
368.925	395.67
369.306	376.91
369.688	385.05
370.069	376.23
370.45	380.98
370.831	373.3
371.212	384.14
371.593	396.12
371.974	385.95
372.355	395.67
372.736	409.68
373.117	372.62
373.498	375.56
373.879	373.07
374.26	391.15
374.641	386.18
375.021	367.65
375.402	413.07
375.783	403.35
376.163	417.81
376.544	416.46
376.925	408.32
377.305	394.09
377.686	404.93
378.066	413.52
378.447	411.26
378.827	430.69
379.208	422.11
379.588	425.05
379.968	438.15
380.349	417.14
380.729	410.58
381.109	412.16
381.489	420.98
381.87	429.11
382.25	454.65
382.63	444.25
383.01	426.85
383.39	428.89
383.77	436.8
384.15	444.71
384.53	429.79
384.91	459.39
385.29	475.44
385.67	453.97
386.049	471.15
386.429	469.34
386.809	460.07
387.189	462.33
387.568	460.07
387.948	479.28
388.328	468.89
388.707	463.69
389.087	470.47
389.466	463.01
389.846	491.48
390.225	496.23
390.605	498.94
390.984	478.38
391.363	500.3
391.743	517.02
392.122	498.26
392.501	522.22
392.881	542.78
393.26	520.18
393.639	520.64
394.018	519.51
394.397	535.1
394.776	531.26
395.155	520.41
395.534	524.93
395.913	545.72
396.292	545.27
396.671	542.56
397.05	534.19
397.429	565.15
397.808	553.63
398.186	543.91
398.565	554.99
398.944	557.92
399.323	570.8
399.701	556.34
400.08	564.93
400.458	559.51
400.837	587.3
401.215	569
401.594	600.86
401.972	559.73
402.351	594.53
402.729	590.24
403.107	606.74
403.486	594.31
403.864	612.16
404.242	597.47
404.62	616
404.999	617.36
405.377	618.49
405.755	634.53
406.133	624.81
406.511	630.24
406.889	640.18
407.267	655.1
407.645	638.37
408.023	671.14
408.401	638.83
408.779	682.44
409.156	685.38
409.534	677.92
409.912	692.61
410.29	709.11
410.667	704.81
411.045	730.57
411.422	715.89
411.8	745.94
412.178	745.04
412.555	730.57
412.933	741.2
413.31	758.14
413.687	787.52
414.065	762.44
414.442	746.84
414.819	776.9
415.197	808.76
415.574	797.69
415.951	811.25
416.328	824.13
416.705	792.27
417.082	820.97
417.46	826.84
417.837	817.8
418.214	839.95
418.591	851.7
418.967	851.7
419.344	865.94
419.721	875.43
420.098	851.93
420.475	870.46
420.852	887.86
421.228	895.54
421.605	890.34
421.982	897.12
422.358	909.33
422.735	895.32
423.111	924.02
423.488	923.56
423.864	917.24
424.241	941.87
424.617	949.55
424.994	940.96
425.37	978.25
425.746	973.05
426.123	948.87
426.499	967.18
426.875	983.9
427.251	997.91
427.627	1005.82
428.003	1011.24
428.379	1034.29
428.756	1050.34
429.132	1043.79
429.507	1070.9
429.883	1085.59
430.259	1066.38
430.635	1122.43
431.011	1102.77
431.387	1107.97
431.763	1101.19
432.138	1128.76
432.514	1149.55
432.89	1179.38
433.265	1176.21
433.641	1230
434.016	1200.39
434.392	1220.96
434.767	1245.36
435.143	1232.93
435.518	1259.83
435.894	1252.14
436.269	1260.73
436.644	1299.6
437.02	1307.73
437.395	1297.56
437.77	1333.27
438.145	1316.1
438.52	1317
438.895	1354.51
439.271	1356.32
439.646	1395.64
440.021	1395.64
440.395	1376.43
440.77	1381.18
441.145	1396.09
441.52	1429.99
441.895	1426.83
442.27	1418.01
442.645	1460.27
443.019	1464.79
443.394	1457.11
443.769	1440.39
444.143	1473.38
444.518	1479.48
444.892	1483.32
445.267	1479.71
445.641	1494.4
446.016	1530.55
446.39	1521.97
446.764	1539.82
447.139	1511.8
447.513	1562.87
447.887	1568.74
448.262	1558.8
448.636	1565.35
449.01	1596.77
449.384	1594.05
449.758	1612.81
450.132	1622.53
450.506	1638.57
450.88	1653.26
451.254	1658.23
451.628	1666.14
452.002	1693.94
452.376	1713.37
452.75	1723.54
453.123	1698.91
453.497	1754.05
453.871	1757.67
454.244	1796.76
454.618	1806.25
454.992	1841.05
455.365	1847.83
455.739	1881.28
456.112	1891.9
456.486	1905.91
456.859	1942.29
457.232	1985.91
457.606	1994.04
457.979	1999.02
458.352	2022.97
458.725	2048.51
459.099	2061.61
459.472	2098
459.845	2125.57
460.218	2123.76
460.591	2126.47
460.964	2142.74
461.337	2193.81
461.71	2258.44
462.083	2244.21
462.456	2279.46
462.829	2295.73
463.201	2307.48
463.574	2317.2
463.947	2346.58
464.32	2378.44
464.692	2401.04
465.065	2410.3
465.438	2458.66
465.81	2511.09
466.183	2513.13
466.555	2523.75
466.928	2581.82
467.3	2571.88
467.672	2593.35
468.045	2668.6
468.417	2636.51
468.789	2713.57
469.161	2698.21
469.534	2730.75
469.906	2780.92
470.278	2804.64
470.65	2910.86
471.022	2883.29
471.394	2926
471.766	2943.85
472.138	3009.38
472.51	3034.02
472.882	3104.3
473.253	3131.64
473.625	3155.37
473.997	3224.52
474.369	3261.58
474.74	3307
475.112	3340.22
475.484	3345.87
475.855	3483.72
476.227	3490.05
476.598	3627
476.97	3634.68
477.341	3659.76
477.713	3714.9
478.084	3806.43
478.455	3874.45
478.827	3887.55
479.198	3999.64
479.569	4003.26
479.94	4159.41
480.311	4160.31
480.682	4262.01
481.053	4379.07
481.424	4440.76
481.795	4463.81
482.166	4549.46
482.537	4602.56
482.908	4691.6
483.279	4771.37
483.65	4833.07
484.021	4968.43
484.391	5042.33
484.762	5080.52
485.133	5178.59
485.503	5170.23
485.874	5330.23
486.244	5411.81
486.615	5504.01
486.985	5580.39
487.356	5699.48
487.726	5781.97
488.097	5888.86
488.467	5960.72
488.837	6028.51
489.207	6166.59
489.578	6279.35
489.948	6315.51
490.318	6429.18
490.688	6517.77
491.058	6730.64
491.428	6734.26
491.798	6807.48
492.168	7013.35
492.538	7053.57
492.908	7143.96
493.278	7301.93
493.648	7353
494.017	7484.75
494.387	7630.05
494.757	7670.5
495.126	7713.89
495.496	7852.65
495.866	7939.65
496.235	8046.54
496.605	8185.97
496.974	8272.52
497.344	8404.04
497.713	8418.73
498.082	8520.88
498.452	8571.5
498.821	8785.96
499.19	8759.74
499.559	8983.24
499.928	9032.05
500.298	9068.43
500.667	9255.55
501.036	9297.13
501.405	9353.17
501.774	9472.49
502.143	9512.49
502.512	9613.73
502.88	9774.86
503.249	9809.88
503.618	9956.09
503.987	10019.82
504.356	10131.68
504.724	10230.89
505.093	10263.88
505.462	10288.97
505.83	10379.36
506.199	10457.32
506.567	10629.52
506.936	10692.8
507.304	10830.2
507.672	10928.05
508.041	10967.14
508.409	11083.97
508.777	11187.25
509.145	11311.09
509.514	11323.97
509.882	11438.32
510.25	11518.09
510.618	11690.29
510.986	11651.64
511.354	11790.85
511.722	11934.8
512.09	12088.24
512.458	12029.94
512.826	12215.24
513.193	12217.5
513.561	12297.95
513.929	12380.44
514.297	12526.2
514.664	12590.6
515.032	12667.44
515.4	12794.21
515.767	12807.09
516.135	12952.4
516.502	12884.83
516.869	13148.78
517.237	13263.35
517.604	13203.69
517.972	13442.56
518.339	13431.48
518.706	13632.38
519.073	13663.34
519.44	13739.5
519.808	13854.52
520.175	13900.17
520.542	14152.82
520.909	14090.67
521.276	14220.16
521.643	14406.82
522.009	14487.05
522.376	14654.05
522.743	14689.98
523.11	14911.67
523.477	15096.52
523.843	15072.57
524.21	15292.45
524.577	15334.94
524.943	15485.67
525.31	15568.38
525.676	15748.03
526.043	15882.04
526.409	15952.09
526.776	16072.09
527.142	16152.09
527.508	16280
527.874	16530.84
528.241	16595.69
528.607	16629.37
528.973	16890.6
529.339	16884.5
529.705	17015.12
530.071	17190.03
530.437	17367.2
530.803	17463.24
531.169	17521.09
531.535	17478.83
531.901	17725.38
532.267	17717.25
532.632	17927.86
532.998	17926.28
533.364	18062.1
533.73	18183.9
534.095	18334.86
534.461	18350.22
534.826	18585.7
535.192	18632.48
535.557	18777.56
535.923	18718.58
536.288	18961.51
536.653	19027.72
537.019	19055.74
537.384	19084.67
537.749	19149.98
538.114	19197.89
538.479	19229.3
538.845	19474.49
539.21	19388.16
539.575	19503.19
539.94	19478.33
540.305	19639.23
540.67	19671.09
541.034	19795.38
541.399	19892.33
541.764	19976.17
542.129	20075.83
542.494	20155.6
542.858	20075.83
543.223	20061.59
543.587	20251.87
543.952	20322.15
544.316	20397.18
544.681	20391.53
545.045	20478.08
545.41	20655.02
545.774	20516.72
546.138	20525.76
546.503	20723.04
546.867	20772.31
547.231	20845.53
547.595	20953.09
547.959	20976.37
548.324	21074.45
548.688	21052.3
549.052	21092.52
549.416	21189.02
549.779	21218.85
550.143	21337.49
550.507	21395.34
550.871	21501.1
551.235	21431.05
551.599	21580.87
551.962	21735.45
552.326	21774.99
552.689	21742.68
553.053	21702.9
553.417	21916.46
553.78	22165.72
554.143	22039.39
554.507	22080.07
554.87	22297.46
555.234	22443
555.597	22301.31
555.96	22456.1
556.323	22595.76
556.686	22647.29
557.05	22712.14
557.413	22870.56
557.776	22837.56
558.139	23058.8
558.502	23123.21
558.865	23085.24
559.228	23171.79
559.59	23250.66
559.953	23356.42
560.316	23616.07
560.679	23569.07
561.041	23760.25
561.404	23858.33
561.767	24120.92
562.129	24000.92
562.492	24287.69
562.854	24314.13
563.217	24302.61
563.579	24444.75
563.941	24400.23
564.304	24666.89
564.666	24907.11
565.028	24857.85
565.39	24997.28
565.753	25284.28
566.115	25325.41
566.477	25399.53
566.839	25418.06
567.201	25693.76
567.563	25771.5
567.925	25893.53
568.287	25993.41
568.648	26054.2
569.01	26378.26
569.372	26588.65
569.734	26584.13
570.095	26876.78
570.457	26967.85
570.819	26971.69
571.18	27090.11
571.542	27321.51
571.903	27419.14
572.265	27515.63
572.626	27751.11
572.987	27759.02
573.349	28004.21
573.71	28115.16
574.071	28165.33
574.432	28430.86
574.794	28623.4
575.155	28659.11
575.516	28734.58
575.877	28860.23
576.238	29028.36
576.599	29211.18
576.96	29345.41
577.32	29501.12
577.681	29660.43
578.042	29897.94
578.403	29975.68
578.763	30027.88
579.124	30180.42
579.485	30525.5
579.845	30768.88
580.206	30692.72
580.566	30887.97
580.927	30946.95
581.287	31186.5
581.648	31381.07
582.008	31685.47
582.368	32001.84
582.728	31950.09
583.089	32197.32
583.449	32461.49
583.809	32678.43
584.169	33106.9
584.529	33133.34
584.889	33641.8
585.249	33613.55
585.609	33799.76
585.969	34378.5
586.329	34475.9
586.688	34817.14
587.048	35163.34
587.408	35488.53
587.768	35674.74
588.127	36115.41
588.487	36242.63
588.846	36947.7
589.206	37058.66
589.565	37471.08
589.925	38074
590.284	38200.55
590.643	38680.99
591.003	39153.97
591.362	39645.48
591.721	39963.89
592.08	40359.81
592.44	40815.4
592.799	41117.76
593.158	41440.24
593.517	41845.43
593.876	42368.58
594.235	42648.34
594.593	43134.66
594.952	43540.3
595.311	43971.92
595.67	44297.34
596.029	44858.68
596.387	45314.26
596.746	45978.65
597.104	46038.99
597.463	46401.46
597.822	47049.13
598.18	47153.76
598.538	47728.89
598.897	48265.14
599.255	48271.7
599.613	49011.79
599.972	49085.23
600.33	49507.14
600.688	49758.66
601.046	50169.27
601.404	50666.66
601.762	50835.92
602.12	51041.79
602.478	51616.47
602.836	51804.49
603.194	51918.38
603.552	52221.2
603.91	52372.38
604.268	52790.9
604.625	52976.21
604.983	53297.33
605.341	53319.02
605.698	53720.82
606.056	54105.44
606.413	54113.8
606.771	54472.44
607.128	54620.23
607.485	54735.03
607.843	54972.31
608.2	55210.5
608.557	55442.36
608.914	55553.09
609.272	55909.69
609.629	56140.64
609.986	56245.95
610.343	56368.89
610.7	56743.79
611.057	56760.74
611.414	56858.59
611.771	57158.02
612.127	57297.22
612.484	57362.31
612.841	57531.34
613.198	57581.96
613.554	57654.73
613.911	57930.65
614.267	58034.38
614.624	58162.96
614.98	58312.11
615.337	58532.44
615.693	58612.67
616.05	58735.15
616.406	58866.22
616.762	58853.11
617.118	59023.05
617.475	59100.79
617.831	59292.42
618.187	59381.46
618.543	59488.35
618.899	59659.42
619.255	59725.18
619.611	59639.31
619.967	59935.12
620.323	59990.48
620.678	59922.46
621.034	59986.64
621.39	60063.48
621.746	60136.02
622.101	60390.7
622.457	60244.94
622.812	60432.28
623.168	60491.49
623.523	60446.74
623.879	60565.16
624.234	60504.82
624.589	60675.44
624.945	60641.54
625.3	60720.18
625.655	60781.2
626.01	60846.28
626.365	60901.2
626.72	60858.94
627.075	60866.85
627.43	60901.42
627.785	60966.96
628.14	60990.91
628.495	61082.43
628.85	61110.23
629.205	61068.42
629.559	61199.49
629.914	61101.64
630.269	61160.62
630.623	61083.79
630.978	61020.74
631.332	61153.39
631.687	61205.59
632.041	61139.38
632.396	61119.72
632.75	61166.27
633.104	61219.83
633.459	61119.72
633.813	61176.22
634.167	61145.26
634.521	61158.14
634.875	61175.99
635.229	61083.34
635.583	61034.75
635.937	61088.76
636.291	61024.13
636.645	61084.92
636.999	61004.24
637.352	61031.14
637.706	60964.24
638.06	61049.21
638.413	61044.24
638.767	60903.23
639.121	60991.81
639.474	60859.61
639.828	60871.82
640.181	60875.43
640.534	60891.93
640.888	60744.59
641.241	60712.5
641.594	60792.05
641.947	60829.56
642.301	60669.56
642.654	60771.93
643.007	60666.85
643.36	60760.41
643.713	60697.58
644.066	60754.08
644.419	60637.93
644.771	60304.37
645.124	60097.6
645.477	60140.31
645.83	60026.64
646.182	60039.07
646.535	59915.68
646.888	59936.02
647.24	59935.34
647.593	60152.74
647.945	59935.8
648.298	59841.79
648.65	59769.02
649.002	59719.76
649.355	59676.59
649.707	59595.24
650.059	59628.69
650.411	59864.84
650.763	60027.77
651.115	60360.87
651.467	60192.51
651.819	60258.73
652.171	60165.62
652.523	60079.3
652.875	60098.96
653.227	60010.15
653.578	60195.68
653.93	60076.81
654.282	60021.9
654.633	60009.92
654.985	60069.13
655.337	60023.48
655.688	60007.21
656.039	60058.51
656.391	59795.01
656.742	59886.76
657.094	59962.01
657.445	59989.58
657.796	59997.72
658.147	59896.02
658.498	59924.27
658.849	59946.87
659.2	59823.94
659.551	59726.76
659.902	59941.9
660.253	59785.74
660.604	59839.08
660.955	59661.23
661.306	59846.76
661.656	59721.79
662.007	59766.54
662.358	59731.73
662.708	59721.79
663.059	59715.24
663.409	59515.69
663.76	59658.74
664.11	59723.83
664.461	59726.54
664.811	59653.32
665.161	59639.31
665.511	59593.21
665.862	59612.42
666.212	59652.87
666.562	59643.38
666.912	59643.38
667.262	59563.15
667.612	59594.79
667.962	59553.89
668.312	59483.83
668.662	59644.05
669.011	59584.85
669.361	59575.58
669.711	59569.03
670.06	59478.41
670.41	59515.69
670.76	59481.57
671.109	59552.76
671.459	59543.04
671.808	59452.87
672.157	59454.45
672.507	59404.51
672.856	59432.53
673.205	59435.7
673.554	59487.45
673.904	59395.02
674.253	59564.96
674.602	59347.34
674.951	59145.76
675.3	58949.16
675.649	59429.37
675.998	59403.38
676.346	59379.65
676.695	59449.03
677.044	59298.75
677.393	59328.13
677.741	59312.08
678.09	59264.18
678.438	59215.36
678.787	59264.63
679.135	59269.15
679.484	59088.81
679.832	59208.58
680.181	59132.2
680.529	59152.77
680.877	59101.02
681.225	59066.67
681.573	59223.73
681.922	59076.38
682.27	59014.01
682.618	59069.38
682.966	58983.96
683.314	58992.54
683.661	58986.44
684.009	58832.55
684.357	58869.16
684.705	58753.46
685.053	58860.34
685.4	58672.33
685.748	58646.79
686.095	58758.43
686.443	58579.22
686.79	58560.24
687.138	58650.18
687.485	58611.31
687.832	58562.05
688.18	58536.96
688.527	58449.96
688.874	58452.22
689.221	58403.86
689.568	58327.7
689.915	58291.09
690.262	58270.76
690.609	58221.49
690.956	58107.6
691.303	58117.54
691.65	58052.68
691.997	58051.33
692.344	57914.61
692.69	57860.37
693.037	57900.14
693.383	57686.14
693.73	57835.06
694.077	57601.62
694.423	57628.06
694.769	57529.98
695.116	57543.32
695.462	57444.79
695.808	57414.28
696.155	57442.53
696.501	57207.51
696.847	57342.87
697.193	57160.73
697.539	57158.47
697.885	57008.87
698.231	56889.32
698.577	56973.84
698.923	56887.97
699.269	56725.94
699.614	56619.73
699.96	56574.76
700.306	56647.75
700.651	56578.6
700.997	56433.06
701.342	56449.56
701.688	56426.74
702.033	56262.22
702.379	56370.47
702.724	56265.61
703.069	56311.94
703.415	55932.51
703.76	55872.85
704.105	56007.99
704.45	55791.95
704.795	55771.39
705.14	55694.1
705.485	55654.1
705.83	55531.84
706.175	55625.4
706.52	55496.14
706.865	55419.76
707.209	55323.04
707.554	55357.16
707.899	55328.69
708.243	55175.92
708.588	55173.89
708.932	54925.76
709.277	55090.5
709.621	54871.75
709.966	54724.86
710.31	54811.86
710.654	54638.08
710.998	54662.94
711.342	54663.39
711.687	54568.71
712.031	54516.96
712.375	54269.96
712.719	54349.5
713.063	54215.04
713.407	54371.88
713.75	54272.89
714.094	54200.35
714.438	54016.18
714.782	54093.46
715.125	53910.19
715.469	54021.83
715.812	53785.9
716.156	53669.3
716.499	53758.33
716.843	53728.73
717.186	53574.38
717.53	53683.76
717.873	53547.72
718.216	53534.38
718.559	53390.21
718.902	53183.43
719.246	53353.82
719.589	53270.44
719.932	53146.82
720.275	53096.43
720.617	53130.78
720.96	53064.11
721.303	52923.1
721.646	53101.17
721.989	52935.98
722.331	52954.06
722.674	52735.31
723.016	52828.19
723.359	52650.56
723.701	52702.31
724.044	52553.17
724.386	52424.58
724.729	52543.67
725.071	52547.74
725.413	52437.69
725.755	52364.47
726.097	52220.29
726.439	52132.84
726.782	52161.99
727.124	52122.9
727.465	52180.29
727.807	52056.68
728.149	52168.09
728.491	51892.39
728.833	52040.41
729.175	51954.09
729.516	51803.58
729.858	51806.75
730.199	51905.27
730.541	51851.49
730.882	51713.64
731.224	51645.17
731.565	51622.8
731.906	51609.91
732.248	51652.4
732.589	51386.19
732.93	51389.81
733.271	51450.6
733.612	51291.96
733.953	51429.81
734.294	51292.63
734.635	51217.38
734.976	51313.88
735.317	51101.45
735.658	51137.61
735.999	50898.97
736.339	50965.86
736.68	51032.98
737.021	50957.05
737.361	50854.23
737.702	50973.55
738.042	50794.57
738.383	50968.12
738.723	50966.54
739.063	50643.61
739.404	50796.6
739.744	50687.9
740.084	50668.7
740.424	50705.98
740.764	50531.3
741.104	50661.01
741.444	50432.32
741.784	50273.68
742.124	50482.26
742.464	50342.38
742.804	50251.31
743.143	50193.68
743.483	50308.25
743.823	50177.18
744.162	50212.21
744.502	50176.96
744.841	50067.36
745.181	50212.66
745.52	49965.44
745.86	50020.35
746.199	49871.43
746.538	49841.83
746.877	49975.38
747.216	49938.32
747.556	49750.75
747.895	49695.16
748.234	49675.28
748.573	49487.48
748.911	49484.55
749.25	49506.92
749.589	49338.11
749.928	49345.11
750.267	49423.98
750.605	49181.73
750.944	49287.04
751.283	49072.58
751.621	49249.75
751.96	48967.95
752.298	48950.1
752.636	48895.86
752.975	48805.47
753.313	48708.3
753.651	48933.83
753.989	48602.31
754.327	48687.28
754.666	48397.34
755.004	48453.16
755.342	48466.49
