Data from 152_FLMS001491_007.txt Node
Date: Thu Apr 19 16:17:47 BST 2018
User: hsy
Spectrometer: FLMS00149
Trigger mode: 0
Integration Time (sec): 1.000000E-2
Scans to average: 10
Electric dark correction enabled: true
Nonlinearity correction enabled: false
Boxcar width: 0
XAxis mode: Wavelengths
Number of Pixels in Spectrum: 2048
>>>>>Begin Spectral Data<<<<<
341.393	-12.58
341.776	-12.58
342.16	-12.58
342.543	-62.75
342.927	-79.93
343.31	-76.31
343.693	-58.23
344.077	-68.4
344.46	-65.92
344.843	-54.84
345.226	-55.52
345.61	-45.8
345.993	-16.43
346.376	-9.65
346.759	-3.77
347.142	32.84
347.525	33.52
347.908	82.55
348.291	76.9
348.674	104.02
349.057	125.04
349.44	116
349.823	136.34
350.206	163.23
350.588	226.73
350.971	246.84
351.354	274.87
351.737	276.45
352.119	297.01
352.502	298.14
352.884	308.31
353.267	323.9
353.65	352.38
354.032	339.27
354.414	345.82
354.797	370
355.179	362.55
355.562	364.81
355.944	350.57
356.326	387.86
356.709	382.21
357.091	380.17
357.473	398.25
357.855	388.53
358.238	398.93
358.62	395.77
359.002	395.99
359.384	386.28
359.766	378.82
360.148	378.82
360.53	395.09
360.912	391.25
361.294	394.41
361.676	390.79
362.057	391.47
362.439	352.38
362.821	365.94
363.203	377.91
363.584	376.78
363.966	364.35
364.348	369.78
364.729	395.09
365.111	368.65
365.493	372.26
365.874	369.33
366.256	349.89
366.637	370.46
367.019	358.25
367.4	347.41
367.781	373.85
368.163	356.45
368.544	367.97
368.925	370.91
369.306	367.74
369.688	387.18
370.069	365.94
370.45	368.65
370.831	376.56
371.212	366.61
371.593	386.05
371.974	374.75
372.355	407.97
372.736	399.61
373.117	398.03
373.498	382.66
373.879	390.79
374.26	377.91
374.641	370.91
375.021	390.12
375.402	395.31
375.783	414.3
376.163	393.51
376.544	381.98
376.925	404.81
377.305	403.45
377.686	420.85
378.066	410.23
378.447	391.02
378.827	424.01
379.208	410.68
379.588	421.08
379.968	426.05
380.349	408.2
380.729	415.65
381.109	423.11
381.489	434.18
381.87	411.36
382.25	425.14
382.63	433.73
383.01	417.69
383.39	435.99
383.77	450.45
384.15	459.72
384.53	450.91
384.91	450
385.29	442.09
385.67	440.74
386.049	445.26
386.429	458.82
386.809	467.63
387.189	433.51
387.568	464.69
387.948	473.96
388.328	461.75
388.707	471.24
389.087	474.18
389.466	482.09
389.846	478.48
390.225	478.02
390.605	470.34
390.984	502.66
391.363	511.24
391.743	483.22
392.122	498.14
392.501	482.77
392.881	503.11
393.26	506.27
393.639	498.14
394.018	506.05
394.397	523.22
394.776	526.16
395.155	519.15
395.534	522.54
395.913	522.09
396.292	528.87
396.671	537.23
397.05	549.89
397.429	540.85
397.808	545.59
398.186	560.96
398.565	536.33
398.944	538.36
399.323	559.83
399.701	552.15
400.08	558.47
400.458	574.97
400.837	577.23
401.215	567.29
401.594	577.23
401.972	567.29
402.351	572.94
402.729	585.14
403.107	603.9
403.486	593.95
403.864	594.63
404.242	598.92
404.62	586.5
404.999	626.27
405.377	617.68
405.755	623.56
406.133	622.2
406.511	633.5
406.889	630.56
407.267	621.52
407.645	654.29
408.023	656.32
408.401	662.43
408.779	661.07
409.156	652.03
409.534	669.66
409.912	704.68
410.29	704.68
410.667	697.68
411.045	718.47
411.422	739.49
411.8	701.75
412.178	733.16
412.555	715.53
412.933	723.89
413.31	719.6
413.687	774.97
414.065	756.21
414.442	768.86
414.819	795.08
415.197	802.08
415.574	791.24
415.951	801.86
416.328	809.99
416.705	808.86
417.082	790.56
417.46	823.33
417.837	815.87
418.214	833.72
418.591	833.72
418.967	833.5
419.344	848.18
419.721	841.63
420.098	877.34
420.475	845.02
420.852	871.91
421.228	882.31
421.605	889.09
421.982	913.72
422.358	886.6
422.735	895.41
423.111	918.69
423.488	925.02
423.864	938.13
424.241	928.41
424.617	932.7
424.994	946.49
425.37	963.66
425.746	956.66
426.123	981.06
426.499	970.67
426.875	992.13
427.251	1016.99
427.627	1032.36
428.003	1034.85
428.379	1031.91
428.756	1045.01
429.132	1049.99
429.507	1056.31
429.883	1068.29
430.259	1118.01
430.635	1100.83
431.011	1122.3
431.387	1115.97
431.763	1123.2
432.138	1140.15
432.514	1173.15
432.89	1154.39
433.265	1180.83
433.641	1205.46
434.016	1202.3
434.392	1216.08
434.767	1219.7
435.143	1223.77
435.518	1243.2
435.894	1262.64
436.269	1269.42
436.644	1275.52
437.02	1309.87
437.395	1313.26
437.77	1318.91
438.145	1342.18
438.52	1332.24
438.895	1331.34
439.271	1349.41
439.646	1384.67
440.021	1373.37
440.395	1386.47
440.77	1371.56
441.145	1414.72
441.52	1424.21
441.895	1417.66
442.27	1434.61
442.645	1435.97
443.019	1460.15
443.394	1422.63
443.769	1447.26
444.143	1449.98
444.518	1455.85
444.892	1486.36
445.267	1473.7
445.641	1503.31
446.016	1515.51
446.39	1527.04
446.764	1536.75
447.139	1555.96
447.513	1560.26
447.887	1543.08
448.262	1554.38
448.636	1553.93
449.01	1561.16
449.384	1640.48
449.758	1601.16
450.132	1658.78
450.506	1609.97
450.88	1644.32
451.254	1660.59
451.628	1652.68
452.002	1697.2
452.376	1720.93
452.75	1748.5
453.123	1697.88
453.497	1754.37
453.871	1770.87
454.244	1815.84
454.618	1802.06
454.992	1832.79
455.365	1868.27
455.739	1892.22
456.112	1895.16
456.486	1916.63
456.859	1910.53
457.232	1976.52
457.606	2016.51
457.979	2024.2
458.352	2023.07
458.725	2057.64
459.099	2095.16
459.472	2120.69
459.845	2139.45
460.218	2156.4
460.591	2172.89
460.964	2170.86
461.337	2181.93
461.71	2250.86
462.083	2295.38
462.456	2240.46
462.829	2296.73
463.201	2307.81
463.574	2322.27
463.947	2360.01
464.32	2399.1
464.692	2412.66
465.065	2463.96
465.438	2461.02
465.81	2494.02
466.183	2524.98
466.555	2581.25
466.928	2565.43
467.3	2554.58
467.672	2634.58
468.045	2691.07
468.417	2670.51
468.789	2677.29
469.161	2749.6
469.534	2766.78
469.906	2846.32
470.278	2812.43
470.65	2892.88
471.022	2928.13
471.394	2956.6
471.766	2998.86
472.138	3025.98
472.51	3068.01
472.882	3096.94
473.253	3126.32
473.625	3187.78
473.997	3243.38
474.369	3219.42
474.74	3291.74
475.112	3359.53
475.484	3389.13
475.855	3482.01
476.227	3482.01
476.598	3596.59
476.97	3636.81
477.341	3699.18
477.713	3735.57
478.084	3801.55
478.455	3882.45
478.827	3903.24
479.198	4022.11
479.569	4004.49
479.94	4116.35
480.311	4204.48
480.682	4247.87
481.053	4342.56
481.424	4418.49
481.795	4491.25
482.166	4569.44
482.537	4613.28
482.908	4757.46
483.279	4787.29
483.65	4884.69
484.021	4954.97
484.391	4984.35
484.762	5072.93
485.133	5149.54
485.503	5182.08
485.874	5372.81
486.244	5421.62
486.615	5596.08
486.985	5610.32
487.356	5743.2
487.726	5787.94
488.097	5951.33
488.467	5984.32
488.837	6139.34
489.207	6178.21
489.578	6333.24
489.948	6454.36
490.318	6506.57
490.688	6610.07
491.058	6718.54
491.428	6870.85
491.798	6884.64
492.168	7038.53
492.538	7085.08
492.908	7192.88
493.278	7359.65
493.648	7412.98
494.017	7522.81
494.387	7639.19
494.757	7663.15
495.126	7746.08
495.496	7876.25
495.866	8054.77
496.235	8110.82
496.605	8292.51
496.974	8310.59
497.344	8437.36
497.713	8555.78
498.082	8619.96
498.452	8709.67
498.821	8814.53
499.19	8841.19
499.559	9034.41
499.928	9089.78
500.298	9240.96
500.667	9284.35
501.036	9388.75
501.405	9512.81
501.774	9476.66
502.143	9674.39
502.512	9728.4
502.88	9862.18
503.249	9885.46
503.618	10023.99
503.987	10077.32
504.356	10124.55
504.724	10236.19
505.093	10389.4
505.462	10444.77
505.83	10555.5
506.199	10724.08
506.567	10872.78
506.936	10919.78
507.304	10958.65
507.672	11039.1
508.041	11207.01
508.409	11345.08
508.777	11388.25
509.145	11596.38
509.514	11548.02
509.882	11684.51
510.25	11718.63
510.618	11771.96
510.986	11848.8
511.354	12010.15
511.722	12066.19
512.09	12247.43
512.458	12156.59
512.826	12389.12
513.193	12458.73
513.561	12467.77
513.929	12632.28
514.297	12794.08
514.664	12868.88
515.032	12999.05
515.4	12990.01
515.767	13143.68
516.135	13181.87
516.502	13142.78
516.869	13540.73
517.237	13491.92
517.604	13495.76
517.972	13694.4
518.339	13760.84
518.706	13804.68
519.073	13982.3
519.44	14044.45
519.808	14199.02
520.175	14251
520.542	14407.83
520.909	14494.38
521.276	14500.71
521.643	14699.57
522.009	14850.75
522.376	14846.23
522.743	15060.69
523.11	15216.62
523.477	15287.13
523.843	15450.51
524.21	15690.73
524.577	15680.11
524.943	15806.89
525.31	15897.51
525.676	16134.79
526.043	16335.91
526.409	16240.55
526.776	16485.29
527.142	16548.79
527.508	16701.78
527.874	16847.31
528.241	16879.4
528.607	16976.8
528.973	17216.12
529.339	17254.53
529.705	17452.95
530.071	17693.84
530.437	17679.83
530.803	17759.6
531.169	17929.77
531.535	17932.03
531.901	18103.32
532.267	18229.65
532.632	18297.67
532.998	18424.22
533.364	18505.57
533.73	18569.53
534.095	18798.9
534.461	18799.58
534.826	18902.4
535.192	18914.83
535.557	19217.42
535.923	19176.52
536.288	19185.78
536.653	19340.35
537.019	19350.52
537.384	19441.82
537.749	19426.23
538.114	19646.11
538.479	19619.44
538.845	19623.74
539.21	19712.55
539.575	19747.8
539.94	19964.97
540.305	20067.11
540.67	19980.11
541.034	20115.25
541.399	20211.29
541.764	20312.98
542.129	20305.98
542.494	20355.92
542.858	20477.95
543.223	20489.7
543.587	20675.46
543.952	20672.3
544.316	20670.04
544.681	20725.85
545.045	20889.92
545.41	20935.34
545.774	20836.13
546.138	20912.06
546.503	21096.01
546.867	21165.62
547.231	21323.8
547.595	21331.04
547.959	21453.07
548.324	21452.84
548.688	21405.16
549.052	21519.73
549.416	21547.53
549.779	21644.93
550.143	21667.3
550.507	21872.04
550.871	21905.94
551.235	21836.56
551.599	22153.16
551.962	22141.41
552.326	22150.45
552.689	22228.86
553.053	22178.7
553.417	22299.6
553.78	22551.79
554.143	22555.86
554.507	22660.94
554.87	22605.58
555.234	22855.51
555.597	22752.47
555.96	22907.49
556.323	23010.77
556.686	22954.5
557.05	23200.59
557.413	23206.92
557.776	23252.11
558.139	23427.93
558.502	23608.04
558.865	23492.56
559.228	23716.74
559.59	23696.17
559.953	23829.95
560.316	24143.84
560.679	24065.2
561.041	24176.38
561.404	24363.27
561.767	24542.02
562.129	24417.73
562.492	24745.86
562.854	24678.74
563.217	24833.32
563.579	24864.28
563.941	25143.82
564.304	25059.52
564.666	25325.96
565.028	25377.71
565.39	25413.64
565.753	25687.3
566.115	25674.42
566.477	25861.76
566.839	25894.08
567.201	26171.59
567.563	26106.5
567.925	26456.1
568.287	26442.77
568.648	26498.13
569.01	26839.36
569.372	27051.79
569.734	26982.41
570.095	27062.86
570.457	27375.4
570.819	27234.83
571.18	27450.87
571.542	27718.66
571.903	27720.02
572.265	27940.8
572.626	28075.94
572.987	28179.44
573.349	28348.03
573.71	28505.76
574.071	28790.5
574.432	28749.82
574.794	28971.74
575.155	29065.97
575.516	29174.22
575.877	29378.06
576.238	29369.24
576.599	29704.83
576.96	29740.31
577.32	29810.59
577.681	29865.27
578.042	30240.41
578.403	30262.33
578.763	30336.67
579.124	30519.27
579.485	30895.3
579.845	31094.62
580.206	31079.93
580.566	31277.21
580.927	31372.13
581.287	31662.06
581.648	31656.64
582.008	32077.87
582.368	32169.17
582.728	32464.75
583.089	32554.02
583.449	32758.98
583.809	32958.75
584.169	33245.3
584.529	33420.66
584.889	33741.33
585.249	33881.44
585.609	34047.99
585.969	34485.72
586.329	34631.25
586.688	35170.67
587.048	35265.13
587.408	35643.65
587.768	35947.6
588.127	36144.88
588.487	36548.26
588.846	37143.95
589.206	37109.15
589.565	37540.55
589.925	38147.99
590.284	38273.87
590.643	38799.95
591.003	39117.91
591.362	39549.77
591.721	40005.35
592.08	40329.63
592.44	40842.39
592.799	41160.8
593.158	41615.93
593.517	41876.03
593.876	42386.3
594.235	42699.06
594.593	43145.6
594.952	43543.56
595.311	43890.44
595.67	44285.91
596.029	44856.07
596.387	45370.4
596.746	45888.58
597.104	45956.6
597.463	46245.41
597.822	46961.77
598.18	47126.06
598.538	47343.68
598.897	47950
599.255	48158.8
599.613	48989.06
599.972	48966.47
600.33	49446
600.688	49644.64
601.046	50103.16
601.404	50582.7
601.762	50652.07
602.12	51157.37
602.478	51369.12
602.836	51650.46
603.194	51676.9
603.552	52083.22
603.91	52260.39
604.268	52646.6
604.625	52812.69
604.983	53170.65
605.341	53209.52
605.698	53564.54
606.056	53967.24
606.413	53891.99
606.771	54329.26
607.128	54459.2
607.485	54552.53
607.843	54855.13
608.2	55121.79
608.557	55259.86
608.914	55398.39
609.272	55700.3
609.629	55980.07
609.986	56129.89
610.343	56253.51
610.7	56547.28
611.057	56520.39
611.414	56691.01
611.771	57000.83
612.127	57127.38
612.484	57180.04
612.841	57435.85
613.198	57495.28
613.554	57568.5
613.911	57827.93
614.267	57958.77
614.624	58049.62
614.98	58208.94
615.337	58416.84
615.693	58475.14
616.05	58593.33
616.406	58803.04
616.762	58760.11
617.118	58843.27
617.475	58984.51
617.831	59191.51
618.187	59277.16
618.543	59321.45
618.899	59528.9
619.255	59586.75
619.611	59628.56
619.967	59741.32
620.323	59897.7
620.678	59873.98
621.034	59868.78
621.39	59943.58
621.746	60049.34
622.101	60346.28
622.457	60130.24
622.812	60299.05
623.168	60384.7
623.523	60414.08
623.879	60565.94
624.234	60489.1
624.589	60594.41
624.945	60664.24
625.3	60640.06
625.655	60744.91
626.01	60794.86
626.365	60852.03
626.72	60816.78
627.075	60813.84
627.43	60804.12
627.785	60937.23
628.14	60908.3
628.495	61039.37
628.85	60983.78
629.205	60911.69
629.559	61081.85
629.914	60965.02
630.269	60995.08
630.623	60890
630.978	60883.44
631.332	61079.59
631.687	61077.11
632.041	61082.76
632.396	61087.28
632.75	61070.33
633.104	61079.59
633.459	60997.79
633.813	61015.87
634.167	61005.92
634.521	61080.05
634.875	61086.37
635.229	60999.14
635.583	60889.54
635.937	60943.55
636.291	60918.47
636.645	61014.51
636.999	60919.82
637.352	60981.97
637.706	60798.7
638.06	60953.27
638.413	60843.89
638.767	60810
639.121	60797.12
639.474	60751.92
639.828	60743.33
640.181	60742.43
640.534	60818.81
640.888	60669.66
641.241	60606.84
641.594	60525.71
641.947	60663.33
642.301	60595.09
642.654	60678.7
643.007	60573.85
643.36	60625.6
643.713	60566.61
644.066	60641.87
644.419	60478.71
644.771	60227.87
645.124	60005.05
645.477	60010.92
645.83	59858.38
646.182	59883.02
646.535	59814.54
646.888	59885.73
647.24	59814.32
647.593	59940.87
647.945	59844.82
648.298	59764.83
648.65	59650.03
649.002	59540.65
649.355	59546.3
649.707	59437.15
650.059	59481.9
650.411	59812.51
650.763	59874.2
651.115	60212.05
651.467	60045.05
651.819	60127.98
652.171	60032.39
652.523	59975.22
652.875	59950.58
653.227	59905.84
653.578	60057.93
653.93	59989
654.282	59809.8
654.633	59892.06
654.985	59912.17
655.337	59906.07
655.688	59879.85
656.039	59888.44
656.391	59639.41
656.742	59744.04
657.094	59724.38
657.445	59783.36
657.796	59762.57
658.147	59670.82
658.498	59766.18
658.849	59775.9
659.2	59625.4
659.551	59591.95
659.902	59771.83
660.253	59602.8
660.604	59739.74
660.955	59609.8
661.306	59737.26
661.656	59555.57
662.007	59603.25
662.358	59550.6
662.708	59625.17
663.059	59599.41
663.409	59477.38
663.76	59603.7
664.11	59669.91
664.461	59629.46
664.811	59609.35
665.161	59508.34
665.511	59523.03
665.862	59512.4
666.212	59539.75
666.562	59527.32
666.912	59467.66
667.262	59385.85
667.612	59438.06
667.962	59503.14
668.312	59352.18
668.662	59547.21
669.011	59488
669.361	59371.84
669.711	59438.28
670.06	59356.7
670.41	59381.11
670.76	59361.9
671.109	59426.76
671.459	59359.19
671.808	59344.05
672.157	59346.08
672.507	59210.94
672.856	59245.29
673.205	59269.25
673.554	59340.21
673.904	59236.25
674.253	59410.26
674.602	59244.61
674.951	58933.89
675.3	58836.26
675.649	59297.72
675.998	59252.52
676.346	59246.2
676.695	59289.59
677.044	59164.84
677.393	59161.45
677.741	59230.38
678.09	59135.92
678.438	59086.88
678.787	59242.35
679.135	59105.18
679.484	58947.9
679.832	59127.78
680.181	59048.01
680.529	59004.85
680.877	58963.94
681.225	58957.62
681.573	59063.83
681.922	58970.27
682.27	58945.64
682.618	58947.67
682.966	58851.4
683.314	58857.96
683.661	58861.8
684.009	58776.83
684.357	58719.43
684.705	58614.57
685.053	58754.91
685.4	58582.94
685.748	58548.59
686.095	58550.85
686.443	58429.04
686.79	58431.53
687.138	58539.32
687.485	58504.07
687.832	58410.96
688.18	58368.71
688.527	58256.39
688.874	58303.17
689.221	58241.48
689.568	58164.87
689.915	58148.82
690.262	58148.6
690.609	58069.05
690.956	57889.17
691.303	57954.25
691.65	57820.47
691.997	57779.12
692.344	57716.07
692.69	57683.75
693.037	57795.61
693.383	57546.13
693.73	57607.82
694.077	57497.99
694.423	57551.55
694.769	57502.97
695.116	57448.5
695.462	57317.21
695.808	57121.05
696.155	57250.09
696.501	57039.25
696.847	57080.83
697.193	56985.46
697.539	57072.24
697.885	56802.87
698.231	56820.72
698.577	56771.23
698.923	56738.01
699.269	56553.61
699.614	56555.19
699.96	56492.6
700.306	56447.17
700.651	56386.61
700.997	56244.47
701.342	56195.2
701.688	56217.12
702.033	56026.17
702.379	56051.03
702.724	55911.14
703.069	55978.49
703.415	55697.14
703.76	55747.76
704.105	55797.02
704.45	55629.34
704.795	55511.61
705.14	55413.3
705.485	55472.06
705.83	55314.55
706.175	55358.62
706.52	55324.94
706.865	55198.17
707.209	55078.85
707.554	55047.66
707.899	55087.66
708.243	54909.81
708.588	54906.65
708.932	54805.18
709.277	54853.77
709.621	54647.67
709.966	54482.71
710.31	54621.46
710.654	54448.58
710.998	54429.37
711.342	54552.53
711.687	54362.26
712.031	54174.47
712.375	54098.76
712.719	54149.16
713.063	54107.12
713.407	54189.83
713.75	54038.88
714.094	54021.02
714.438	53855.15
714.782	53826.45
715.125	53722.27
715.469	53753.91
715.812	53510.53
716.156	53487.93
716.499	53474.82
716.843	53629.85
717.186	53395.28
717.53	53517.99
717.873	53454.94
718.216	53270.76
718.559	53167.49
718.902	52951.67
719.246	53019.24
719.589	52982.18
719.932	52873.71
720.275	52970.2
720.617	52928.85
720.96	52848.62
721.303	52831.22
721.646	52889.75
721.989	52695.86
722.331	52773.82
722.674	52598.46
723.016	52503.55
723.359	52426.71
723.701	52518.69
724.044	52387.17
724.386	52184.91
724.729	52404.57
725.071	52355.08
725.413	52236.89
725.755	52230.34
726.097	52152.6
726.439	51898.59
726.782	51838.93
727.124	52028.99
727.465	51944.69
727.807	51836.22
728.149	51759.61
728.491	51716
728.833	51731.82
729.175	51631.93
729.516	51566.62
729.858	51517.81
730.199	51550.58
730.541	51472.84
730.882	51388.1
731.224	51395.1
731.565	51285.28
731.906	51228.55
732.248	51306.97
732.589	51083.93
732.93	51059.52
733.271	51078.73
733.612	51017.49
733.953	51092.74
734.294	50988.56
734.635	50803.48
734.976	50905.4
735.317	50770.71
735.658	50652.3
735.999	50654.56
736.339	50592.64
736.68	50659.3
737.021	50694.56
737.361	50508.35
737.702	50548.8
738.042	50404.85
738.383	50463.83
738.723	50544.73
739.063	50271.29
739.404	50428.12
739.744	50350.39
740.084	50147.68
740.424	50256.38
740.764	50128.02
741.104	50261.8
741.444	50068.13
741.784	49916.72
742.124	50042.82
742.464	50002.15
742.804	49927.35
743.143	49858.87
743.483	49892.54
743.823	49702.27
744.162	49701.59
744.502	49804.64
744.841	49556.51
745.181	49743.62
745.52	49515.15
745.86	49627.47
746.199	49488.49
746.538	49533.46
746.877	49510.63
747.216	49450.07
747.556	49362.61
747.895	49384.53
748.234	49235.39
748.573	49206.23
748.911	49049.85
749.25	49178.66
749.589	48902.51
749.928	48891.89
750.267	48921.5
750.605	48929.86
750.944	48769.64
751.283	48804.21
751.621	48807.37
751.96	48576.65
752.298	48540.04
752.636	48544.33
752.975	48432.02
753.313	48380.72
753.651	48394.05
753.989	48182.98
754.327	48134.62
754.666	47900.28
755.004	48060.73
755.342	47969.43
