Data from 152_FLMS001491_003.txt Node
Date: Thu Apr 19 16:17:38 BST 2018
User: hsy
Spectrometer: FLMS00149
Trigger mode: 0
Integration Time (sec): 1.000000E-2
Scans to average: 10
Electric dark correction enabled: true
Nonlinearity correction enabled: false
Boxcar width: 0
XAxis mode: Wavelengths
Number of Pixels in Spectrum: 2048
>>>>>Begin Spectral Data<<<<<
341.393	10.34
341.776	10.34
342.16	10.34
342.543	-50
342.927	-65.37
343.31	-81.41
343.693	-71.24
344.077	-68.08
344.46	-66.27
344.843	-71.24
345.226	-36.21
345.61	-27.63
345.993	-45.71
346.376	10.79
346.759	24.35
347.142	39.94
347.525	42.65
347.908	74.52
348.291	80.62
348.674	82.43
349.057	112.48
349.44	122.65
349.823	151.8
350.206	172.37
350.588	241.75
350.971	241.29
351.354	234.51
351.737	262.31
352.119	291.24
352.502	300.73
352.884	327.62
353.267	311.57
353.65	322.19
354.032	358.8
354.414	329.43
354.797	341.4
355.179	370.78
355.562	366.04
355.944	376.88
356.326	377.11
356.709	382.98
357.091	378.46
357.473	396.54
357.855	387.96
358.238	369.65
358.62	418.01
359.002	378.69
359.384	387.96
359.766	384.11
360.148	397.67
360.53	400.38
360.912	364.23
361.294	379.14
361.676	392.02
362.057	360.16
362.439	384.34
362.821	394.96
363.203	389.09
363.584	363.78
363.966	405.58
364.348	372.36
364.729	390.67
365.111	389.09
365.493	364.23
365.874	368.07
366.256	382.53
366.637	381.4
367.019	390.44
367.4	362.87
367.781	383.66
368.163	384.34
368.544	368.07
368.925	363.32
369.306	398.35
369.688	388.41
370.069	374.62
370.45	369.88
370.831	395.87
371.212	374.62
371.593	384.34
371.974	386.83
372.355	377.33
372.736	392.02
373.117	354.74
373.498	374.17
373.879	385.7
374.26	360.84
374.641	365.58
375.021	398.8
375.402	401.74
375.783	393.61
376.163	416.88
376.544	422.98
376.925	393.15
377.305	399.26
377.686	405.13
378.066	416.88
378.447	404.68
378.827	420.05
379.208	398.13
379.588	423.66
379.968	422.76
380.349	425.02
380.729	425.92
381.109	424.11
381.489	428.18
381.87	430.44
382.25	417.79
382.63	434.73
383.01	443.55
383.39	434.51
383.77	419.82
384.15	433.6
384.53	425.92
384.91	455.3
385.29	438.12
385.67	466.15
386.049	442.87
386.429	447.84
386.809	440.84
387.189	455.75
387.568	474.96
387.948	464.34
388.328	467.05
388.707	469.54
389.087	491.46
389.466	482.42
389.846	474.73
390.225	498.24
390.605	495.98
390.984	465.47
391.363	481.06
391.743	502.76
392.122	519.93
392.501	502.3
392.881	517.22
393.26	518.35
393.639	545.24
394.018	522.19
394.397	525.13
394.776	538.69
395.155	540.72
395.534	545.47
395.913	514.96
396.292	539.36
396.671	513.15
397.05	533.49
397.429	555.18
397.808	536.65
398.186	532.81
398.565	558.8
398.944	558.35
399.323	569.42
399.701	559.25
400.08	588.18
400.458	590.21
400.837	566.93
401.215	566.93
401.594	587.95
401.972	591.34
402.351	586.37
402.729	587.72
403.107	581.62
403.486	593.15
403.864	597.22
404.242	612.36
404.62	617.55
404.999	587.95
405.377	624.33
405.755	626.59
406.133	641.96
406.511	638.57
406.889	646.03
407.267	689.42
407.645	678.12
408.023	669.08
408.401	657.33
408.779	687.16
409.156	666.37
409.534	680.83
409.912	691.68
410.29	688.96
410.667	694.39
411.045	726.25
411.422	719.47
411.8	731.9
412.178	717.89
412.555	732.35
412.933	749.53
413.31	766.03
413.687	775.97
414.065	786.59
414.442	772.35
414.819	796.31
415.197	814.16
415.574	797.44
415.951	804.44
416.328	819.58
416.705	822.29
417.082	844.89
417.46	834.5
417.837	828.17
418.214	869.75
418.591	839.47
418.967	839.02
419.344	860.03
419.721	861.39
420.098	859.81
420.475	889.41
420.852	875.85
421.228	904.55
421.605	871.33
421.982	902.07
422.358	935.29
422.735	911.33
423.111	887.38
423.488	942.52
423.864	944.1
424.241	929.41
424.617	941.61
424.994	970.54
425.37	959.47
425.746	963.76
426.123	1003.08
426.499	994.04
426.875	1014.38
427.251	997.21
427.627	1028.17
428.003	1027.26
428.379	1041.05
428.756	1066.81
429.132	1080.37
429.507	1081.72
429.883	1107.49
430.259	1083.98
430.635	1102.97
431.011	1097.32
431.387	1129.41
431.763	1137.31
432.138	1160.59
432.514	1176.64
432.89	1161.27
433.265	1209.4
433.641	1192.68
434.016	1239.91
434.392	1245.79
434.767	1257.76
435.143	1262.96
435.518	1269.74
435.894	1278.1
436.269	1293.47
436.644	1346.57
437.02	1302.51
437.395	1292.11
437.77	1344.31
438.145	1389.51
438.52	1355.16
438.895	1368.72
439.271	1367.14
439.646	1383.86
440.021	1395.39
440.395	1420.7
440.77	1401.49
441.145	1427.93
441.52	1442.84
441.895	1419.12
442.27	1450.53
442.645	1475.16
443.019	1472.22
443.394	1464.54
443.769	1490.75
444.143	1487.14
444.518	1524.88
444.892	1522.39
445.267	1505.21
445.641	1512.45
446.016	1568.49
446.39	1564.2
446.764	1571.88
447.139	1551.32
447.513	1602.16
447.887	1584.08
448.262	1606.91
448.636	1577.3
449.01	1585.66
449.384	1619.11
449.758	1685.1
450.132	1650.3
450.506	1655.72
450.88	1674.48
451.254	1687.58
451.628	1684.19
452.002	1703.4
452.376	1735.72
452.75	1744.08
453.123	1749.73
453.497	1809.84
453.871	1812.78
454.244	1823.4
454.618	1859.33
454.992	1873.79
455.365	1861.36
455.739	1904.3
456.112	1949.5
456.486	1958.99
456.859	1944.98
457.232	2003.05
457.606	1998.76
457.979	2034.69
458.352	2069.72
458.725	2100.45
459.099	2133.67
459.472	2124.63
459.845	2155.14
460.218	2194.01
460.591	2197.85
460.964	2212.77
461.337	2204.63
461.71	2297.06
462.083	2326.89
462.456	2319.66
462.829	2329.37
463.201	2350.39
463.574	2387
463.947	2375.93
464.32	2445.98
464.692	2462.48
465.065	2478.75
465.438	2481.23
465.81	2559.2
466.183	2538.18
466.555	2588.35
466.928	2625.64
467.3	2636.48
467.672	2674.68
468.045	2695.69
468.417	2729.36
468.789	2709.7
469.161	2760.1
469.534	2808.46
469.906	2844.61
470.278	2893.43
470.65	2916.93
471.022	2969.36
471.394	2970.94
471.766	3037.38
472.138	3056.36
472.51	3153.76
472.882	3178.84
473.253	3129.35
473.625	3259.74
473.997	3302.23
474.369	3276.24
474.74	3349.23
475.112	3415.67
475.484	3430.81
475.855	3517.37
476.227	3561.66
476.598	3664.48
476.97	3703.8
477.341	3718.26
477.713	3806.62
478.084	3842.1
478.455	3975.21
478.827	3952.16
479.198	4097.24
479.569	4111.93
479.94	4184.69
480.311	4229.89
480.682	4328.42
481.053	4403.22
481.424	4508.3
481.795	4538.58
482.166	4610.67
482.537	4660.39
482.908	4777.9
483.279	4885.92
483.65	4941.51
484.021	5041.39
484.391	5124.55
484.762	5215.85
485.133	5235.96
485.503	5303.31
485.874	5467.82
486.244	5488.39
486.615	5641.38
486.985	5724.76
487.356	5817.19
487.726	5846.57
488.097	6047.24
488.467	6084.76
488.837	6204.3
489.207	6260.57
489.578	6440.68
489.948	6464.63
490.318	6639.09
490.688	6694.91
491.058	6802.48
491.428	6921.57
491.798	6939.65
492.168	7152.52
492.538	7160.66
492.908	7324.27
493.278	7476.81
493.648	7467.77
494.017	7685.17
494.387	7729.91
494.757	7788.44
495.126	7948.66
495.496	7954.99
495.866	8155.89
496.235	8221.65
496.605	8317.24
496.974	8437.69
497.344	8537.35
497.713	8613.95
498.082	8697.79
498.452	8856.66
498.821	8949.31
499.19	9031.12
499.559	9105.92
499.928	9164.45
500.298	9329.42
500.667	9472.91
501.036	9455.29
501.405	9644.89
501.774	9649.86
502.143	9821.15
502.512	9912.68
502.88	9998.32
503.249	10043.3
503.618	10196.51
503.987	10208.71
504.356	10309.05
504.724	10463.4
505.093	10462.49
505.462	10628.36
505.83	10668.14
506.199	10760.79
506.567	10951.97
506.936	11001.46
507.304	11118.3
507.672	11223.15
508.041	11256.82
508.409	11438.06
508.777	11517.15
509.145	11551.73
509.514	11664.5
509.882	11783.14
510.25	11878.05
510.618	11948.56
510.986	11999.4
511.354	12131.6
511.722	12296.8
512.09	12430.8
512.458	12352.84
512.826	12508.54
513.193	12601.65
513.561	12647.75
513.929	12787.18
514.297	12876.67
514.664	12988.3
515.032	12985.82
515.4	13207.96
515.767	13215.19
516.135	13345.36
516.502	13281.4
516.869	13564.33
517.237	13585.12
517.604	13506.71
517.972	13727.94
518.339	13843.42
518.706	13902.85
519.073	13932.23
519.44	14073.47
519.808	14257.2
520.175	14284.31
520.542	14438.43
520.909	14541.93
521.276	14617.64
521.643	14855.6
522.009	14903.96
522.376	15046.78
522.743	15108.25
523.11	15313.44
523.477	15395.02
523.843	15426.2
524.21	15640.66
524.577	15832.3
524.943	15929.47
525.31	16041.1
525.676	16202
526.043	16258.27
526.409	16339.85
526.776	16602.44
527.142	16579.62
527.508	16865.26
527.874	16900.06
528.241	17046.05
528.607	17192.71
528.973	17339.37
529.339	17222.09
529.705	17516.55
530.071	17745.69
530.437	17716.09
530.803	17940.49
531.169	18129.86
531.535	18154.04
531.901	18290.99
532.267	18288.05
532.632	18432.91
532.998	18506.12
533.364	18645.55
533.73	18735.95
534.095	18977.98
534.461	18852.56
534.826	19047.35
535.192	19048.71
535.557	19310.62
535.923	19283.96
536.288	19346.1
536.653	19467
537.019	19447.34
537.384	19581.8
537.749	19697.05
538.114	19748.35
538.479	19784.96
538.845	19920.1
539.21	19796.26
539.575	20036.7
539.94	20095.23
540.305	20198.96
540.67	20256.81
541.034	20281.22
541.399	20402.8
541.764	20437.37
542.129	20560.98
542.494	20551.95
542.858	20607.54
543.223	20719.4
543.587	20808.44
543.952	20806.63
544.316	20962.78
544.681	20874.65
545.045	20983.8
545.41	21137.01
545.774	21147.64
546.138	21145.38
546.503	21345.82
546.867	21238.71
547.231	21417.91
547.595	21445.03
547.959	21566.83
548.324	21496.55
548.688	21614.06
549.052	21746.72
549.416	21659.71
549.779	21788.75
550.143	21852.25
550.507	22068.74
550.871	22076.65
551.235	21970.44
551.599	22151.23
551.962	22367.72
552.326	22459.47
552.689	22290.88
553.053	22179.47
553.417	22470.77
553.78	22754.83
554.143	22682.28
554.507	22871.43
554.87	22913.69
555.234	22976.74
555.597	22855.84
555.96	23112.78
556.323	23275.04
556.686	23151.2
557.05	23388.03
557.413	23449.5
557.776	23452.89
558.139	23521.13
558.502	23694.46
558.865	23775.36
559.228	24078.86
559.59	23993.89
559.953	24016.26
560.316	24310.49
560.679	24304.62
561.041	24439.98
561.404	24559.98
561.767	24783.47
562.129	24770.82
562.492	24921.32
562.854	25020.3
563.217	25046.06
563.579	25149.56
563.941	25370.12
564.304	25332.84
564.666	25630.91
565.028	25673.62
565.39	25716.1
565.753	25918.36
566.115	25890.34
566.477	26154.96
566.839	26138.47
567.201	26507.95
567.563	26492.35
567.925	26720.37
568.287	26778.9
568.648	26866.13
569.01	27023.87
569.372	27338.21
569.734	27436.51
570.095	27490.52
570.457	27724.41
570.819	27765.77
571.18	27909.94
571.542	28172.99
571.903	28238.52
572.265	28358.97
572.626	28529.14
572.987	28580.89
573.349	28734.78
573.71	28904.72
574.071	29108.33
574.432	29333.64
574.794	29590.35
575.155	29530.92
575.516	29560.3
575.877	29840.06
576.238	30015.88
576.599	30100.17
576.96	30255.42
577.32	30428.07
577.681	30485.24
578.042	30830.77
578.403	31006.13
578.763	31035.96
579.124	31123.87
579.485	31468.04
579.845	31715.04
580.206	31695.83
580.566	31901.25
580.927	31933.12
581.287	32365.19
581.648	32346.89
582.008	32636.6
582.368	32778.52
582.728	33083.59
583.089	33162.69
583.449	33473.87
583.809	33715.67
584.169	34063.91
584.529	34062.32
584.889	34674.06
585.249	34613.95
585.609	34773.04
585.969	35231.33
586.329	35553.13
586.688	35795.16
587.048	36072.67
587.408	36271.31
587.768	36667.91
588.127	36962.59
588.487	37139.76
588.846	37856.58
589.206	37874.88
589.565	38213.4
589.925	38966.15
590.284	39155.52
590.643	39402.98
591.003	39837.77
591.362	40373.57
591.721	40635.26
592.08	41104.17
592.44	41726.98
592.799	41957.71
593.158	42292.39
593.517	42691.25
593.876	43287.17
594.235	43375.3
594.593	43794.05
594.952	44401.94
595.311	44742.04
595.67	45203.05
596.029	45727.78
596.387	46119.86
596.746	46635.33
597.104	46704.25
597.463	47143.11
597.822	47716.43
598.18	47785.35
598.538	48134.95
598.897	48722.28
599.255	48780.81
599.613	49651.52
599.972	49739.88
600.33	50108.91
600.688	50343.7
601.046	50729.68
601.404	51265.04
601.762	51382.1
602.12	51740.73
602.478	51924.68
602.836	52192.92
603.194	52279.02
603.552	52612.35
603.91	52806.69
604.268	53121.26
604.625	53361.48
604.983	53664.97
605.341	53645.76
605.698	54103.15
606.056	54420.43
606.413	54506.98
606.771	54831.04
607.128	54978.84
607.485	54973.41
607.843	55242.33
608.2	55565.49
608.557	55750.34
608.914	55855.88
609.272	56113.04
609.629	56407.95
609.986	56513.94
610.343	56618.12
610.7	56960.03
611.057	56985.79
611.414	57120.25
611.771	57382.62
612.127	57517.98
612.484	57657.18
612.841	57873.45
613.198	57856.95
613.554	57966.1
613.911	58225.31
614.267	58329.26
614.624	58381.69
614.98	58611.28
615.337	58764.73
615.693	58820.32
616.05	58908.45
616.406	59075.68
616.762	59120.65
617.118	59200.19
617.475	59280.42
617.831	59486.51
618.187	59521.99
618.543	59590.69
618.899	59821.87
619.255	59855.32
619.611	59865.71
619.967	60050.79
620.323	60215.54
620.678	60090.34
621.034	60154.07
621.39	60219.38
621.746	60254.18
622.101	60587.95
622.457	60409.2
622.812	60609.65
623.168	60684
623.523	60641.51
623.879	60802.41
624.234	60662.98
624.589	60833.6
624.945	60886.03
625.3	60900.26
625.655	60956.08
626.01	60945.01
626.365	61031.56
626.72	60997.44
627.075	60982.29
627.43	61101.61
627.785	61128.73
628.14	61147.94
628.495	61166.92
628.85	61176.19
629.205	61133.25
629.559	61281.04
629.914	61211.67
630.269	61214.38
630.623	61156.3
630.978	61116.53
631.332	61293.93
631.687	61320.37
632.041	61234.04
632.396	61250.08
632.75	61258.22
633.104	61245.56
633.459	61194.94
633.813	61180.71
634.167	61182.52
634.521	61220.03
634.875	61244.89
635.229	61200.82
635.583	61080.37
635.937	61073.14
636.291	61152.23
636.645	61121.73
636.999	60992.69
637.352	61116.08
637.706	60956.98
638.06	61050.54
638.413	61001.96
638.767	60975.52
639.121	61013.71
639.474	60933.71
639.828	60893.94
640.181	60867.72
640.534	60952.47
640.888	60879.7
641.241	60744.79
641.594	60807.84
641.947	60842.19
642.301	60770.32
642.654	60769.65
643.007	60727.39
643.36	60742.98
643.713	60707.73
644.066	60864.78
644.419	60589.99
644.771	60355.64
645.124	60096.67
645.477	60155.65
645.83	60074.07
646.182	60025.48
646.535	59969.21
646.888	60094.18
647.24	59959.27
647.593	60102.77
647.945	59963.79
648.298	59903
648.65	59868.2
649.002	59706.62
649.355	59691.26
649.707	59661.43
650.059	59640.86
650.411	59950.01
650.763	60027.97
651.115	60444.91
651.467	60256.21
651.819	60339.83
652.171	60205.82
652.523	60200.62
652.875	60211.24
653.227	60097.12
653.578	60229.09
653.93	60217.12
654.282	60096.89
654.633	60091.92
654.985	60066.61
655.337	60045.82
655.688	60032.72
656.039	60071.58
656.391	59882.44
656.742	59989.1
657.094	59984.35
657.445	59987.52
657.796	59934.19
658.147	59916.11
658.498	59915.43
658.849	59980.97
659.2	59921.08
659.551	59791.59
659.902	59957.01
660.253	59789.78
660.604	59905.71
660.955	59790.01
661.306	59895.54
661.656	59769.45
662.007	59773.74
662.358	59810.35
662.708	59742.33
663.059	59627.53
663.409	59592.73
663.76	59760.41
664.11	59759.28
664.461	59680.18
664.811	59732.38
665.161	59732.16
665.511	59638.6
665.862	59715.66
666.212	59719.5
666.562	59690.13
666.912	59713.4
667.262	59633.86
667.612	59657.81
667.962	59704.59
668.312	59667.08
668.662	59774.19
669.011	59614.42
669.361	59630.47
669.711	59654.19
670.06	59619.62
670.41	59590.47
670.76	59549.11
671.109	59736.68
671.459	59569.68
671.808	59580.3
672.157	59620.07
672.507	59430.92
672.856	59456.69
673.205	59535.33
673.554	59557.47
673.904	59496.91
674.253	59693.52
674.602	59506.85
674.951	59210.59
675.3	59010.82
675.649	59513.41
675.998	59527.42
676.346	59484.03
676.695	59495.33
677.044	59321.1
677.393	59334.88
677.741	59440.64
678.09	59342.11
678.438	59323.58
678.787	59361.32
679.135	59339.63
679.484	59177.82
679.832	59268.22
680.181	59166.98
680.529	59237.71
680.877	59196.13
681.225	59154.32
681.573	59315.67
681.922	59180.08
682.27	59116.36
682.618	59120.2
682.966	59047.88
683.314	59101.67
683.661	59086.07
684.009	59000.2
684.357	58975.34
684.705	58882.46
685.053	58980.77
685.4	58850.6
685.748	58715.24
686.095	58807.66
686.443	58678.17
686.79	58687.67
687.138	58728.79
687.485	58691.96
687.832	58571.28
688.18	58634.33
688.527	58575.13
688.874	58540.1
689.221	58557.05
689.568	58367.67
689.915	58344.85
690.262	58397.5
690.609	58318.86
690.956	58262.82
691.303	58239.32
691.65	58182.82
691.997	58104.18
692.344	57969.94
692.69	57943.96
693.037	58042.03
693.383	57779.44
693.73	57888.82
694.077	57723.17
694.423	57720.69
694.769	57702.83
695.116	57650.41
695.462	57563.18
695.808	57453.57
696.155	57508.49
696.501	57255.61
696.847	57392.56
697.193	57224.43
697.539	57275.05
697.885	56986.24
698.231	57003.42
698.577	57049.74
698.923	57045.9
699.269	56795.51
699.614	56766.13
699.96	56705.57
700.306	56665.12
700.651	56554.39
700.997	56501.06
701.342	56433.94
701.688	56420.15
702.033	56268.52
702.379	56308.07
702.724	56203.89
703.069	56180.61
703.415	55921.64
703.76	55921.41
704.105	55942.43
704.45	55829.21
704.795	55824.46
705.14	55669.67
705.485	55658.82
705.83	55558.48
706.175	55644.13
706.52	55554.87
706.865	55401.2
707.209	55255.44
707.554	55317.59
707.899	55240.98
708.243	55104.94
708.588	55069.23
708.932	54898.39
709.277	55001.21
709.621	54826.07
709.966	54642.57
710.31	54746.07
710.654	54529.13
710.998	54612.97
711.342	54631.5
711.687	54481.45
712.031	54360.1
712.375	54240.78
712.719	54270.15
713.063	54214.79
713.407	54306.31
713.75	54061.8
714.094	54085.98
714.438	53996.49
714.782	54012.31
715.125	53802.6
715.469	53939.77
715.812	53685.09
716.156	53614.35
716.499	53674.24
716.843	53741.36
717.186	53473.57
717.53	53695.03
717.873	53659.55
718.216	53547.69
718.559	53389.27
718.902	53108.15
719.246	53294.36
719.589	53213.46
719.932	53033.13
720.275	53076.51
720.617	53092.78
720.96	52943.86
721.303	53028.83
721.646	52969.62
721.989	52735.28
722.331	52830.19
722.674	52719.69
723.016	52663.87
723.359	52513.14
723.701	52678.78
724.044	52486.25
724.386	52332.58
724.729	52487.6
725.071	52380.26
725.413	52416.87
725.755	52277.21
726.097	52259.81
726.439	52110.44
726.782	51995.41
727.124	52215.29
727.465	52163.77
727.807	51919.26
728.149	52030.89
728.491	51887.84
728.833	51952.02
729.175	51889.65
729.516	51735.08
729.858	51674.07
730.199	51872.25
730.541	51684.23
730.882	51597.23
731.224	51677.68
731.565	51517.91
731.906	51456.67
732.248	51658.92
732.589	51356.33
732.93	51334.64
733.271	51358.14
733.612	51289.89
733.953	51447.86
734.294	51162.44
734.635	51107.75
734.976	51303.23
735.317	51105.94
735.658	51042.44
735.999	51007.42
736.339	50925.16
736.68	50895.78
737.021	51024.36
737.361	50853.52
737.702	51025.04
738.042	50833.41
738.383	50801.55
738.723	50760.19
739.063	50723.81
739.404	50877.48
739.744	50668.89
740.084	50583.92
740.424	50633.87
740.764	50503.93
741.104	50564.26
741.444	50417.6
741.784	50218.51
742.124	50416.47
742.464	50359.52
742.804	50260.99
743.143	50164.5
743.483	50197.95
743.823	50028.23
744.162	49981
744.502	50093.09
744.841	49796.6
745.181	50029.14
745.52	49839.99
745.86	49838.86
746.199	49849.25
746.538	49756.83
746.877	49897.61
747.216	49743.49
747.556	49590.5
747.895	49603.39
748.234	49531.52
748.573	49401.13
748.911	49348.7
749.25	49359.1
749.589	49245.43
749.928	49338.31
750.267	49202.94
750.605	49168.37
750.944	49173.79
751.283	49048.37
751.621	49094.47
751.96	48939
752.298	48806.8
752.636	48811.32
752.975	48698.55
753.313	48585.33
753.651	48732
753.989	48456.3
754.327	48408.39
754.666	48084.78
755.004	48281.39
