Data from 16-1255_FLMS001491_004.txt Node
Date: Thu Apr 19 16:16:56 BST 2018
User: hsy
Spectrometer: FLMS00149
Trigger mode: 0
Integration Time (sec): 1.000000E-2
Scans to average: 10
Electric dark correction enabled: true
Nonlinearity correction enabled: false
Boxcar width: 0
XAxis mode: Wavelengths
Number of Pixels in Spectrum: 2048
>>>>>Begin Spectral Data<<<<<
341.393	-27.61
341.776	-27.61
342.16	-27.61
342.543	-60.38
342.927	-75.29
343.31	-62.64
343.693	-82.53
344.077	-78.23
344.46	-36.2
344.843	-72.81
345.226	-42.75
345.61	-25.13
345.993	-20.83
346.376	7.87
346.759	21.2
347.142	23.69
347.525	36.11
347.908	62.1
348.291	79.28
348.674	90.12
349.057	100.75
349.44	128.32
349.823	146.85
350.206	170.8
350.588	224.81
350.971	230.46
351.354	279.72
351.737	293.74
352.119	280.4
352.502	297.35
352.884	329.44
353.267	333.51
353.65	317.69
354.032	361.53
354.414	340.06
354.797	340.97
355.179	380.06
355.562	371.47
355.944	362.89
356.326	374.19
356.709	383.45
357.091	395.88
357.473	384.13
357.855	388.65
358.238	390.46
358.62	405.14
359.002	397.24
359.384	386.16
359.766	386.61
360.148	380.51
360.53	366.05
360.912	402.43
361.294	359.5
361.676	374.64
362.057	383.45
362.439	360.85
362.821	379.16
363.203	413.96
363.584	374.86
363.966	381.87
364.348	390.91
364.729	355.88
365.111	374.64
365.493	374.41
365.874	378.48
366.256	382.32
366.637	377.12
367.019	366.5
367.4	379.38
367.781	352.49
368.163	362.21
368.544	372.6
368.925	371.93
369.306	372.15
369.688	393.17
370.069	394.3
370.45	393.39
370.831	388.42
371.212	373.51
371.593	383.22
371.974	357.24
372.355	390.68
372.736	381.64
373.117	394.75
373.498	379.83
373.879	381.42
374.26	401.53
374.641	381.19
375.021	386.16
375.402	387.29
375.783	413.51
376.163	405.82
376.544	392.72
376.925	397.46
377.305	407.4
377.686	404.69
378.066	412.15
378.447	422.09
378.827	409.21
379.208	420.74
379.588	428.19
379.968	409.44
380.349	401.08
380.729	420.51
381.109	425.71
381.489	424.13
381.87	434.07
382.25	410.79
382.63	425.94
383.01	444.01
383.39	436.56
383.77	465.48
384.15	441.08
384.53	453.28
384.91	459.83
385.29	441.08
385.67	455.09
386.049	460.06
386.429	470.45
386.809	475.43
387.189	457.12
387.568	469.32
387.948	458.7
388.328	462.32
388.707	450.57
389.087	473.39
389.466	479.27
389.846	483.33
390.225	510.9
390.605	504.58
390.984	482.43
391.363	500.51
391.743	519.94
392.122	503.9
392.501	528.31
392.881	519.49
393.26	518.81
393.639	532.6
394.018	518.14
394.397	542.77
394.776	530.34
395.155	549.32
395.534	528.76
395.913	542.77
396.292	556.1
396.671	540.96
397.05	548.19
397.429	557.23
397.808	555.42
398.186	558.14
398.565	566.95
398.944	564.69
399.323	591.81
399.701	578.7
400.08	600.85
400.458	578.93
400.837	566.72
401.215	593.16
401.594	596.33
401.972	588.42
402.351	595.87
402.729	594.52
403.107	615.76
403.486	612.6
403.864	607.63
404.242	620.96
404.62	615.76
404.999	618.02
405.377	635.65
405.755	645.82
406.133	672.71
406.511	648.75
406.889	659.38
407.267	659.83
407.645	681.52
408.023	675.42
408.401	678.58
408.779	692.37
409.156	686.95
409.534	705.25
409.912	700.05
410.29	731.01
410.667	716.1
411.045	722.42
411.422	736.21
411.8	745.02
412.178	775.76
412.555	764.68
412.933	759.03
413.31	772.14
413.687	780.05
414.065	791.35
414.442	813.72
414.819	790.22
415.197	818.69
415.574	821.63
415.951	848.3
416.328	837.9
416.705	832.48
417.082	839.48
417.46	855.08
417.837	832.25
418.214	892.82
418.591	843.78
418.967	848.97
419.344	894.4
419.721	894.85
420.098	898.24
420.475	889.65
420.852	916.77
421.228	902.31
421.605	911.8
421.982	933.49
422.358	915.19
422.735	943.44
423.111	943.66
423.488	968.52
423.864	962.19
424.241	936.88
424.617	970.33
424.994	988.18
425.37	1018.69
425.746	992.7
426.123	1021.85
426.499	1018.46
426.875	1033.83
427.251	1049.2
427.627	1072.02
428.003	1076.77
428.379	1074.05
428.756	1096.43
429.132	1102.75
429.507	1109.31
429.883	1116.09
430.259	1127.84
430.635	1151.57
431.011	1131
431.387	1181.4
431.763	1188.4
432.138	1219.36
432.514	1200.6
432.89	1210.1
433.265	1238.8
433.641	1261.17
434.016	1245.12
434.392	1276.76
434.767	1282.18
435.143	1271.56
435.518	1298.91
435.894	1321.96
436.269	1326.7
436.644	1368.28
437.02	1338
437.395	1356.31
437.77	1373.71
438.145	1410.54
438.52	1394.27
438.895	1420.03
439.271	1394.05
439.646	1428.62
440.021	1432.69
440.395	1456.64
440.77	1432.24
441.145	1450.09
441.52	1498.45
441.895	1498
442.27	1517.21
442.645	1493.48
443.019	1505
443.394	1509.07
443.769	1547.26
444.143	1498.45
444.518	1546.81
444.892	1554.72
445.267	1565.57
445.641	1577.77
446.016	1593.81
446.39	1627.94
446.764	1587.03
447.139	1598.56
447.513	1616.19
447.887	1643.98
448.262	1606.02
448.636	1645.56
449.01	1651.67
449.384	1667.26
449.758	1686.24
450.132	1700.25
450.506	1699.8
450.88	1729.4
451.254	1754.49
451.628	1771.44
452.002	1767.82
452.376	1786.13
452.75	1812.34
453.123	1835.39
453.497	1834.94
453.871	1845.33
454.244	1913.13
454.618	1885.78
454.992	1898.66
455.365	1969.17
455.739	1990.19
456.112	1980.7
456.486	2021.15
456.859	2048.49
457.232	2044.88
457.606	2107.02
457.979	2086.91
458.352	2169.39
458.725	2203.52
459.099	2171.65
459.472	2231.54
459.845	2215.04
460.218	2249.16
460.591	2278.99
460.964	2337.07
461.337	2317.64
461.71	2383.85
462.083	2413.23
462.456	2417.3
462.829	2432.89
463.201	2432.66
463.574	2470.63
463.947	2502.26
464.32	2555.82
464.692	2564.64
465.065	2572.77
465.438	2611.64
465.81	2643.73
466.183	2664.97
466.555	2717.63
466.928	2742.03
467.3	2793.56
467.672	2801.69
468.045	2807.12
468.417	2816.61
468.789	2879.2
469.161	2868.36
469.534	2922.82
469.906	2972.31
470.278	3015.02
470.65	3021.35
471.022	3119.88
471.394	3169.37
471.766	3156.71
472.138	3214.79
472.51	3297.5
472.882	3266.99
473.253	3320.32
473.625	3355.8
473.997	3458.62
474.369	3483.93
474.74	3495.46
475.112	3614.78
475.484	3636.92
475.855	3723.48
476.227	3723.48
476.598	3801.67
476.97	3884.15
477.341	3937.93
477.713	3972.51
478.084	4033.98
478.455	4195.55
478.827	4154.65
479.198	4318.04
479.569	4343.35
479.94	4441.87
480.311	4481.87
480.682	4596.45
481.053	4631.93
481.424	4756.89
481.795	4817.68
482.166	4882.32
482.537	4929.32
482.908	5086.15
483.279	5169.09
483.65	5241.85
484.021	5326.37
484.391	5434.84
484.762	5530.21
485.133	5596.19
485.503	5625.12
485.874	5826.47
486.244	5869.18
486.615	5981.5
486.985	6080.48
487.356	6206.35
487.726	6269.4
488.097	6440.92
488.467	6506
488.837	6597.52
489.207	6761.36
489.578	6903.28
489.948	7022.6
490.318	7156.61
490.688	7176.72
491.058	7295.81
491.428	7390.5
491.798	7522.47
492.168	7677.95
492.538	7877.04
492.908	7941.67
493.278	8105.28
493.648	8159.97
494.017	8308.44
494.387	8416.69
494.757	8564.7
495.126	8703.68
495.496	8732.61
495.866	8898.03
496.235	9032.49
496.605	9143.9
496.974	9235.65
497.344	9427.73
497.713	9483.32
498.082	9561.29
498.452	9775.07
498.821	9841.73
499.19	9957.21
499.559	10074.72
499.928	10269.29
500.298	10335.96
500.667	10501.83
501.036	10518.55
501.405	10729.17
501.774	10824.31
502.143	10970.52
502.512	11020.01
502.88	11217.29
503.249	11285.99
503.618	11352.2
503.987	11479.43
504.356	11685.98
504.724	11791.96
505.093	11925.29
505.462	11978.85
505.83	12067.21
506.199	12247.77
506.567	12415
506.936	12442.79
507.304	12634.43
507.672	12751.03
508.041	12821.54
508.409	13004.59
508.777	13207.97
509.145	13257.01
509.514	13411.81
509.882	13497
510.25	13543.78
510.618	13762.31
510.986	13719.37
511.354	13923.43
511.722	14078.01
512.09	14308.51
512.458	14309.86
512.826	14416.98
513.193	14457.88
513.561	14606.35
513.929	14665.11
514.297	14927.93
514.664	14995.5
515.032	15126.57
515.4	15168.82
515.767	15373.11
516.135	15480.45
516.502	15376.05
516.869	15734.46
517.237	15858.07
517.604	15675.25
517.972	16045.64
518.339	16205.63
518.706	16242.69
519.073	16360.43
519.44	16426.87
519.808	16645.85
520.175	16667.09
520.542	16947.08
520.909	17026.18
521.276	17085.61
521.643	17292.84
522.009	17430.69
522.376	17577.12
522.743	17744.8
523.11	17966.26
523.477	18104.11
523.843	18184.79
524.21	18378.91
524.577	18507.49
524.943	18625.91
525.31	18777.32
525.676	18952.45
526.043	19043.52
526.409	19158.55
526.776	19420.46
527.142	19534.81
527.508	19653.23
527.874	19832.43
528.241	19988.58
528.607	19990.62
528.973	20333.89
529.339	20321.46
529.705	20563.26
530.071	20665.85
530.437	20786.76
530.803	20980.87
531.169	21124.15
531.535	21100.19
531.901	21126.18
532.267	21291.38
532.632	21627.41
532.998	21597.36
533.364	21837.12
533.73	21889.1
534.095	22002.32
534.461	22134.06
534.826	22261.52
535.192	22373.83
535.557	22490.67
535.923	22539.93
536.288	22688.85
536.653	22778.12
537.019	22735.18
537.384	22850.43
537.749	22974.95
538.114	23040.71
538.479	22978.79
538.845	23247.48
539.21	23149.41
539.575	23252.68
539.94	23485.44
540.305	23571.09
540.67	23593.01
541.034	23801.82
541.399	23814.02
541.764	23909.16
542.129	23949.38
542.494	24000
542.858	24166.33
543.223	24101.7
543.587	24152.32
543.952	24244.52
544.316	24331.75
544.681	24294.69
545.045	24527.9
545.41	24628.46
545.774	24496.49
546.138	24640.44
546.503	24741.68
546.867	24748.91
547.231	25028.45
547.595	25016.47
547.959	25099.86
548.324	25150.71
548.688	25126.3
549.052	25263.25
549.416	25250.82
549.779	25322.23
550.143	25454.66
550.507	25607.42
550.871	25608.1
551.235	25685.38
551.599	25834.98
551.962	25924.47
552.326	26002.21
552.689	26025.26
553.053	25904.14
553.417	26101.42
553.78	26321.53
554.143	26324.92
554.507	26458.02
554.87	26474.74
555.234	26778.46
555.597	26714.51
555.96	26740.95
556.323	26782.98
556.686	27001.06
557.05	27089.41
557.413	27183.42
557.776	27218.23
558.139	27290.54
558.502	27485.56
558.865	27492.12
559.228	27647.14
559.59	27770.98
559.953	27844.88
560.316	28117.86
560.679	28091.65
561.041	28136.39
561.404	28384.3
561.767	28595.36
562.129	28492.99
562.492	28754.23
562.854	28780.44
563.217	28781.57
563.579	28904.51
563.941	29098.18
564.304	29311.96
564.666	29476.47
565.028	29454.78
565.39	29589.46
565.753	29810.25
566.115	29902.22
566.477	30015.44
566.839	30164.81
567.201	30452.26
567.563	30481.87
567.925	30757.12
568.287	30864.68
568.648	30859.71
569.01	31100.38
569.372	31380.83
569.734	31322.07
570.095	31574.95
570.457	31768.61
570.819	31810.19
571.18	31864.43
571.542	32068.27
571.903	32317.53
572.265	32458.31
572.626	32676.16
572.987	32658.76
573.349	32930.84
573.71	33100.56
574.071	33120.22
574.432	33406.08
574.794	33623.93
575.155	33741.22
575.516	33762.46
575.877	34014.43
576.238	34061.43
576.599	34263.24
576.96	34402.67
577.32	34373.97
577.681	34700.29
578.042	35054.18
578.403	34900.06
578.763	35059.6
579.124	35218.01
579.485	35684.67
579.845	35933.02
580.206	35859.58
580.566	36149.29
580.927	36265.9
581.287	36747.01
581.648	36631.08
582.008	36881.47
582.368	37100
582.728	37311.74
583.089	37418.41
583.449	37652.75
583.809	37885.29
584.169	38259.29
584.529	38252.74
584.889	38695.66
585.249	38696.34
585.609	38950.57
585.969	39239.15
586.329	39365.93
586.688	39811.11
587.048	40045.91
587.408	40355.28
587.768	40458.55
588.127	40898.77
588.487	41100.12
588.846	41654
589.206	41634.12
589.565	41878.4
589.925	42446.53
590.284	42644.03
590.643	42988.43
591.003	43367.18
591.362	43857.56
591.721	44046.03
592.08	44349.07
592.44	44933.47
592.799	45037.64
593.158	45415.49
593.517	45602.6
593.876	46128.46
594.235	46422.69
594.593	46531.84
594.952	47029
595.311	47164.59
595.67	47546.73
596.029	48061.74
596.387	48314.85
596.746	48694.95
597.104	48769.97
597.463	49138.33
597.822	49508.71
598.18	49551.65
598.538	49838.87
598.897	50357.28
599.255	50429.14
599.613	51035.23
599.972	50931.95
600.33	51205.84
600.688	51484.48
601.046	51729.67
601.404	52165.82
601.762	52254.4
602.12	52500.27
602.478	52681.74
602.836	52959.02
603.194	52844.22
603.552	53261.83
603.91	53299.12
604.268	53669.28
604.625	53784.76
604.983	54130.29
605.341	54071.98
605.698	54471.29
606.056	54682.36
606.413	54782.02
606.771	55093.65
607.128	55114.89
607.485	55198.73
607.843	55420.87
608.2	55698.83
608.557	55873.06
608.914	55831.48
609.272	56115.77
609.629	56224.92
609.986	56450.68
610.343	56485.7
610.7	56778.35
611.057	56825.81
611.414	56844.11
611.771	57186.7
612.127	57248.62
612.484	57358.68
612.841	57514.6
613.198	57503.3
613.554	57594.15
613.911	57833.92
614.267	57900.58
614.624	57952.11
614.98	58100.8
615.337	58315.03
615.693	58355.26
616.05	58462.38
616.406	58614.24
616.762	58559.32
617.118	58637.51
617.475	58726.55
617.831	58879.54
618.187	58963.38
618.543	59029.82
618.899	59249.7
619.255	59229.81
619.611	59252.64
619.967	59410.37
620.323	59568.56
620.678	59453.31
621.034	59477.26
621.39	59552.52
621.746	59599.29
622.101	59840.87
622.457	59636.58
622.812	59848.33
623.168	59926.74
623.523	59956.12
623.879	60010.81
624.234	59900.98
624.589	60077.47
624.945	60125.38
625.3	60184.59
625.655	60217.13
626.01	60212.39
626.365	60325.83
626.72	60267.07
627.075	60258.26
627.43	60270.69
627.785	60293.06
628.14	60305.26
628.495	60372.83
628.85	60386.39
629.205	60368.54
629.559	60446.05
629.914	60400.63
630.269	60429.78
630.623	60369.22
630.978	60317.69
631.332	60476.33
631.687	60475.66
632.041	60462.77
632.396	60483.79
632.75	60475.66
633.104	60475.2
633.459	60329.44
633.813	60401.53
634.167	60329.22
634.521	60313.4
634.875	60351.82
635.229	60366.51
635.583	60266.4
635.937	60219.62
636.291	60293.29
636.645	60192.73
636.999	60153.18
637.352	60205.61
637.706	60096.46
638.06	60172.84
638.413	60077.7
638.767	60092.39
639.121	60119.73
639.474	59983.01
639.828	60042.45
640.181	60002.9
640.534	60013.07
640.888	59929.68
641.241	59809.46
641.594	59849.46
641.947	59962
642.301	59805.84
642.654	59839.51
643.007	59774.66
643.36	59858.95
643.713	59834.32
644.066	59897.37
644.419	59663.25
644.771	59458.51
645.124	59197.27
645.477	59238.85
645.83	59114.79
646.182	59078.4
646.535	59060.78
646.888	59105.3
647.24	59004.96
647.593	59152.75
647.945	59017.16
648.298	58943.49
648.65	58885.19
649.002	58786.89
649.355	58728.58
649.707	58666.89
650.059	58707.79
650.411	59031.4
650.763	59126.99
651.115	59406.76
651.467	59288.79
651.819	59342.13
652.171	59255.12
652.523	59229.13
652.875	59274.11
653.227	59127.22
653.578	59289.25
653.93	59236.59
654.282	59091.51
654.633	59098.74
654.985	59137.39
655.337	59135.13
655.688	59074.34
656.039	59166.54
656.391	58930.16
656.742	59013.1
657.094	58931.74
657.445	59042.25
657.796	59008.8
658.147	58918.86
658.498	59052.64
658.849	58980.1
659.2	58959.31
659.551	58848.35
659.902	59021.68
660.253	58874.57
660.604	58939.88
660.955	58783.27
661.306	58942.81
661.656	58858.75
662.007	58826.21
662.358	58910.05
662.708	58824.63
663.059	58896.49
663.409	58649.49
663.76	58845.42
664.11	58823.27
664.461	58830.95
664.811	58809.26
665.161	58781.91
665.511	58709.83
665.862	58758.64
666.212	58772.88
666.562	58829.6
666.912	58745.53
667.262	58725.87
667.612	58692.43
667.962	58762.25
668.312	58687.23
668.662	58955.24
669.011	58738.07
669.361	58705.76
669.711	58674.35
670.06	58655.59
670.41	58634.8
670.76	58623.05
671.109	58709.83
671.459	58697.4
671.808	58670.73
672.157	58654.23
672.507	58509.38
672.856	58594.12
673.205	58663.05
673.554	58642.26
673.904	58541.02
674.253	58716.38
674.602	58494.92
674.951	58277.07
675.3	58083.4
675.649	58525.2
675.998	58594.58
676.346	58562.03
676.695	58558.42
677.044	58452.88
677.393	58462.6
677.741	58568.36
678.09	58396.84
678.438	58390.29
678.787	58388.25
679.135	58440
679.484	58295.83
679.832	58375.15
680.181	58338.08
680.529	58334.69
680.877	58281.36
681.225	58249.95
681.573	58463.05
681.922	58198.43
682.27	58188.03
682.618	58230.06
682.966	58208.14
683.314	58136.51
683.661	58134.93
684.009	58080.92
684.357	57941.48
684.705	57883.63
685.053	57941.71
685.4	57926.8
685.748	57849.06
686.095	57853.58
686.443	57791.43
686.79	57676.63
687.138	57737.87
687.485	57710.76
687.832	57699.68
688.18	57677.31
688.527	57507.15
688.874	57594.15
689.221	57425.57
689.568	57422.18
689.915	57364.55
690.262	57387.83
690.609	57341.73
690.956	57225.35
691.303	57208.4
691.65	57122.07
691.997	57087.27
692.344	56936.99
692.69	56903.55
693.037	57012.24
693.383	56701.29
693.73	56853.38
694.077	56640.28
694.423	56641.63
694.769	56652.25
695.116	56545.82
695.462	56448.87
695.808	56392.83
696.155	56460.85
696.501	56235.32
696.847	56320.06
697.193	56143.79
697.539	56177.24
697.885	55997.13
698.231	55911.48
698.577	55897.92
698.923	55875.32
699.269	55635.78
699.614	55640.98
699.96	55553.3
700.306	55483.7
700.651	55418.39
700.997	55368.45
701.342	55283.7
701.688	55212.74
702.033	55189.69
702.379	55088
702.724	55018.85
703.069	55051.17
703.415	54790.61
703.76	54751.74
704.105	54817.5
704.45	54617.96
704.795	54527.34
705.14	54491.63
705.485	54533.21
705.83	54361.69
706.175	54430.84
706.52	54262.03
706.865	54223.84
707.209	54044.19
707.554	53906.34
707.899	53994.47
708.243	53790.63
708.588	53792.67
708.932	53682.16
709.277	53673.8
709.621	53614.82
709.966	53419.34
710.31	53493.01
710.654	53152.46
710.998	53308.16
711.342	53305
711.687	53133.7
712.031	53114.72
712.375	52998.34
712.719	53001.73
713.063	52933.71
713.407	53030.88
713.75	52768.74
714.094	52778.46
714.438	52654.62
714.782	52704.11
715.125	52553.38
715.469	52567.16
715.812	52439.93
716.156	52381.86
716.499	52394.74
716.843	52390.9
717.186	52134.18
717.53	52361.07
717.873	52345.02
718.216	52204.46
718.559	52036.33
718.902	51863.68
719.246	51900.97
719.589	51775.09
719.932	51659.62
720.275	51732.16
720.617	51715.21
720.96	51589.34
721.303	51636.57
721.646	51650.58
721.989	51427.76
722.331	51457.36
722.674	51463.24
723.016	51363.13
723.359	51204.94
723.701	51383.47
724.044	51228.89
724.386	51014.21
724.729	51155.45
725.071	51217.14
725.413	51095.56
725.755	51028.67
726.097	50958.17
726.439	50825.06
726.782	50734.44
727.124	50874.33
727.465	50726.76
727.807	50600.66
728.149	50669.81
728.491	50522.02
728.833	50630.49
729.175	50545.75
729.516	50417.16
729.858	50385.53
730.199	50570.38
730.541	50501
730.882	50368.35
731.224	50373.77
731.565	50228.47
731.906	50215.81
732.248	50329.03
732.589	50105.98
732.93	50052.2
733.271	50091.3
733.612	49965.42
733.953	50110.73
734.294	50047.68
734.635	49902.37
734.976	50011.3
735.317	49898.98
735.658	49797.97
735.999	49807.69
736.339	49718.2
736.68	49840.91
737.021	49659.44
737.361	49574.02
737.702	49885.2
738.042	49577.86
738.383	49541.93
738.723	49715.49
739.063	49481.37
739.404	49694.02
739.744	49568.6
740.084	49386
740.424	49527.02
740.764	49338.1
741.104	49562.27
741.444	49297.64
741.784	49298.1
742.124	49312.11
742.464	49316.4
742.804	49173.13
743.143	49199.79
743.483	49250.19
743.823	48993.25
744.162	49064.2
744.502	49154.15
744.841	48945.79
745.181	49007.26
745.52	49016.07
745.86	49239.11
746.199	49015.62
746.538	48948.28
746.877	49111.89
747.216	48934.49
747.556	48884.77
747.895	48881.84
748.234	48842.29
748.573	48730.2
748.911	48631.45
749.25	48681.16
749.589	48548.29
749.928	48692.01
750.267	48666.7
750.605	48684.78
750.944	48506.7
751.283	48414.73
751.621	48599.58
751.96	48425.35
752.298	48429.64
752.636	48351.91
752.975	48287.95
753.313	48184.23
753.651	48533.37
753.989	48273.26
754.327	48127.05
754.666	47867.63
755.004	48068.75
755.342	48004.8
