Data from 16-1255_FLMS001491_005.txt Node
Date: Thu Apr 19 16:16:59 BST 2018
User: hsy
Spectrometer: FLMS00149
Trigger mode: 0
Integration Time (sec): 1.000000E-2
Scans to average: 10
Electric dark correction enabled: true
Nonlinearity correction enabled: false
Boxcar width: 0
XAxis mode: Wavelengths
Number of Pixels in Spectrum: 2048
>>>>>Begin Spectral Data<<<<<
341.393	0.06
341.776	0.06
342.16	0.06
342.543	-57.34
342.927	-56.44
343.31	-74.52
343.693	-71.58
344.077	-60.51
344.46	-63.67
344.843	-50.56
345.226	-41.3
345.61	-30.9
345.993	-27.06
346.376	-0.4
346.759	22.43
347.142	17.46
347.525	53.16
347.908	52.94
348.291	66.5
348.674	89.55
349.057	118.47
349.44	113.5
349.823	133.39
350.206	184.91
350.588	228.75
350.971	247.06
351.354	282.53
351.737	277.11
352.119	279.82
352.502	280.95
352.884	321.18
353.267	327.73
353.65	343.55
354.032	327.73
354.414	346.49
354.797	349.43
355.179	351.91
355.562	360.72
355.944	376.54
356.326	369.76
356.709	377
357.091	379.71
357.473	385.81
357.855	377.22
358.238	390.33
358.62	395.3
359.002	390.78
359.384	380.61
359.766	391.23
360.148	397.11
360.53	384.68
360.912	387.84
361.294	392.81
361.676	388.07
362.057	377.45
362.439	397.79
362.821	372.48
363.203	379.03
363.584	372.93
363.966	361.18
364.348	364.11
364.729	388.75
365.111	380.84
365.493	378.13
365.874	357.56
366.256	363.89
366.637	376.09
367.019	365.47
367.4	384
367.781	361.63
368.163	367.73
368.544	378.13
368.925	361.85
369.306	395.98
369.688	381.06
370.069	369.76
370.45	345.13
370.831	378.13
371.212	394.62
371.593	384.23
371.974	388.52
372.355	358.24
372.736	380.84
373.117	389.88
373.498	386.04
373.879	380.39
374.26	366.37
374.641	374.28
375.021	383.32
375.402	399.59
375.783	406.37
376.163	418.8
376.544	395.3
376.925	399.82
377.305	406.83
377.686	404.11
378.066	416.32
378.447	408.18
378.827	388.75
379.208	400.95
379.588	403.44
379.968	430.33
380.349	417.45
380.729	414.06
381.109	424.9
381.489	423.32
381.87	432.59
382.25	445.92
382.63	414.28
383.01	437.79
383.39	435.3
383.77	434.4
384.15	443.66
384.53	430.33
384.91	450.67
385.29	459.25
385.67	445.24
386.049	462.42
386.429	433.04
386.809	453.15
387.189	454.96
387.568	459.48
387.948	472.81
388.328	465.35
388.707	439.82
389.087	489.08
389.466	471.68
389.846	475.75
390.225	476.65
390.605	499.03
390.984	467.16
391.363	483.66
391.743	479.59
392.122	480.95
392.501	472.59
392.881	503.77
393.26	502.87
393.639	510.33
394.018	511
394.397	515.98
394.776	499.7
395.155	520.27
395.534	522.08
395.913	525.24
396.292	527.05
396.671	538.57
397.05	539.25
397.429	552.58
397.808	535.86
398.186	580.83
398.565	538.35
398.944	532.02
399.323	572.92
399.701	567.27
400.08	577.44
400.458	546.03
400.837	557.33
401.215	584
401.594	586.71
401.972	551.91
402.351	577.44
402.729	582.87
403.107	592.58
403.486	605.24
403.864	588.52
404.242	588.52
404.62	613.6
404.999	610.66
405.377	608.18
405.755	609.76
406.133	630.77
406.511	647.5
406.889	626.03
407.267	629.19
407.645	640.49
408.023	632.58
408.401	647.27
408.779	668.51
409.156	672.36
409.534	678.46
409.912	687.27
410.29	703.54
410.667	678.46
411.045	703.31
411.422	709.42
411.8	717.33
412.178	716.87
412.555	751.45
412.933	732.24
413.31	774.95
413.687	740.38
414.065	744.44
414.442	762.07
414.819	772.69
415.197	771.34
415.574	806.36
415.951	795.06
416.328	802.3
416.705	800.26
417.082	807.04
417.46	803.88
417.837	834.61
418.214	814.5
418.591	840.03
418.967	840.03
419.344	862.41
419.721	850.88
420.098	845.91
420.475	868.06
420.852	854.05
421.228	873.03
421.605	907.15
421.982	899.02
422.358	905.57
422.735	907.6
423.111	904.44
423.488	937.43
423.864	921.39
424.241	932.91
424.617	933.82
424.994	913.48
425.37	960.94
425.746	940.14
426.123	980.6
426.499	974.95
426.875	1019.46
427.251	971.56
427.627	1006.81
428.003	1037.54
428.379	1019.01
428.756	1046.36
429.132	1046.13
429.507	1061.95
429.883	1072.57
430.259	1092.46
430.635	1094.94
431.011	1079.12
431.387	1132.46
431.763	1128.61
432.138	1135.39
432.514	1146.02
432.89	1168.61
433.265	1150.76
433.641	1195.28
434.016	1244.09
434.392	1219.91
434.767	1236.41
435.143	1212.23
435.518	1235.05
435.894	1284.09
436.269	1289.29
436.644	1305.11
437.02	1283.19
437.395	1296.97
437.77	1300.14
438.145	1299.23
438.52	1344.2
438.895	1346.24
439.271	1337.87
439.646	1372.68
440.021	1399.79
440.395	1387.59
440.77	1374.26
441.145	1369.06
441.52	1430.3
441.895	1419.91
442.27	1452.45
442.645	1433.92
443.019	1437.98
443.394	1451.32
443.769	1482.5
444.143	1463.07
444.518	1473.46
444.892	1454.71
445.267	1486.35
445.641	1490.41
446.016	1527.02
446.39	1514.59
446.764	1507.81
447.139	1536.51
447.513	1543.52
447.887	1565.44
448.262	1529.51
448.636	1547.36
449.01	1592.78
449.384	1584.87
449.758	1612.67
450.132	1616.06
450.506	1652.89
450.88	1638.21
451.254	1635.49
451.628	1664.65
452.002	1696.28
452.376	1702.61
452.75	1733.12
453.123	1734.25
453.497	1752.33
453.871	1774.02
454.244	1775.15
454.618	1807.47
454.992	1840.46
455.365	1827.13
455.739	1863.74
456.112	1877.52
456.486	1900.12
456.859	1908.71
457.232	1976.05
457.606	1995.03
457.979	2009.04
458.352	2051.98
458.725	2023.05
459.099	2075.03
459.472	2098.76
459.845	2137.18
460.218	2165.88
460.591	2130.62
460.964	2140.57
461.337	2210.39
461.71	2247.91
462.083	2302.82
462.456	2287
462.829	2290.84
463.201	2339.66
463.574	2341.01
463.947	2395.02
464.32	2427.79
464.692	2420.78
465.065	2476.83
465.438	2450.84
465.81	2480.22
466.183	2516.83
466.555	2546.2
466.928	2556.6
467.3	2585.07
467.672	2603.38
468.045	2662.13
468.417	2698.06
468.789	2718.63
469.161	2728.57
469.534	2799.98
469.906	2801.34
470.278	2872.98
470.65	2822.58
471.022	2919.08
471.394	2951.39
471.766	2959.53
472.138	3013.31
472.51	3069.58
472.882	3109.58
473.253	3155.91
473.625	3196.58
473.997	3267.77
474.369	3282.68
474.74	3312.29
475.112	3373.75
475.484	3412.17
475.855	3510.02
476.227	3543.01
476.598	3621.88
476.97	3647.19
477.341	3743.01
477.713	3790.69
478.084	3830.24
478.455	3913.17
478.827	3922.89
479.198	4064.13
479.569	4070.01
479.94	4199.95
480.311	4221.41
480.682	4328.53
481.053	4391.13
481.424	4482.65
481.795	4525.81
482.166	4581.86
482.537	4690.1
482.908	4799.25
483.279	4795.86
483.65	4926.03
484.021	5013.26
484.391	5118.11
484.762	5172.58
485.133	5243.76
485.503	5326.47
485.874	5460.7
486.244	5488.95
486.615	5648.72
486.985	5770.3
487.356	5834.93
487.726	5943.18
488.097	6071.99
488.467	6130.29
488.837	6188.14
489.207	6344.97
489.578	6415.03
489.948	6598.75
490.318	6690.73
490.688	6763.04
491.058	6922.13
491.428	7058.4
491.798	7125.97
492.168	7329.13
492.538	7423.82
492.908	7502.23
493.278	7676.46
493.648	7748.33
494.017	7912.62
494.387	7946.97
494.757	8099.05
495.126	8237.35
495.496	8376.79
495.866	8478.93
496.235	8532.26
496.605	8773.16
496.974	8826.72
497.344	8941.97
497.713	9007.05
498.082	9087.28
498.452	9314.39
498.821	9362.75
499.19	9528.85
499.559	9672.57
499.928	9736.52
500.298	9826.69
500.667	10001.15
501.036	10125.44
501.405	10233.01
501.774	10289.28
502.143	10453.34
502.512	10558.87
502.88	10717.74
503.249	10781.24
503.618	10909.83
503.987	11034.34
504.356	11178.07
504.724	11320.21
505.093	11367.89
505.462	11512.52
505.83	11573.54
506.199	11723.14
506.567	11942.57
506.936	11986.41
507.304	12176.23
507.672	12289.45
508.041	12350.24
508.409	12436.57
508.777	12595.21
509.145	12744.58
509.514	12835.65
509.882	12913.16
510.25	13009.43
510.618	13244.68
510.986	13260.5
511.354	13470.44
511.722	13577.1
512.09	13826.13
512.458	13754.5
512.826	13930.31
513.193	13898.67
513.561	14036.52
513.929	14216.63
514.297	14282.84
514.664	14434.48
515.032	14440.81
515.4	14621.59
515.767	14721.03
516.135	14823.4
516.502	14779.55
516.869	15172.99
517.237	15234.46
517.604	15254.12
517.972	15424.28
518.339	15483.72
518.706	15423.15
519.073	15681.9
519.44	15833.54
519.808	16002.8
520.175	16056.13
520.542	16304.71
520.909	16347.2
521.276	16452.96
521.643	16690.01
522.009	16656.34
522.376	16857.24
522.743	16909.44
523.11	17155.99
523.477	17387.62
523.843	17401.86
524.21	17644.79
524.577	17851.34
524.943	17899.02
525.31	18125.23
525.676	18281.38
526.043	18395.28
526.409	18456.97
526.776	18723.86
527.142	18737.42
527.508	18946.22
527.874	19122.27
528.241	19199.33
528.607	19298.53
528.973	19546.89
529.339	19578.52
529.705	19837.73
530.071	19883.15
530.437	20016.25
530.803	20161.79
531.169	20393.64
531.535	20386.41
531.901	20479.97
532.267	20572.17
532.632	20769
532.998	20821.88
533.364	21112.5
533.73	21030.01
534.095	21215.54
534.461	21208.31
534.826	21490.79
535.192	21482.66
535.557	21714.29
535.923	21667.74
536.288	21788.18
536.653	21933.04
537.019	21845.36
537.384	22010.1
537.749	22117.67
538.114	22190.89
538.479	22210.09
538.845	22205.35
539.21	22276.08
539.575	22487.83
539.94	22559.24
540.305	22773.92
540.67	22823.41
541.034	22817.99
541.399	22855.95
541.764	22995.16
542.129	23063.63
542.494	23198.32
542.858	23230.63
543.223	23217.3
543.587	23363.96
543.952	23306.56
544.316	23443.73
544.681	23436.05
545.045	23614.12
545.41	23724.4
545.774	23741.35
546.138	23803.27
546.503	23868.81
546.867	24012.31
547.231	24037.39
547.595	24058.18
547.959	24081.46
548.324	24256.59
548.688	24234.9
549.052	24403.48
549.416	24309.93
549.779	24421.34
550.143	24473.99
550.507	24628.56
550.871	24824.94
551.235	24731.84
551.599	24948.1
551.962	24913.53
552.326	24974.09
552.689	25094.09
553.053	24982.45
553.417	25090.7
553.78	25245.95
554.143	25424.92
554.507	25377.02
554.87	25522.1
555.234	25774.07
555.597	25492.95
555.96	25749.66
556.323	25790.34
556.686	25796.21
557.05	26092.03
557.413	26136.54
557.776	26257.9
558.139	26360.72
558.502	26406.37
558.865	26394.16
559.228	26589.19
559.59	26792.8
559.953	26757.55
560.316	27101.94
560.679	27055.84
561.041	27146.01
561.404	27383.97
561.767	27583.29
562.129	27498.32
562.492	27722.27
562.854	27628.93
563.217	27772.89
563.579	27982.15
563.941	28115.93
564.304	28219.65
564.666	28507.56
565.028	28548.46
565.39	28507.1
565.753	28746.87
566.115	28970.14
566.477	28902.57
566.839	29071.38
567.201	29373.3
567.563	29267.76
567.925	29581.88
568.287	29705.04
568.648	29763.57
569.01	30014.18
569.372	30241.3
569.734	30280.62
570.095	30400.16
570.457	30593.6
570.819	30692.36
571.18	30798.79
571.542	31094.15
571.903	31157.66
572.265	31345.22
572.626	31520.13
572.987	31558.77
573.349	31765.77
573.71	31869.05
574.071	32137.29
574.432	32341.13
574.794	32548.13
575.155	32752.87
575.516	32700.44
575.877	32893.2
576.238	32999.64
576.599	33271.27
576.96	33418.84
577.32	33423.81
577.681	33532.51
578.042	33898.6
578.403	33907.41
578.763	34194.19
579.124	34222.21
579.485	34557.79
579.845	34728.18
580.206	34718.92
580.566	34988.06
580.927	35111.9
581.287	35475.28
581.648	35413.59
582.008	35809.96
582.368	35945.1
582.728	36095.83
583.089	36312.1
583.449	36421.92
583.809	36757.06
584.169	37087.67
584.529	37124.73
584.889	37795.45
585.249	37612.17
585.609	37636.36
585.969	38167.64
586.329	38458.93
586.688	38763.11
587.048	38905.47
587.408	39075.87
587.768	39344.56
588.127	39830.2
588.487	39874.49
588.846	40580.01
589.206	40453.23
589.565	40768.25
589.925	41399.65
590.284	41457.95
590.643	41828.11
591.003	42308.32
591.362	42778.82
591.721	42942.88
592.08	43212.25
592.44	43729.3
592.799	43930.2
593.158	44176.97
593.517	44517.53
593.876	44974.69
594.235	45240.9
594.593	45489.71
594.952	45917.95
595.311	45995.01
595.67	46621.2
596.029	46998.37
596.387	47287.17
596.746	47654.85
597.104	47797.67
597.463	48023.65
597.822	48511.32
598.18	48586.58
598.538	48960.35
598.897	49388.14
599.255	49404.41
599.613	50119.87
599.972	50149.02
600.33	50378.62
600.688	50537.03
601.046	50877.81
601.404	51322.32
601.762	51358.93
602.12	51745.81
602.478	51900.84
602.836	52093.83
603.194	52177.67
603.552	52422.63
603.91	52522.52
604.268	52868.04
604.625	53014.48
604.983	53300.8
605.341	53286.79
605.698	53682.03
606.056	53949.82
606.413	53988.69
606.771	54330.61
607.128	54479.98
607.485	54490.38
607.843	54661.67
608.2	54898.95
608.557	55125.61
608.914	55212.62
609.272	55420.29
609.629	55593.17
609.986	55774.41
610.343	55897.12
610.7	56136.21
611.057	56119.71
611.414	56261.63
611.771	56420.27
612.127	56565.8
612.484	56703.65
612.841	56886.92
613.198	56828.84
613.554	56916.75
613.911	57236.29
614.267	57223.64
614.624	57346.57
614.98	57446
615.337	57694.58
615.693	57767.58
616.05	57772.77
616.406	57949.27
616.762	57910.62
617.118	58028.36
617.475	58126.44
617.831	58353.1
618.187	58353.55
618.543	58401.23
618.899	58614.79
619.255	58664.28
619.611	58575.24
619.967	58771.17
620.323	58910.82
620.678	58815.23
621.034	58885.06
621.39	58919.64
621.746	59017.04
622.101	59288.44
622.457	59084.83
622.812	59250.25
623.168	59299.97
623.523	59325.5
623.879	59388.1
624.234	59294.77
624.589	59416.8
624.945	59455.67
625.3	59501.99
625.655	59563.91
626.01	59633.74
626.365	59621.31
626.72	59585.61
627.075	59572.28
627.43	59684.59
627.785	59710.8
628.14	59725.94
628.495	59747.86
628.85	59838.26
629.205	59742.21
629.559	59810.46
629.914	59750.8
630.269	59816.79
630.623	59694.98
630.978	59695.21
631.332	59857.92
631.687	59799.39
632.041	59786.51
632.396	59803.46
632.75	59756.68
633.104	59810.01
633.459	59692.5
633.813	59756
634.167	59759.62
634.521	59725.72
634.875	59736.56
635.229	59707.64
635.583	59597.36
635.937	59587.87
636.291	59627.19
636.645	59642.56
636.999	59477.14
637.352	59637.81
637.706	59461.54
638.06	59585.16
638.413	59508.1
638.767	59422.9
639.121	59438.27
639.474	59380.42
639.828	59347.42
640.181	59318.27
640.534	59423.58
640.888	59366.86
641.241	59191.72
641.594	59237.37
641.947	59363.02
642.301	59205.73
642.654	59257.48
643.007	59212.74
643.36	59249.8
643.713	59160.31
644.066	59281.44
644.419	59116.92
644.771	58824.95
645.124	58656.59
645.477	58607.33
645.83	58462.47
646.182	58452.98
646.535	58458.63
646.888	58474.23
647.24	58364.17
647.593	58535.69
647.945	58429.71
648.298	58328.01
648.65	58289.37
649.002	58101.35
649.355	58089.15
649.707	58024.75
650.059	58035.37
650.411	58368.24
650.763	58462.7
651.115	58938.17
651.467	58712.86
651.819	58746.76
652.171	58591.74
652.523	58596.71
652.875	58615.46
653.227	58475.36
653.578	58768.91
653.93	58664.73
654.282	58536.6
654.633	58476.03
654.985	58488.01
655.337	58562.58
655.688	58484.39
656.039	58585.86
656.391	58307.9
656.742	58398.52
657.094	58381.8
657.445	58365.98
657.796	58363.49
658.147	58307.22
658.498	58344.06
658.849	58453.21
659.2	58404.4
659.551	58364.17
659.902	58422.48
660.253	58233.78
660.604	58314
660.955	58260.22
661.306	58365.3
661.656	58242.37
662.007	58262.93
662.358	58325.53
662.708	58273.1
663.059	58226.32
663.409	58090.73
663.76	58172.54
664.11	58209.15
664.461	58260.9
664.811	58262.03
665.161	58150.84
665.511	58166.66
665.862	58162.82
666.212	58238.07
666.562	58254.8
666.912	58141.13
667.262	58086.66
667.612	58104.97
667.962	58185.19
668.312	58089.6
668.662	58222.93
669.011	58167.34
669.361	58127.34
669.711	58193.1
670.06	58102.71
670.41	58012.32
670.76	58007.8
671.109	58097.96
671.459	58077.17
671.808	58057.96
672.157	58050.06
672.507	57879.89
672.856	57836.95
673.205	57928.48
673.554	58022.94
673.904	57877.63
674.253	58041.24
674.602	57952.66
674.951	57617.75
675.3	57521.26
675.649	57927.57
675.998	57901.81
676.346	57936.39
676.695	57961.02
677.044	57769.38
677.393	57837.86
677.741	57855.03
678.09	57814.13
678.438	57739.33
678.787	57783.85
679.135	57769.38
679.484	57630.41
679.832	57748.82
680.181	57635.15
680.529	57717.18
680.877	57549.96
681.225	57542.05
681.573	57694.13
681.922	57518.54
682.27	57520.35
682.618	57538.2
682.966	57504.53
683.314	57519.9
683.661	57425.89
684.009	57406
684.357	57358.32
684.705	57294.14
685.053	57323.97
685.4	57218.44
685.748	57192
686.095	57187.93
686.443	57105
686.79	57062.28
687.138	57125.56
687.485	57118.55
687.832	57022.51
688.18	56961.04
688.527	56892.35
688.874	56934.38
689.221	56911.78
689.568	56765.57
689.915	56704.33
690.262	56700.26
690.609	56691.67
690.956	56607.61
691.303	56540.04
691.65	56444.45
691.997	56438.8
692.344	56352.47
692.69	56266.15
693.037	56310.44
693.383	56038.13
693.73	56184.57
694.077	56039.49
694.423	55957.23
694.769	55921.07
695.116	55904.8
695.462	55818.48
695.808	55701.42
696.155	55804.24
696.501	55510.24
696.847	55668.42
697.193	55447.64
697.539	55458.71
697.885	55245.38
698.231	55238.38
698.577	55195.22
698.923	55197.25
699.269	55035.67
699.614	54903.47
699.96	54776.7
700.306	54830.71
700.651	54686.75
700.997	54614.21
701.342	54575.8
701.688	54505.29
702.033	54434.11
702.379	54440.88
702.724	54303.94
703.069	54407.44
703.415	54083.38
703.76	53970.61
704.105	53996.6
704.45	53877.28
704.795	53807.68
705.14	53675.71
705.485	53604.3
705.83	53528.37
706.175	53643.62
706.52	53506.45
706.865	53514.13
707.209	53254.7
707.554	53135.83
707.899	53243.85
708.243	53080.24
708.588	53099.23
708.932	52794.83
709.277	52965.9
709.621	52741.72
709.966	52612.46
710.31	52649.52
710.654	52377.21
710.998	52468.06
711.342	52480.48
711.687	52376.76
712.031	52309.42
712.375	52169.08
712.719	52045.47
713.063	52028.29
713.407	52097.9
713.75	51917.11
714.094	51933.61
714.438	51817
714.782	51806.15
715.125	51628.76
715.469	51847.96
715.812	51502.66
716.156	51520.28
716.499	51418.82
716.843	51478.25
717.186	51279.39
717.53	51359.16
717.873	51380.63
718.216	51259.27
718.559	51094.31
718.902	50895.67
719.246	50996.91
719.589	50824.71
719.932	50830.13
720.275	50886.18
720.617	50751.49
720.96	50753.52
721.303	50705.39
721.646	50741.32
721.989	50511.72
722.331	50557.37
722.674	50455.23
723.016	50523.93
723.359	50274.44
723.701	50307.66
724.044	50237.38
724.386	50101.56
724.729	50180.66
725.071	50173.43
725.413	50166.2
725.755	50067.89
726.097	49972.75
726.439	49894.56
726.782	49937.73
727.124	49959.42
727.465	49942.02
727.807	49796.49
728.149	49772.53
728.491	49607.34
728.833	49707
729.175	49550.84
729.516	49539.32
729.858	49488.92
730.199	49550.62
730.541	49608.92
730.882	49390.62
731.224	49490.73
731.565	49331.87
731.906	49208.25
732.248	49329.61
732.589	49231.76
732.93	49042.16
733.271	49052.33
733.612	49093.68
733.953	49141.14
734.294	48933.69
734.635	48713.35
734.976	48968.49
735.317	48754.48
735.658	48795.16
735.999	48666.8
736.339	48632.22
736.68	48813.24
737.021	48738.66
737.361	48537.99
737.702	48909.5
738.042	48585.22
738.383	48542.51
738.723	48693.92
739.063	48434.26
739.404	48647.36
739.744	48457.09
740.084	48504.54
740.424	48496.86
740.764	48349.07
741.104	48561.49
741.444	48211.44
741.784	48232.91
742.124	48504.09
742.464	48333.47
742.804	48251.44
743.143	48157.66
743.483	48281.72
743.823	48086.48
744.162	48041.51
744.502	48093.93
744.841	47859.59
745.181	48137.32
745.52	47912.92
745.86	48037.89
746.199	47985.46
746.538	47877.44
746.877	48005.35
747.216	47827.73
747.556	47869.98
747.895	47815.97
748.234	47917.67
748.573	47834.96
748.911	47746.6
749.25	47776.2
749.589	47590.44
749.928	47738.69
750.267	47702.08
750.605	47674.28
750.944	47617.34
751.283	47472.48
751.621	47638.8
751.96	47355.2
752.298	47453.95
752.636	47361.3
752.975	47245.37
753.313	47277.46
753.651	47477.9
753.989	47173.51
754.327	47170.57
754.666	46935.55
755.004	47142.32
755.342	47019.61
