Data from 16-1255_FLMS001491_003.txt Node
Date: Thu Apr 19 16:16:53 BST 2018
User: hsy
Spectrometer: FLMS00149
Trigger mode: 0
Integration Time (sec): 1.000000E-2
Scans to average: 10
Electric dark correction enabled: true
Nonlinearity correction enabled: false
Boxcar width: 0
XAxis mode: Wavelengths
Number of Pixels in Spectrum: 2048
>>>>>Begin Spectral Data<<<<<
341.393	0.72
341.776	0.72
342.16	0.72
342.543	-68.43
342.927	-58.49
343.31	-67.53
343.693	-74.53
344.077	-69.56
344.46	-54.42
344.843	-56.91
345.226	-55.32
345.61	-25.04
345.993	-30.01
346.376	-6.96
346.759	10.21
347.142	38.01
347.525	44.56
347.908	71
348.291	77.78
348.674	90.21
349.057	108.51
349.44	118.91
349.823	146.71
350.206	183.54
350.588	233.26
350.971	245.01
351.354	252.92
351.737	290.88
352.119	318
352.502	312.12
352.884	324.1
353.267	315.97
353.65	347.38
354.032	364.33
354.414	346.93
354.797	371.11
355.179	372.46
355.562	379.47
355.944	385.12
356.326	393.93
356.709	404.1
357.091	386.47
357.473	383.76
357.855	396.42
358.238	398.22
358.62	401.84
359.002	398.68
359.384	397.09
359.766	378.11
360.148	410.2
360.53	392.12
360.912	391.9
361.294	389.41
361.676	373.14
362.057	390.99
362.439	369.3
362.821	372.24
363.203	409.75
363.584	395.51
363.966	393.25
364.348	389.18
364.729	379.02
365.111	386.25
365.493	394.61
365.874	402.52
366.256	380.15
366.637	375.17
367.019	386.92
367.4	399.58
367.781	384.44
368.163	389.86
368.544	398
368.925	395.96
369.306	388.96
369.688	388.28
370.069	402.74
370.45	404.55
370.831	395.74
371.212	380.6
371.593	396.64
371.974	386.92
372.355	407.94
372.736	404.78
373.117	406.59
373.498	393.03
373.879	391.44
374.26	389.64
374.641	384.44
375.021	413.59
375.402	404.78
375.783	423.53
376.163	403.42
376.544	408.85
376.925	393.48
377.305	408.85
377.686	406.36
378.066	416.98
378.447	428.05
378.827	414.72
379.208	423.76
379.588	439.8
379.968	419.69
380.349	434.16
380.729	441.84
381.109	426.7
381.489	433.25
381.87	439.8
382.25	431.44
382.63	440.03
383.01	444.78
383.39	461.05
383.77	432.8
384.15	449.07
384.53	468.5
384.91	452.46
385.29	464.89
385.67	466.92
386.049	471.22
386.429	473.7
386.809	467.6
387.189	463.53
387.568	486.36
387.948	494.49
388.328	495.85
388.707	495.85
389.087	520.48
389.466	489.3
389.846	482.74
390.225	490.65
390.605	502.4
390.984	522.06
391.363	528.39
391.743	522.29
392.122	508.05
392.501	495.62
392.881	537.66
393.26	524.1
393.639	528.84
394.018	544.43
394.397	527.71
394.776	548.05
395.155	552.12
395.534	549.18
395.913	541.05
396.292	544.89
396.671	551.21
397.05	548.28
397.429	562.06
397.808	567.94
398.186	547.82
398.565	580.37
398.944	555.51
399.323	568.16
399.701	579.69
400.08	574.04
400.458	593.47
400.837	602.74
401.215	586.24
401.594	600.03
401.972	608.61
402.351	607.94
402.729	620.14
403.107	607.26
403.486	595.28
403.864	627.6
404.242	628.5
404.62	635.96
404.999	635.28
405.377	643.64
405.755	641.38
406.133	648.61
406.511	655.39
406.889	660.59
407.267	665.11
407.645	654.94
408.023	685.45
408.401	699.23
408.779	690.65
409.156	694.26
409.534	693.36
409.912	708.95
410.29	716.86
410.667	720.02
411.045	738.78
411.422	739.01
411.8	742.62
412.178	749.63
412.555	765.67
412.933	762.06
413.31	791.43
413.687	787.14
414.065	795.95
414.442	813.35
414.819	807.25
415.197	821.04
415.574	812.45
415.951	813.58
416.328	839.79
416.705	839.12
417.082	852
417.46	863.07
417.837	861.94
418.214	848.61
418.591	885.44
418.967	871.88
419.344	884.09
419.721	868.72
420.098	906.23
420.475	898.55
420.852	884.54
421.228	916.18
421.605	896.97
421.982	924.54
422.358	934.26
422.735	929.96
423.111	954.37
423.488	952.56
423.864	969.96
424.241	979.9
424.617	976.06
424.994	950.98
425.37	998.89
425.746	1001.37
426.123	1016.29
426.499	1008.15
426.875	1034.37
427.251	1051.77
427.627	1059.22
428.003	1040.02
428.379	1065.78
428.756	1081.14
429.132	1093.35
429.507	1088.38
429.883	1127.92
430.259	1123.4
430.635	1148.03
431.011	1139
431.387	1179.22
431.763	1189.39
432.138	1185.77
432.514	1193.01
432.89	1209.95
433.265	1229.84
433.641	1251.99
434.016	1249.73
434.392	1246.79
434.767	1277.97
435.143	1273.23
435.518	1294.7
435.894	1310.74
436.269	1329.05
436.644	1328.82
437.02	1335.83
437.395	1336.05
437.77	1360.91
438.145	1375.15
438.52	1391.42
438.895	1409.72
439.271	1390.06
439.646	1441.13
440.021	1425.77
440.395	1438.42
440.77	1428.03
441.145	1464.18
441.52	1488.59
441.895	1483.62
442.27	1497.86
442.645	1472.32
443.019	1473.22
443.394	1510.06
443.769	1534.92
444.143	1517.52
444.518	1543.28
444.892	1522.94
445.267	1558.19
445.641	1542.83
446.016	1586.44
446.39	1543.05
446.764	1592.54
447.139	1593.67
447.513	1579.21
447.887	1604.97
448.262	1609.72
448.636	1639.32
449.01	1651.07
449.384	1655.14
449.758	1665.54
450.132	1675.03
450.506	1692.43
450.88	1703.5
451.254	1704.86
451.628	1733.78
452.002	1729.94
452.376	1775.36
452.75	1772.88
453.123	1818.53
453.497	1820.11
453.871	1827.34
454.244	1856.04
454.618	1892.2
454.992	1940.33
455.365	1928.58
455.739	1967
456.112	1962.25
456.486	2006.09
456.859	1992.76
457.232	2054.23
457.606	2054.45
457.979	2075.92
458.352	2079.54
458.725	2136.26
459.099	2154.11
459.472	2171.28
459.845	2196.37
460.218	2215.35
460.591	2249.47
460.964	2265.97
461.337	2268.46
461.71	2327.66
462.083	2378.51
462.456	2366.08
462.829	2407.89
463.201	2455.12
463.574	2430.49
463.947	2467.55
464.32	2505.51
464.692	2557.04
465.065	2544.61
465.438	2572.4
465.81	2639.52
466.183	2630.03
466.555	2663.02
466.928	2657.15
467.3	2687.43
467.672	2715.9
468.045	2782.34
468.417	2816.92
468.789	2809.91
469.161	2859.63
469.534	2893.3
469.906	2914.32
470.278	2951.38
470.65	2981.66
471.022	3065.05
471.394	3052.84
471.766	3130.13
472.138	3123.58
472.51	3202.44
472.882	3261.88
473.253	3281.99
473.625	3347.3
473.997	3405.38
474.369	3408.77
474.74	3487.63
475.112	3506.39
475.484	3586.84
475.855	3616.67
476.227	3663.67
476.598	3733.96
476.97	3786.61
477.341	3856.66
477.713	3927.17
478.084	3937.57
478.455	4037.45
478.827	4113.15
479.198	4205.81
479.569	4207.16
479.94	4309.76
480.311	4391.57
480.682	4506.59
481.053	4615.74
481.424	4677.21
481.795	4697.09
482.166	4783.87
482.537	4869.74
482.908	4998.1
483.279	5072.68
483.65	5155.16
484.021	5246.68
484.391	5345.89
484.762	5422.95
485.133	5449.84
485.503	5586.34
485.874	5683.73
486.244	5760.79
486.615	5901.36
486.985	5947.68
487.356	6087.34
487.726	6142.93
488.097	6305.87
488.467	6403.94
488.837	6523.03
489.207	6616.37
489.578	6741.11
489.948	6865.17
490.318	6948.11
490.688	7038.05
491.058	7176.35
491.428	7313.3
491.798	7418.83
492.168	7564.14
492.538	7613.63
492.908	7844.13
493.278	7951.7
493.648	8025.14
494.017	8218.13
494.387	8264.68
494.757	8405.25
495.126	8468.07
495.496	8652.7
495.866	8725.91
496.235	8890.43
496.605	9027.38
496.974	9134.27
497.344	9236.86
497.713	9289.29
498.082	9511.2
498.452	9595.27
498.821	9790.52
499.19	9918.65
499.559	9924.75
499.928	10042.49
500.298	10193.67
500.667	10312.77
501.036	10479.31
501.405	10597.05
501.774	10711.85
502.143	10795.46
502.512	10924.73
502.88	11119.75
503.249	11171.27
503.618	11345.96
503.987	11333.76
504.356	11514.09
504.724	11678.38
505.093	11740.52
505.462	11866.62
505.83	11957.47
506.199	12145.26
506.567	12303.9
506.936	12324.69
507.304	12527.85
507.672	12656.43
508.041	12724.45
508.409	12919.7
508.777	13046.25
509.145	13179.58
509.514	13188.17
509.882	13362.85
510.25	13478.33
510.618	13591.1
510.986	13649.18
511.354	13746.35
511.722	13905.67
512.09	14097.07
512.458	14060.92
512.826	14326.67
513.193	14320.57
513.561	14435.37
513.929	14517.4
514.297	14710.39
514.664	14848.24
515.032	14937.28
515.4	15067.44
515.767	15216.82
516.135	15325.97
516.502	15300.88
516.869	15592.63
517.237	15656.13
517.604	15606.86
517.972	15910.36
518.339	15894.77
518.706	16040.98
519.073	16166.62
519.44	16380.18
519.808	16490.46
520.175	16510.34
520.542	16708.76
520.909	16801.63
521.276	16919.15
521.643	17182.19
522.009	17262.87
522.376	17362.52
522.743	17461.96
523.11	17646.13
523.477	17968.84
523.843	17949.63
524.21	18185.78
524.577	18239.79
524.943	18485.21
525.31	18469.84
525.676	18785.99
526.043	18809.49
526.409	18950.05
526.776	19211.06
527.142	19373.09
527.508	19418.29
527.874	19626.42
528.241	19732.63
528.607	19836.81
528.973	20023.7
529.339	20059.4
529.705	20346.4
530.071	20445.83
530.437	20587.98
530.803	20805.82
531.169	20806.73
531.535	20937.57
531.901	21030.45
532.267	21316.09
532.632	21285.58
532.998	21367.62
533.364	21565.8
533.73	21517.44
534.095	21905.23
534.461	21820.26
534.826	21904.33
535.192	22173.47
535.557	22324.43
535.923	22209.63
536.288	22336.4
536.653	22460.02
537.019	22464.08
537.384	22659.79
537.749	22616.62
538.114	22770.07
538.479	22850.74
538.845	23009.83
539.21	23004.86
539.575	23194.69
539.94	23130.73
540.305	23261.8
540.67	23305.19
541.034	23468.8
541.399	23456.83
541.764	23579.08
542.129	23675.58
542.494	23849.81
542.858	23829.02
543.223	23786.31
543.587	24007.77
543.952	24018.62
544.316	24057.49
544.681	24159.41
545.045	24257.94
545.41	24333.64
545.774	24383.81
546.138	24260.2
546.503	24552.84
546.867	24602.33
547.231	24546.52
547.595	24737.02
547.959	24784.7
548.324	24864.25
548.688	24839.84
549.052	24978.82
549.416	24971.82
549.779	24975.2
550.143	25180.62
550.507	25322.54
550.871	25287.97
551.235	25348.08
551.599	25541.29
551.962	25640.72
552.326	25648.63
552.689	25731.12
553.053	25549.88
553.417	25683.89
553.78	26035.74
554.143	25967.27
554.507	26092.46
554.87	26124.78
555.234	26311.44
555.597	26265.34
555.96	26444.77
556.323	26516.86
556.686	26649.51
557.05	26738.55
557.413	26816.96
557.776	26844.31
558.139	27036.39
558.502	27106.67
558.865	27071.42
559.228	27387.12
559.59	27503.05
559.953	27512.77
560.316	27787.33
560.679	27806.77
561.041	27985.3
561.404	27929.25
561.767	28222.13
562.129	28153.2
562.492	28430.48
562.854	28479.29
563.217	28380.09
563.579	28553.19
563.941	28829.57
564.304	28981.2
564.666	29198.37
565.028	29177.58
565.39	29199.27
565.753	29417.12
566.115	29517.01
566.477	29656.21
566.839	29698.92
567.201	30157.44
567.563	29905.24
567.925	30276.08
568.287	30128.74
568.648	30337.32
569.01	30716.75
569.372	30859.34
569.734	30870.64
570.095	31077.87
570.457	31269.28
570.819	31331.2
571.18	31384.53
571.542	31773.9
571.903	31713.56
572.265	32076.49
572.626	32242.13
572.987	32339.08
573.349	32460.43
573.71	32681.67
574.071	32803.7
574.432	32947.42
574.794	33236.46
575.155	33450.01
575.516	33315.78
575.877	33694.98
576.238	33755.31
576.599	33982.88
576.96	34114.4
577.32	34244.34
577.681	34326.37
578.042	34712.8
578.403	34639.58
578.763	34858.33
579.124	34916.86
579.485	35370.64
579.845	35521.37
580.206	35599.56
580.566	35659.22
580.927	35871.64
581.287	36102.37
581.648	36207.68
582.008	36611.51
582.368	36814.22
582.728	36821.9
583.089	37177.37
583.449	37383.47
583.809	37656.23
584.169	37884.47
584.529	38062.32
584.889	38489.88
585.249	38478.13
585.609	38549.09
585.969	39152.91
586.329	39201.05
586.688	39708.83
587.048	39850.07
587.408	40078.76
587.768	40332.99
588.127	40626.09
588.487	41055.46
588.846	41455.22
589.206	41370.48
589.565	41871.71
589.925	42448.64
590.284	42679.15
590.643	42866.26
591.003	43360.71
591.362	43757.31
591.721	44048.15
592.08	44288.82
592.44	44798.41
592.799	45043.6
593.158	45374.44
593.517	45629.13
593.876	46131.71
594.235	46346.62
594.593	46563.34
594.952	47100.5
595.311	47252.13
595.67	47764.21
596.029	48113.58
596.387	48457.07
596.746	48849.38
597.104	48777.52
597.463	49177.05
597.822	49622.24
598.18	49775.68
598.538	49936.58
598.897	50442.56
599.255	50479.39
599.613	51136.78
599.972	51099.94
600.33	51469.2
600.688	51645.46
601.046	51929.98
601.404	52265.33
601.762	52332.45
602.12	52713.68
602.478	52878.65
602.836	52990.06
603.194	53037.97
603.552	53328.36
603.91	53508.47
604.268	53785.75
604.625	53878.85
604.983	54267.54
605.341	54188.45
605.698	54535.11
606.056	54729.22
606.413	54792.05
606.771	55048.99
607.128	55180.51
607.485	55331.69
607.843	55444.23
608.2	55649.2
608.557	55899.82
608.914	55919.25
609.272	56079.25
609.629	56398.56
609.986	56533.7
610.343	56547.26
610.7	56883.07
611.057	56876.96
611.414	56944.08
611.771	57198.54
612.127	57270.17
612.484	57377.52
612.841	57503.84
613.198	57525.76
613.554	57537.96
613.911	57917.39
614.267	57933.66
614.624	57979.99
614.98	58128.01
615.337	58356.93
615.693	58374.33
616.05	58466.75
616.406	58623.59
616.762	58594.66
617.118	58716.92
617.475	58732.28
617.831	58983.58
618.187	59016.12
618.543	59031.71
618.899	59266.51
619.255	59287.52
619.611	59303.79
619.967	59423.56
620.323	59516.22
620.678	59429.67
621.034	59527.74
621.39	59515.31
621.746	59573.62
622.101	59905.13
622.457	59747.17
622.812	59910.33
623.168	59918.69
623.523	59945.81
623.879	60083.66
624.234	59943.78
624.589	60055.64
624.945	60159.59
625.3	60199.82
625.655	60169.53
626.01	60207.27
626.365	60227.84
626.72	60208.63
627.075	60191.68
627.43	60209.08
627.785	60299.25
628.14	60279.59
628.495	60315.07
628.85	60421.28
629.205	60323.88
629.559	60464.22
629.914	60290.89
630.269	60403.43
630.623	60330.21
630.978	60277.78
631.332	60400.49
631.687	60455.18
632.041	60372.47
632.396	60383.54
632.75	60411.11
633.104	60383.31
633.459	60280.04
633.813	60296.54
634.167	60275.97
634.521	60302.41
634.875	60323.2
635.229	60331.79
635.583	60122.08
635.937	60124.79
636.291	60138.8
636.645	60220.83
636.999	60125.92
637.352	60154.84
637.706	60043.89
638.06	60215.41
638.413	60131.57
638.767	59998.01
639.121	60107.16
639.474	60019.03
639.828	60021.74
640.181	60023.1
640.534	60037.56
640.888	59964.12
641.241	59857
641.594	59923.21
641.947	59892.03
642.301	59790.79
642.654	59852.03
643.007	59794.4
643.36	59877.79
643.713	59799.6
644.066	59889.54
644.419	59675.99
644.771	59491.59
645.124	59278.71
645.477	59202.33
645.83	59103.57
646.182	59092.95
646.535	59073.52
646.888	59101.09
647.24	59025.83
647.593	59102.44
647.945	58995.55
648.298	58913.3
648.65	58841.21
649.002	58791.04
649.355	58731.15
649.707	58690.7
650.059	58725.05
650.411	59030.13
650.763	59140.18
651.115	59457.69
651.467	59365.71
651.819	59389.44
652.171	59297.69
652.523	59268.77
652.875	59253.85
653.227	59168.2
653.578	59347.86
653.93	59268.99
654.282	59120.75
654.633	59083.91
654.985	59207.75
655.337	59217.02
655.688	59134.98
656.039	59243.68
656.391	58988.32
656.742	59002.56
657.094	59067.87
657.445	59065.16
657.796	59086.85
658.147	58904.48
658.498	59055.89
658.849	59056.12
659.2	58968.66
659.551	58874.2
659.902	59025.38
660.253	58927.53
660.604	58952.16
660.955	58858.38
661.306	58981.54
661.656	58876.91
662.007	58915.1
662.358	58939.96
662.708	58889.57
663.059	58874.88
663.409	58778.16
663.76	58794.65
664.11	58874.88
664.461	58935.89
664.811	58851.38
665.161	58859.96
665.511	58784.71
665.862	58833.52
666.212	58873.75
666.562	58832.39
666.912	58796.69
667.262	58676.92
667.612	58813.86
667.962	58732.51
668.312	58787.88
668.662	58842.11
669.011	58813.64
669.361	58789.23
669.711	58757.59
670.06	58712.17
670.41	58624.94
670.76	58668.33
671.109	58784.49
671.459	58657.03
671.808	58670.59
672.157	58699.52
672.507	58603.02
672.856	58565.73
673.205	58607.99
673.554	58610.25
673.904	58560.08
674.253	58732.28
674.602	58576.81
674.951	58226.53
675.3	58111.51
675.649	58497.49
675.998	58566.86
676.346	58554.66
676.695	58576.36
677.044	58355.12
677.393	58466.3
677.741	58528.45
678.09	58414.55
678.438	58333.2
678.787	58480.76
679.135	58437.83
679.484	58251.17
679.832	58365.51
680.181	58283.93
680.529	58283.26
680.877	58245.06
681.225	58252.97
681.573	58414.1
681.922	58214.1
682.27	58134.56
682.618	58116.93
682.966	58099.08
683.314	58069.25
683.661	58058.18
684.009	57985.64
684.357	57923.72
684.705	57907.9
685.053	57922.36
685.4	57858.41
685.748	57862.25
686.095	57817.51
686.443	57674.23
686.79	57747
687.138	57690.95
687.485	57719.2
687.832	57660.22
688.18	57643.27
688.527	57540.9
688.874	57501.13
689.221	57484.86
689.568	57384.97
689.915	57329.61
690.262	57339.78
690.609	57365.54
690.956	57207.8
691.303	57152.89
691.65	57052.55
691.997	57060.69
692.344	56961.48
692.69	56913.35
693.037	56901.37
693.383	56789.06
693.73	56786.8
694.077	56645.11
694.423	56681.49
694.769	56550.42
695.116	56533.47
695.462	56423.42
695.808	56367.6
696.155	56450.76
696.501	56235.85
696.847	56315.17
697.193	56109.3
697.539	56121.73
697.885	55956.54
698.231	55890.55
698.577	55851.91
698.923	55839.25
699.269	55705.47
699.614	55615.53
699.96	55531.92
700.306	55596.77
700.651	55420.73
700.997	55294.63
701.342	55331.47
701.688	55193.62
702.033	55177.8
702.379	55181.42
702.724	54978.94
703.069	55034.98
703.415	54754.99
703.76	54743.91
704.105	54738.49
704.45	54686.97
704.795	54507.31
705.14	54448.55
705.485	54430.48
705.83	54221.44
706.175	54397.26
706.52	54185.51
706.865	54110.94
707.209	53999.98
707.554	54022.12
707.899	53931.51
708.243	53760.44
708.588	53724.28
708.932	53640.67
709.277	53683.83
709.621	53537.84
709.966	53386.66
710.31	53383.95
710.654	53158.87
710.998	53320.9
711.342	53245.2
711.687	53152.09
712.031	53053.34
712.375	52955.71
712.719	52896.05
713.063	52821.93
713.407	53030.74
713.75	52782.61
714.094	52757.07
714.438	52632.1
714.782	52654.48
715.125	52477.98
715.469	52553.24
715.812	52194.83
716.156	52244.09
716.499	52271.89
716.843	52332.9
717.186	52075.28
717.53	52373.35
717.873	52260.59
718.216	52146.69
718.559	51965.46
718.902	51807.04
719.246	51813.37
719.589	51767.72
719.932	51720.04
720.275	51690.66
720.617	51768.17
720.96	51595.97
721.303	51593.26
721.646	51601.17
721.989	51344.23
722.331	51534.28
722.674	51281.63
723.016	51379.26
723.359	51235.31
723.701	51288.86
724.044	51085.93
724.386	50928.65
724.729	51095.87
725.071	51028.98
725.413	51023.79
725.755	50985.82
726.097	50840.51
726.439	50759.61
726.782	50730.69
727.124	50894.3
727.465	50628.54
727.807	50514.65
728.149	50647.3
728.491	50540.86
728.833	50512.39
729.175	50577.47
729.516	50323.24
729.858	50314.88
730.199	50419.96
730.541	50347.87
730.882	50299.06
731.224	50269.46
731.565	50127.54
731.906	50226.29
732.248	50172.28
732.589	49890.26
732.93	49874.21
733.271	49883.7
733.612	49920.09
733.953	50026.52
734.294	49866.08
734.635	49768.68
734.976	49942.68
735.317	49680.09
735.658	49649.13
735.999	49557.61
736.339	49666.99
736.68	49667.66
737.021	49603.94
737.361	49541.34
737.702	49738.17
738.042	49592.18
738.383	49504.73
738.723	49452.3
739.063	49301.12
739.404	49530.04
739.744	49430.16
740.084	49448.69
740.424	49412.98
740.764	49289.37
741.104	49383.6
741.444	49173.89
741.784	49048.7
742.124	49320.78
742.464	49113.1
742.804	49220.67
743.143	49050.73
743.483	49196.49
743.823	48965.53
744.162	49036.49
744.502	49085.53
744.841	48946.55
745.181	48994.91
745.52	48892.77
745.86	48960.56
746.199	48817.06
746.538	48862.03
746.877	48907.23
747.216	48899.55
747.556	48660.68
747.895	48754.47
748.234	48662.94
748.573	48668.14
748.911	48612.1
749.25	48625.88
749.589	48513.12
749.928	48604.64
750.267	48615.49
750.605	48483.97
750.944	48437.41
751.283	48456.85
751.621	48456.85
751.96	48250.75
752.298	48321.48
752.636	48305.21
752.975	48223.18
753.313	48109.06
753.651	48271.54
753.989	48062.06
754.327	48042.17
754.666	47900.93
