Data from 16-1255_FLMS001491_001.txt Node
Date: Thu Apr 19 16:16:46 BST 2018
User: hsy
Spectrometer: FLMS00149
Trigger mode: 0
Integration Time (sec): 1.000000E-2
Scans to average: 10
Electric dark correction enabled: true
Nonlinearity correction enabled: false
Boxcar width: 0
XAxis mode: Wavelengths
Number of Pixels in Spectrum: 2048
>>>>>Begin Spectral Data<<<<<
341.393	-8.12
341.776	-8.12
342.16	-8.12
342.543	-48.12
342.927	-75.24
343.31	-79.31
343.693	-68.46
344.077	-65.52
344.46	-58.29
344.843	-53.54
345.226	-33.21
345.61	-15.13
345.993	-23.49
346.376	-16.71
346.759	-4.96
347.142	27.58
347.525	38.43
347.908	43.18
348.291	86.34
348.674	109.39
349.057	113.68
349.44	109.84
349.823	121.59
350.206	153.91
350.588	255.6
350.971	219.22
351.354	263.74
351.737	279.55
352.119	296.28
352.502	302.38
352.884	316.84
353.267	302.15
353.65	334.02
354.032	340.34
354.414	326.33
354.797	347.12
355.179	360.23
355.562	375.82
355.944	372.21
356.326	370.63
356.709	374.47
357.091	409.72
357.473	391.64
357.855	377.18
358.238	379.44
358.62	374.02
359.002	395.03
359.384	369.04
359.766	378.54
360.148	383.05
360.53	386.9
360.912	375.15
361.294	377.86
361.676	384.86
362.057	391.19
362.439	366.78
362.821	375.15
363.203	375.37
363.584	388.03
363.966	369.27
364.348	371.53
364.729	362.72
365.111	361.81
365.493	374.02
365.874	349.38
366.256	369.04
366.637	351.87
367.019	355.94
367.4	385.99
367.781	373.56
368.163	357.29
368.544	369.27
368.925	356.16
369.306	371.08
369.688	395.03
370.069	373.79
370.45	349.84
370.831	377.41
371.212	379.21
371.593	388.93
371.974	370.4
372.355	382.6
372.736	377.86
373.117	380.8
373.498	369.72
373.879	390.51
374.26	386.44
374.641	384.86
375.021	382.6
375.402	377.86
375.783	384.64
376.163	380.34
376.544	393.45
376.925	421.47
377.305	390.96
377.686	381.02
378.066	393.9
378.447	399.33
378.827	429.16
379.208	403.39
379.588	417.86
379.968	414.01
380.349	418.53
380.729	403.62
381.109	416.27
381.489	433.22
381.87	427.57
382.25	415.14
382.63	419.89
383.01	420.34
383.39	403.62
383.77	429.16
384.15	438.42
384.53	433.68
384.91	437.97
385.29	440.68
385.67	437.97
386.049	451.08
386.429	462.6
386.809	459.66
387.189	437.06
387.568	451.75
387.948	440
388.328	464.18
388.707	467.8
389.087	469.61
389.466	469.83
389.846	486.33
390.225	501.47
390.605	462.37
390.984	463.73
391.363	493.79
391.743	484.97
392.122	490.85
392.501	487.01
392.881	501.24
393.26	503.5
393.639	525.42
394.018	509.83
394.397	502.37
394.776	524.75
395.155	524.07
395.534	526.33
395.913	524.97
396.292	531.98
396.671	525.88
397.05	531.53
397.429	545.99
397.808	549.6
398.186	549.83
398.565	540.11
398.944	555.93
399.323	552.09
399.701	569.26
400.08	562.94
400.458	543.5
400.837	563.84
401.215	573.33
401.594	571.07
401.972	562.49
402.351	582.37
402.729	598.87
403.107	587.12
403.486	592.99
403.864	594.12
404.242	579.43
404.62	607
404.999	577.85
405.377	597.96
405.755	611.75
406.133	619.21
406.511	633.67
406.889	635.7
407.267	625.31
407.645	628.02
408.023	641.81
408.401	649.04
408.779	653.33
409.156	673.22
409.534	666.89
409.912	687.23
410.29	674.12
410.667	684.52
411.045	680.67
411.422	687.91
411.8	705.53
412.178	726.32
412.555	731.52
412.933	733.78
413.31	712.09
413.687	736.94
414.065	751.18
414.442	747.57
414.819	742.82
415.197	770.84
415.574	785.08
415.951	798.64
416.328	789.15
416.705	781.46
417.082	787.56
417.46	789.15
417.837	797.28
418.214	789.82
418.591	815.59
418.967	839.99
419.344	833.44
419.721	832.08
420.098	833.44
420.475	852.65
420.852	837.05
421.228	857.84
421.605	856.49
421.982	855.36
422.358	899.43
422.735	850.61
423.111	863.49
423.488	898.97
423.864	904.17
424.241	908.46
424.617	915.24
424.994	901.91
425.37	927.9
425.746	906.43
426.123	931.29
426.499	940.33
426.875	978.52
427.251	974
427.627	966.32
428.003	995.69
428.379	994.34
428.756	997.95
429.132	1036.15
429.507	1033.89
429.883	995.69
430.259	1070.27
430.635	1046.54
431.011	1103.94
431.387	1068.69
431.763	1092.19
432.138	1079.76
432.514	1112.3
432.89	1110.72
433.265	1143.26
433.641	1160.44
434.016	1173.32
434.392	1162.7
434.767	1186.42
435.143	1170.6
435.518	1207.67
435.894	1223.94
436.269	1211.51
436.644	1248.57
437.02	1239.98
437.395	1278.62
437.77	1248.79
438.145	1298.74
438.52	1300.77
438.895	1309.58
439.271	1303.93
439.646	1313.88
440.021	1306.42
440.395	1355.46
440.77	1306.65
441.145	1321.79
441.52	1360.88
441.895	1362.69
442.27	1380.32
442.645	1402.24
443.019	1367.66
443.394	1430.71
443.769	1399.75
444.143	1403.59
444.518	1430.48
444.892	1429.13
445.267	1442.69
445.641	1471.16
446.016	1448.56
446.39	1460.54
446.764	1479.98
447.139	1487.88
447.513	1475.68
447.887	1498.96
448.262	1505.29
448.636	1493.99
449.01	1543.25
449.384	1511.61
449.758	1517.04
450.132	1559.52
450.506	1576.92
450.88	1557.49
451.254	1587.54
451.628	1605.85
452.002	1621.67
452.376	1654.66
452.75	1650.59
453.123	1639.52
453.497	1682.23
453.871	1671.16
454.244	1696.92
454.618	1762.23
454.992	1754.09
455.365	1794.09
455.739	1807.88
456.112	1785.96
456.486	1811.04
456.859	1843.13
457.232	1900.3
457.606	1900.3
457.979	1933.3
458.352	1913.41
458.725	1955.22
459.099	1980.98
459.472	2011.94
459.845	2049.45
460.218	2025.95
460.591	2060.07
460.964	2096.46
461.337	2113.86
461.71	2158.38
462.083	2201.09
462.456	2187.3
462.829	2185.95
463.201	2228.66
463.574	2259.16
463.947	2274.98
464.32	2333.06
464.692	2302.33
465.065	2345.94
465.438	2378.93
465.81	2381.87
466.183	2421.65
466.555	2469.33
466.928	2463.68
467.3	2474.98
467.672	2509.55
468.045	2582.09
468.417	2540.06
468.789	2592.94
469.161	2597.23
469.534	2647.18
469.906	2660.28
470.278	2716.33
470.65	2728.98
471.022	2794.29
471.394	2807.4
471.766	2853.95
472.138	2881.07
472.51	2976.89
472.882	2975.3
473.253	3004.45
473.625	3063.89
473.997	3158.58
474.369	3157.9
474.74	3165.35
475.112	3240.83
475.484	3245.8
475.855	3328.06
476.227	3335.29
476.598	3422.97
476.97	3519.02
477.341	3578.68
477.713	3609.18
478.084	3643.08
478.455	3730.54
478.827	3758.33
479.198	3864.32
479.569	3861.16
479.94	3966.46
480.311	4004.2
480.682	4123.07
481.053	4234.48
481.424	4255.04
481.795	4290.07
482.166	4412.1
482.537	4474.47
482.908	4549.05
483.279	4589.5
483.65	4660.68
484.021	4820.9
484.391	4927.12
484.762	4941.58
485.133	4984.74
485.503	5078.75
485.874	5259.76
486.244	5321
486.615	5403.94
486.985	5483.49
487.356	5576.82
487.726	5676.02
488.097	5830.82
488.467	5817.26
488.837	6023.81
489.207	6084.15
489.578	6160.53
489.948	6288.21
490.318	6421.31
490.688	6449.56
491.058	6643.68
491.428	6764.58
491.798	6786.95
492.168	6988.76
492.538	7018.36
492.908	7173.16
493.278	7297.9
493.648	7321.4
494.017	7525.47
494.387	7598.68
494.757	7744.44
495.126	7865.34
495.496	7936.75
495.866	8048.84
496.235	8207.26
496.605	8279.34
496.974	8481.15
497.344	8525.89
497.713	8615.83
498.082	8747.13
498.452	8822.16
498.821	8957.97
499.19	8974.24
499.559	9157.74
499.928	9246.78
500.298	9352.99
500.667	9531.51
501.036	9625.07
501.405	9747.33
501.774	9746.2
502.143	9992.07
502.512	10009.24
502.88	10192.51
503.249	10224.15
503.618	10395.9
503.987	10413.3
504.356	10571.04
504.724	10720.86
505.093	10797.92
505.462	10912.04
505.83	10993.17
506.199	11121.08
506.567	11241.3
506.936	11294.41
507.304	11503.89
507.672	11632.7
508.041	11753.6
508.409	11780.72
508.777	11984.56
509.145	12107.04
509.514	12133.93
509.882	12271.1
510.25	12352.91
510.618	12602.62
510.986	12527.59
511.354	12699.34
511.722	12841.26
512.09	12981.37
512.458	12919
512.826	13200.8
513.193	13222.94
513.561	13299.55
513.929	13435.14
514.297	13619.32
514.664	13668.81
515.032	13758.3
515.4	13892.3
515.767	14005.3
516.135	14054.56
516.502	13954.9
516.869	14243.71
517.237	14289.13
517.604	14322.8
517.972	14605.96
518.339	14660.65
518.706	14757.82
519.073	14842.56
519.44	14973.63
519.808	15195.77
520.175	15109
520.542	15389.67
520.909	15492.04
521.276	15544.01
521.643	15779.26
522.009	15769.99
522.376	15889.54
522.743	16050.89
523.11	16240.72
523.477	16399.36
523.843	16499.02
524.21	16697.88
524.577	16822.17
524.943	17059.9
525.31	17040.7
525.676	17302.38
526.043	17446.79
526.409	17461.48
526.776	17675.48
527.142	17771.3
527.508	17809.26
527.874	18057.62
528.241	18070.5
528.607	18150.5
528.973	18483.14
529.339	18475.46
529.705	18773.08
530.071	18766.3
530.437	19040.87
530.803	19141.88
531.169	19216.68
531.535	19316.34
531.901	19428.2
532.267	19505.94
532.632	19558.37
532.998	19682.43
533.364	19866.16
533.73	19977.79
534.095	20182.31
534.461	20162.87
534.826	20333.94
535.192	20357.22
535.557	20487.61
535.923	20580.72
536.288	20631.56
536.653	20877.88
537.019	20781.39
537.384	20874.27
537.749	20907.94
538.114	21043.98
538.479	21023.87
538.845	21192.45
539.21	21255.95
539.575	21400.58
539.94	21348.61
540.305	21549.5
540.67	21474.25
541.034	21609.84
541.399	21726.67
541.764	21817.52
542.129	21891.19
542.494	21969.61
542.858	22001.92
543.223	21913.79
543.587	22140.9
543.952	22083.28
544.316	22227.45
544.681	22279.65
545.045	22437.16
545.41	22419.54
545.774	22514.68
546.138	22543.83
546.503	22662.24
546.867	22663.82
547.231	22773.88
547.595	22959.86
547.959	22914.21
548.324	22894.33
548.688	22992.18
549.052	23016.13
549.416	23030.14
549.779	23164.15
550.143	23267.65
550.507	23499.06
550.871	23360.53
551.235	23437.82
551.599	23650.69
551.962	23724.36
552.326	23639.39
552.689	23868.99
553.053	23708.09
553.417	23927.29
553.78	24123.45
554.143	24104.47
554.507	24106.72
554.87	24088.19
555.234	24387.4
555.597	24321.63
555.96	24393.27
556.323	24398.47
556.686	24561.18
557.05	24713.94
557.413	24835.97
557.776	24875.74
558.139	25009.98
558.502	24956.65
558.865	25089.52
559.228	25267.6
559.59	25233.25
559.953	25321.61
560.316	25665.1
560.679	25590.98
561.041	25761.82
561.404	25975.15
561.767	26049.72
562.129	26026.22
562.492	26280.68
562.854	26194.81
563.217	26268.02
563.579	26281.81
563.941	26641.35
564.304	26738.29
564.666	26934.67
565.028	26878.4
565.39	27072.97
565.753	27424.6
566.115	27281.33
566.477	27518.61
566.839	27592.73
567.201	27813.75
567.563	27845.38
567.925	27996.11
568.287	28100.97
568.648	28183.23
569.01	28337.12
569.372	28697.34
569.734	28686.94
570.095	29007.39
570.457	29145.69
570.819	29204.44
571.18	29218
571.542	29450.54
571.903	29544.77
572.265	29666.13
572.626	29889.85
572.987	29902.05
573.349	30181.37
573.71	30152.67
574.071	30383.4
574.432	30594.69
574.794	31003.72
575.155	30985.19
575.516	30932.76
575.877	31270.6
576.238	31283.26
576.599	31525.51
576.96	31672.4
577.32	31768.67
577.681	31907.42
578.042	32154.87
578.403	32223.12
578.763	32356.9
579.124	32432.83
579.485	32755.76
579.845	32971.58
580.206	33105.58
580.566	33278.46
580.927	33365.92
581.287	33731.33
581.648	33753.25
582.008	34042.73
582.368	34205.67
582.728	34525.89
583.089	34569.5
583.449	34896.05
583.809	35179.65
584.169	35345.53
584.529	35538.97
584.889	35992.06
585.249	35967.66
585.609	36156.13
585.969	36662.55
586.329	36737.13
586.688	37229.77
587.048	37289.2
587.408	37738.68
587.768	37873.14
588.127	38114.72
588.487	38567.59
588.846	39108.14
589.206	38977.52
589.565	39376.61
589.925	39994.89
590.284	40004.39
590.643	40294.55
591.003	40739.73
591.362	41238.25
591.721	41549.2
592.08	41854.05
592.44	42375.85
592.799	42575.17
593.158	42944.42
593.517	43241.81
593.876	43655.36
594.235	43926.99
594.593	44314.33
594.952	44745.05
595.311	44848.78
595.67	45409.44
596.029	45934.17
596.387	46137.78
596.746	46641.05
597.104	46695.06
597.463	47015.95
597.822	47509.05
598.18	47643.73
598.538	47928.02
598.897	48468.12
599.255	48467.67
599.613	49268.1
599.972	49138.16
600.33	49630.57
600.688	49665.37
601.046	50000.06
601.404	50509.65
601.762	50693.6
602.12	50935.4
602.478	51175.39
602.836	51328.16
603.194	51357.76
603.552	51659.45
603.91	51866.45
604.268	52178.3
604.625	52409.26
604.983	52624.17
605.341	52716.14
605.698	52958.17
606.056	53320.42
606.413	53334.88
606.771	53672.05
607.128	53749.34
607.485	53859.61
607.843	54054.64
608.2	54310.68
608.557	54548.41
608.914	54560.16
609.272	54850.78
609.629	55046.93
609.986	55183.2
610.343	55290.99
610.7	55540.02
611.057	55643.75
611.414	55659.79
611.771	55944.98
612.127	56003.97
612.484	56189.95
612.841	56361.92
613.198	56384.29
613.554	56392.2
613.911	56726.21
614.267	56702.03
614.624	56893.43
614.98	57018.4
615.337	57235.35
615.693	57259.53
616.05	57255.23
616.406	57493.87
616.762	57496.36
617.118	57538.16
617.475	57671.49
617.831	57831.71
618.187	57896.57
618.543	58001.43
618.899	58216.56
619.255	58197.13
619.611	58143.8
619.967	58371.59
620.323	58418.14
620.678	58455.88
621.034	58432.83
621.39	58537.68
621.746	58505.37
622.101	58835.3
622.457	58665.36
622.812	58828.75
623.168	58908.07
623.523	58896.77
623.879	58998.46
624.234	58923.89
624.589	58984.45
624.945	59079.36
625.3	59160.72
625.655	59168.4
626.01	59181.51
626.365	59263.77
626.72	59161.4
627.075	59172.02
627.43	59248.4
627.785	59255.18
628.14	59303.54
628.495	59325.91
628.85	59402.29
629.205	59306.48
629.559	59404.55
629.914	59368.4
630.269	59345.8
630.623	59255.41
630.978	59266.48
631.332	59418.34
631.687	59449.75
632.041	59412.46
632.396	59390.32
632.75	59366.36
633.104	59425.12
633.459	59294.05
633.813	59380.83
634.167	59374.5
634.521	59327.27
634.875	59340.15
635.229	59264.67
635.583	59164.56
635.937	59227.61
636.291	59240.49
636.645	59264.44
636.999	59122.53
637.352	59268.74
637.706	59045.92
638.06	59111.91
638.413	59099.25
638.767	59030.33
639.121	59105.8
639.474	59016.54
639.828	59021.97
640.181	59015.19
640.534	59035.3
640.888	58930.67
641.241	58782.42
641.594	58889.99
641.947	58951.91
642.301	58767.73
642.654	58880.5
643.007	58774.74
643.36	58862.42
643.713	58818.13
644.066	58986.03
644.419	58665.36
644.771	58515.09
645.124	58254.75
645.477	58249.78
645.83	58075.78
646.182	58066.96
646.535	58109.22
646.888	58152.61
647.24	58060.63
647.593	58224.02
647.945	58103.8
648.298	57967.76
648.65	57867.65
649.002	57756.01
649.355	57790.13
649.707	57727.99
650.059	57729.12
650.411	58053.4
650.763	58078.26
651.115	58492.04
651.467	58364.81
651.819	58433.28
652.171	58321.42
652.523	58178.37
652.875	58243.68
653.227	58157.13
653.578	58379.27
653.93	58239.84
654.282	58182.67
654.633	58192.61
654.985	58192.61
655.337	58183.57
655.688	58134.76
656.039	58233.51
656.391	58009.79
656.742	57960.98
657.094	58047.53
657.445	58050.69
657.796	58082.1
658.147	57943.35
658.498	58086.85
658.849	58069.22
659.2	58040.75
659.551	57861.54
659.902	58102.44
660.253	57960.52
660.604	57999.39
660.955	57852.96
661.306	57955.55
661.656	57910.36
662.007	57857.93
662.358	57887.98
662.708	57861.09
663.059	57892.5
663.409	57775.44
663.76	57860.19
664.11	57858.83
664.461	57905.84
664.811	57892.73
665.161	57896.34
665.511	57791.71
665.862	57776.57
666.212	57887.08
666.562	57895.89
666.912	57852.96
667.262	57760.3
667.612	57753.98
667.962	57765.27
668.312	57717.14
668.662	57842.34
669.011	57730.7
669.361	57783.58
669.711	57749.68
670.06	57717.82
670.41	57701.32
670.76	57666.75
671.109	57735.22
671.459	57668.33
671.808	57669.46
672.157	57731.83
672.507	57561.21
672.856	57577.03
673.205	57586.75
673.554	57616.35
673.904	57488.67
674.253	57730.93
674.602	57534.09
674.951	57326.42
675.3	57131.85
675.649	57591.49
675.998	57558.73
676.346	57545.62
676.695	57546.52
677.044	57499.75
677.393	57491.61
677.741	57578.61
678.09	57383.59
678.438	57417.71
678.787	57409.58
679.135	57465.4
679.484	57346.08
679.832	57422.69
680.181	57325.74
680.529	57330.48
680.877	57235.35
681.225	57343.37
681.573	57452.97
681.922	57281.45
682.27	57247.55
682.618	57247.1
682.966	57187.66
683.314	57165.74
683.661	57125.97
684.009	57026.76
684.357	57025.41
684.705	56934.11
685.053	57048.46
685.4	56895.02
685.748	56850.27
686.095	56873.55
686.443	56728.69
686.79	56699.31
687.138	56828.35
687.485	56754.91
687.832	56665.87
688.18	56653.89
688.527	56559.88
688.874	56515.82
689.221	56544.74
689.568	56467
689.915	56359.44
690.262	56395.37
690.609	56382.71
690.956	56205.77
691.303	56273.11
691.65	56079.67
691.997	56149.05
692.344	55947.02
692.69	55911.09
693.037	55978.66
693.383	55730.53
693.73	55833.35
694.077	55582.06
694.423	55647.14
694.769	55556.75
695.116	55555.39
695.462	55390.42
695.808	55347.49
696.155	55437.65
696.501	55139.13
696.847	55246.92
697.193	55037.66
697.539	55166.25
697.885	54872.7
698.231	54842.87
698.577	54891
698.923	54817.56
699.269	54623.21
699.614	54452.82
699.96	54431.58
700.306	54469.77
700.651	54319.72
700.997	54265.48
701.342	54282.65
701.688	54172.15
702.033	53983.68
702.379	54050.34
702.724	53806.73
703.069	53907.07
703.415	53561.77
703.76	53586.85
704.105	53663.91
704.45	53512.73
704.795	53422.11
705.14	53328.56
705.485	53380.53
705.83	53089.47
706.175	53220.54
706.52	53056.47
706.865	52966.98
707.209	52924.27
707.554	52882.47
707.899	52801.79
708.243	52729.48
708.588	52635.92
708.932	52438.18
709.277	52594.79
709.621	52362.93
709.966	52237.51
710.31	52275.7
710.654	52131.07
710.998	52079.77
711.342	52126.55
711.687	52041.36
712.031	52016.27
712.375	51767.69
712.719	51805.88
713.063	51674.14
713.407	51855.6
713.75	51614.25
714.094	51621.48
714.438	51430.75
714.782	51379
715.125	51304.2
715.469	51469.4
715.812	51206.58
716.156	51121.83
716.499	51108.73
716.843	51201.61
717.186	50896.98
717.53	51065.56
717.873	50992.35
718.216	50948.05
718.559	50836.42
718.902	50550.32
719.246	50659.93
719.589	50507.61
719.932	50447.28
720.275	50518.69
720.617	50479.36
720.96	50475.98
721.303	50336.54
721.646	50380.61
721.989	50126.83
722.331	50269.43
722.674	50159.37
723.016	50120.28
723.359	49964.8
723.701	50060.62
724.044	49872.83
724.386	49748.54
724.729	49816.11
725.071	49829.21
725.413	49836.67
725.755	49736.79
726.097	49639.16
726.439	49546.51
726.782	49512.38
727.124	49660.18
727.465	49580.41
727.807	49362.33
728.149	49276.01
728.491	49286.4
728.833	49238.27
729.175	49189.23
729.516	49190.59
729.858	49044.15
730.199	49150.81
730.541	49101.55
730.882	49044.37
731.224	49002.12
731.565	48912.17
731.906	48927.09
732.248	48919.18
732.589	48708.34
732.93	48828.79
733.271	48672.18
733.612	48626.53
733.953	48683.25
734.294	48675.34
734.635	48539.75
734.976	48729.35
735.317	48568.91
735.658	48447.33
735.999	48400.55
736.339	48452.53
736.68	48350.61
737.021	48429.25
737.361	48311.96
737.702	48483.03
738.042	48299.54
738.383	48301.57
738.723	48392.19
739.063	48141.8
739.404	48245.07
739.744	48176.37
740.084	48156.26
740.424	48254.56
740.764	48071.07
741.104	48202.81
741.444	47888.25
741.784	47929.83
742.124	47977.74
742.464	47888.25
742.804	47951.3
743.143	47770.06
743.483	47803.95
743.823	47775.48
744.162	47786.1
744.502	47857.29
744.841	47787.01
745.181	47768.93
745.52	47636.05
745.86	47774.35
746.199	47682.15
746.538	47633.34
746.877	47754.92
747.216	47596.5
747.556	47581.81
747.895	47683.05
748.234	47513.12
748.573	47507.69
748.911	47463.17
749.25	47388.6
749.589	47164.65
749.928	47360.35
750.267	47433.8
750.605	47278.77
750.944	47456.85
751.283	47421.82
751.621	47327.58
751.96	47113.13
752.298	47203.74
752.636	47168.72
752.975	47153.12
753.313	46975.28
753.651	47203.52
753.989	46915.16
754.327	46944.99
754.666	46656.41
755.004	46800.37
755.342	46761.5
