Data from 16-1255_FLMS001491_007.txt Node
Date: Thu Apr 19 16:17:04 BST 2018
User: hsy
Spectrometer: FLMS00149
Trigger mode: 0
Integration Time (sec): 1.000000E-2
Scans to average: 10
Electric dark correction enabled: true
Nonlinearity correction enabled: false
Boxcar width: 0
XAxis mode: Wavelengths
Number of Pixels in Spectrum: 2048
>>>>>Begin Spectral Data<<<<<
341.393	-9.07
341.776	-9.07
342.16	-9.07
342.543	-65.79
342.927	-65.79
343.31	-84.55
343.693	-74.38
344.077	-59.01
344.46	-60.59
344.843	-52.91
345.226	-40.25
345.61	-21.04
345.993	-28.05
346.376	1.55
346.759	8.11
347.142	13.3
347.525	31.38
347.908	71.83
348.291	89.91
348.674	91.27
349.057	113.42
349.44	136.92
349.823	161.78
350.206	181.89
350.588	241.32
350.971	265.28
351.354	282.45
351.737	288.1
352.119	333.75
352.502	298.04
352.884	304.37
353.267	320.42
353.65	316.8
354.032	329
354.414	354.99
354.797	365.16
355.179	357.02
355.562	360.64
355.944	379.85
356.326	366.29
356.709	380.53
357.091	376.91
357.473	392.05
357.855	388.44
358.238	382.56
358.62	365.61
359.002	386.63
359.384	394.76
359.766	400.41
360.148	390.02
360.53	391.83
360.912	387.76
361.294	395.22
361.676	373.3
362.057	384.14
362.439	383.24
362.821	378.27
363.203	377.14
363.584	383.92
363.966	376.46
364.348	358.83
364.729	382.33
365.111	359.06
365.493	394.54
365.874	365.39
366.256	379.62
366.637	385.5
367.019	385.95
367.4	370.36
367.781	377.59
368.163	372.62
368.544	364.26
368.925	381.88
369.306	357.7
369.688	358.38
370.069	379.85
370.45	372.17
370.831	371.49
371.212	381.66
371.593	399.51
371.974	367.42
372.355	376.23
372.736	394.09
373.117	404.93
373.498	389.11
373.879	377.14
374.26	398.15
374.641	382.79
375.021	373.07
375.402	383.69
375.783	407.64
376.163	424.82
376.544	404.03
376.925	408.1
377.305	397.25
377.686	401.54
378.066	406.97
378.447	414.88
378.827	413.75
379.208	422.33
379.588	413.75
379.968	383.24
380.349	415.1
380.729	421.43
381.109	417.81
381.489	439.06
381.87	439.73
382.25	429.34
382.63	430.02
383.01	429.11
383.39	443.12
383.77	449.9
384.15	441.77
384.53	458.72
384.91	444.48
385.29	426.4
385.67	427.76
386.049	442.45
386.429	444.71
386.809	457.13
387.189	491.48
387.568	457.13
387.948	470.47
388.328	467.3
388.707	471.6
389.087	483.8
389.466	492.16
389.846	500.98
390.225	487.64
390.605	484.03
390.984	471.6
391.363	485.38
391.743	514.76
392.122	490.58
392.501	533.52
392.881	505.27
393.26	498.72
393.639	503.69
394.018	512.05
394.397	518.38
394.776	522.9
395.155	537.58
395.534	539.17
395.913	530.58
396.292	525.61
396.671	535.1
397.05	559.28
397.429	553.63
397.808	543.46
398.186	518.15
398.565	553.18
398.944	549.34
399.323	555.21
399.701	558.83
400.08	567.41
400.458	571.93
400.837	577.13
401.215	575.55
401.594	607.19
401.972	571.48
402.351	589.56
402.729	581.2
403.107	598.37
403.486	609.22
403.864	618.03
404.242	616.23
404.62	616
404.999	630.24
405.377	619.16
405.755	610.35
406.133	638.15
406.511	631.59
406.889	643.34
407.267	650.12
407.645	649.67
408.023	668.88
408.401	665.04
408.779	666.39
409.156	679.73
409.534	704.36
409.912	685.38
410.29	668.43
410.667	716.11
411.045	718.6
411.422	752.04
411.8	720.4
412.178	737.13
412.555	742.1
412.933	754.53
413.31	755.88
413.687	784.13
414.065	755.21
414.442	779.61
414.819	788.65
415.197	803.79
415.574	802.21
415.951	815.54
416.328	823.45
416.705	819.16
417.082	826.39
417.46	830.46
417.837	848.99
418.214	843.11
418.591	833.62
418.967	855.77
419.344	864.58
419.721	862.55
420.098	858.25
420.475	844.02
420.852	883.34
421.228	893.51
421.605	910.23
421.982	871.59
422.358	918.37
422.735	904.35
423.111	915.88
423.488	962.21
423.864	935.77
424.241	936.9
424.617	946.84
424.994	972.6
425.37	940.29
425.746	981.64
426.123	975.54
426.499	952.94
426.875	985.93
427.251	1002.21
427.627	1019.61
428.003	1032.94
428.379	1055.76
428.756	1068.42
429.132	1074.07
429.507	1073.62
429.883	1075.65
430.259	1088.98
430.635	1105.71
431.011	1093.5
431.387	1125.59
431.763	1152.26
432.138	1128.08
432.514	1172.82
432.89	1204.23
433.265	1183.67
433.641	1201.3
434.016	1201.52
434.392	1225.25
434.767	1272.93
435.143	1253.72
435.518	1271.58
435.894	1248.3
436.269	1267.51
436.644	1332.37
437.02	1310.45
437.395	1305.47
437.77	1340.95
438.145	1342.99
438.52	1377.34
438.895	1370.56
439.271	1367.17
439.646	1373.72
440.021	1397.22
440.395	1382.53
440.77	1385.7
441.145	1430.67
441.52	1427.96
441.895	1401.29
442.27	1455.53
442.645	1413.95
443.019	1440.39
443.394	1467.05
443.769	1489.2
444.143	1475.64
444.518	1495.07
444.892	1494.17
445.267	1513.6
445.641	1508.41
446.016	1531.91
446.39	1524.68
446.764	1534.17
447.139	1529.88
447.513	1543.43
447.887	1568.07
448.262	1558.57
448.636	1600.16
449.01	1602.64
449.384	1606.03
449.758	1627.5
450.132	1639.25
450.506	1626.37
450.88	1686.03
451.254	1678.57
451.628	1693.49
452.002	1744.11
452.376	1711.79
452.75	1713.6
453.123	1726.25
453.497	1758.8
453.871	1743.65
454.244	1811.9
454.618	1796.08
454.992	1865.01
455.365	1840.83
455.739	1887.38
456.112	1911.56
456.486	1918.57
456.859	1918.57
457.232	2003.99
457.606	2007.38
457.979	2024.33
458.352	2042.18
458.725	2076.08
459.099	2095.74
459.472	2094.15
459.845	2155.85
460.218	2151.33
460.591	2173.47
460.964	2198.33
461.337	2227.26
461.71	2265.45
462.083	2262.96
462.456	2273.36
462.829	2320.81
463.201	2348.38
463.574	2339.57
463.947	2410.08
464.32	2379.34
464.692	2410.98
465.065	2481.94
465.438	2522.84
465.81	2504.76
466.183	2528.49
466.555	2631.77
466.928	2610.3
467.3	2584.08
467.672	2631.09
468.045	2702.73
468.417	2729.17
468.789	2708.6
469.161	2791.54
469.534	2817.75
469.906	2841.03
470.278	2893.23
470.65	2887.35
471.022	2934.58
471.394	2995.37
471.766	2992.44
472.138	3089.61
472.51	3063.39
472.882	3172.09
473.253	3175.26
473.625	3234.69
473.997	3313.78
474.369	3300.45
474.74	3362.37
475.112	3449.37
475.484	3465.87
475.855	3502.7
476.227	3601.68
476.598	3644.85
476.97	3670.38
477.341	3721.46
477.713	3786.31
478.084	3846.88
478.455	3941.34
478.827	3956.7
479.198	4122.58
479.569	4095.91
479.94	4201.9
480.311	4237.83
480.682	4357.82
481.053	4381.33
481.424	4540.42
481.795	4584.48
482.166	4678.72
482.537	4698.83
482.908	4865.83
483.279	4880.97
483.65	5010.24
484.021	5063.34
484.391	5129.55
484.762	5210.91
485.133	5263.79
485.503	5359.6
485.874	5511.92
486.244	5629.2
486.615	5686.6
486.985	5800.27
487.356	5863.09
487.726	5962.07
488.097	6068.51
488.467	6150.09
488.837	6319.81
489.207	6389.63
489.578	6530.87
489.948	6603.64
490.318	6786.91
490.688	6804.31
491.058	6976.96
491.428	7075.49
491.798	7209.5
492.168	7312.55
492.538	7459.89
492.908	7580.56
493.278	7691.07
493.648	7760.45
494.017	7909.59
494.387	7963.6
494.757	8167.44
495.126	8280.66
495.496	8352.29
495.866	8418.28
496.235	8584.15
496.605	8801.32
496.974	8824.6
497.344	8973.75
497.713	9107.08
498.082	9247.41
498.452	9326.51
498.821	9436.33
499.19	9504.13
499.559	9648.53
499.928	9813.5
500.298	9874.06
500.667	10029.54
501.036	10109.76
501.405	10290.32
501.774	10356.08
502.143	10497.1
502.512	10635.85
502.88	10764.43
503.249	10808.5
503.618	10960.81
503.987	11047.14
504.356	11178.89
504.724	11296.85
505.093	11426.34
505.462	11469.73
505.83	11614.13
506.199	11799.44
506.567	11899.32
506.936	12050.73
507.304	12210.95
507.672	12260.89
508.041	12360.78
508.409	12582.24
508.777	12733.42
509.145	12786.08
509.514	12861.33
509.882	12927.54
510.25	13066.07
510.618	13272.84
510.986	13276.01
511.354	13456.12
511.722	13609.78
512.09	13696.79
512.458	13690.91
512.826	13845.48
513.193	13917.12
513.561	14083.22
513.929	14209.09
514.297	14264.91
514.664	14529.76
515.032	14543.09
515.4	14688.85
515.767	14731.56
516.135	14830.09
516.502	14715.07
516.869	15170.65
517.237	15195.28
517.604	15231.66
517.972	15411.54
518.339	15434.59
518.706	15617.19
519.073	15724.53
519.44	15808.14
519.808	15979.21
520.175	16096.5
520.542	16301.01
520.909	16307.34
521.276	16436.6
521.643	16630.72
522.009	16646.31
522.376	16922.46
522.743	16910.49
523.11	17259.86
523.477	17423.02
523.843	17394.32
524.21	17672.5
524.577	17833.4
524.943	17879.28
525.31	17994.75
525.676	18260.06
526.043	18430.9
526.409	18503.44
526.776	18612.59
527.142	18740.27
527.508	18968.06
527.874	19077.66
528.241	19178
528.607	19343.19
528.973	19473.58
529.339	19523.07
529.705	19792.45
530.071	19787.25
530.437	19940.46
530.803	20100.01
531.169	20234.92
531.535	20357.4
531.901	20393.11
532.267	20468.81
532.632	20717.39
532.998	20775.7
533.364	20958.29
533.73	20986.31
534.095	21123.03
534.461	21153.77
534.826	21405.28
535.192	21443.02
535.557	21606.86
535.923	21611.38
536.288	21710.14
536.653	21780.42
537.019	21867.19
537.384	22021.54
537.749	21950.81
538.114	22047.98
538.479	22110.12
538.845	22245.71
539.21	22270.12
539.575	22375.43
539.94	22522.77
540.305	22597.8
540.67	22673.73
541.034	22738.36
541.399	22791.91
541.764	22925.24
542.129	22971.57
542.494	23085.92
542.858	23248.85
543.223	23091.12
543.587	23345.35
543.952	23258.8
544.316	23270.09
544.681	23369.98
545.045	23667.82
545.41	23617.66
545.774	23630.76
546.138	23689.07
546.503	23699.01
546.867	23728.61
547.231	23961.38
547.595	24072.79
547.959	24102.61
548.324	24146.46
548.688	24306
549.052	24315.49
549.416	24384.87
549.779	24264.64
550.143	24385.55
550.507	24562.49
550.871	24546.44
551.235	24559.33
551.599	24841.58
551.962	24843.84
552.326	24922.48
552.689	24939.43
553.053	24927.45
553.417	25092.42
553.78	25377.61
554.143	25173.77
554.507	25368.12
554.87	25531.96
555.234	25658.96
555.597	25466.19
555.96	25663.03
556.323	25789.12
556.686	25817.82
557.05	26049.23
557.413	26021.89
557.776	26101.88
558.139	26323.57
558.502	26339.84
558.865	26363.57
559.228	26574.64
559.59	26574.64
559.953	26612.38
560.316	27004.01
560.679	26985.02
561.041	27127.62
561.404	27247.84
561.767	27393.6
562.129	27368.07
562.492	27690.77
562.854	27627.72
563.217	27658.45
563.579	27774.83
563.941	27907.71
564.304	28156.29
564.666	28271.54
565.028	28344.09
565.39	28267.48
565.753	28688.93
566.115	28543.18
566.477	28661.82
566.839	28909.27
567.201	29264.74
567.563	29219.99
567.925	29509.25
568.287	29470.16
568.648	29573.21
569.01	29674.9
569.372	30013.65
569.734	29923.93
570.095	30294.09
570.457	30375.44
570.819	30334.77
571.18	30476.91
571.542	30795.32
571.903	30790.12
572.265	30976.78
572.626	31021.75
572.987	31223.11
573.349	31486.38
573.71	31553.49
574.071	31846.82
574.432	31961.17
574.794	32273.47
575.155	32281.61
575.516	32481.6
575.877	32579
576.238	32559.12
576.599	32922.95
576.96	33009.27
577.32	33160.23
577.681	33231.87
578.042	33511.63
578.403	33624.4
578.763	33842.92
579.124	33988.23
579.485	34303.02
579.845	34425.73
580.206	34477.03
580.566	34666.86
580.927	34777.14
581.287	35097.35
581.648	35157.92
582.008	35557.68
582.368	35683.1
582.728	35758.81
583.089	35824.79
583.449	36249.87
583.809	36405.57
584.169	36705.67
584.529	36800.36
584.889	37230.41
585.249	37203.29
585.609	37502.71
585.969	37899.09
586.329	38030.84
586.688	38481.9
587.048	38679.18
587.408	38886.18
587.768	39230.13
588.127	39428.99
588.487	39760.51
588.846	40261.51
589.206	40226.71
589.565	40739.24
589.925	41068.04
590.284	41283.63
590.643	41569.5
591.003	41969.72
591.362	42496.71
591.721	42751.16
592.08	42898.05
592.44	43518.15
592.799	43635.21
593.158	44050.56
593.517	44220.96
593.876	44804.22
594.235	44922.41
594.593	45417.53
594.952	45737.75
595.311	45972.55
595.67	46311.97
596.029	46867.21
596.387	47206.41
596.746	47597.14
597.104	47726.4
597.463	47916.45
597.822	48475.99
598.18	48523.89
598.538	48887.95
598.897	49294.72
599.255	49391.44
599.613	50019.45
599.972	50067.58
600.33	50417.86
600.688	50575.59
601.046	50834.12
601.404	51301.45
601.762	51519.52
602.12	51713.19
602.478	51965.61
602.836	52138.26
603.194	52168.54
603.552	52469.33
603.91	52561.98
604.268	52882.42
604.625	53034.96
604.983	53234.96
605.341	53344.78
605.698	53759.91
606.056	54031.09
606.413	53950.19
606.771	54344.31
607.128	54367.36
607.485	54473.57
607.843	54668.14
608.2	54964.18
608.557	55095.92
608.914	55142.7
609.272	55385.86
609.629	55618.85
609.986	55723.03
610.343	55781.56
610.7	56099.97
611.057	56149
611.414	56214.09
611.771	56411.14
612.127	56559.39
612.484	56671.93
612.841	56777.91
613.198	56816.78
613.554	56923.45
613.911	57230.11
614.267	57259.48
614.624	57329.31
614.98	57489.76
615.337	57634.84
615.693	57627.38
616.05	57753.93
616.406	57957.09
616.762	57954.38
617.118	58014.49
617.475	58038.9
617.831	58213.36
618.187	58364.99
618.543	58451.77
618.899	58628.49
619.255	58592.1
619.611	58573.35
619.967	58734.92
620.323	58821.7
620.678	58811.53
621.034	58848.59
621.39	58909.61
621.746	58976.5
622.101	59264.85
622.457	59082.49
622.812	59273.89
623.168	59367.9
623.523	59331.29
623.879	59420.78
624.234	59345.53
624.589	59444.74
624.945	59459.2
625.3	59529.48
625.655	59602.25
626.01	59603.38
626.365	59669.36
626.72	59646.31
627.075	59588.91
627.43	59667.78
627.785	59734.9
628.14	59697.61
628.495	59708.01
628.85	59792.3
629.205	59757.95
629.559	59882.92
629.914	59774.9
630.269	59809.47
630.623	59692.19
630.978	59620.33
631.332	59835.23
631.687	59799.76
632.041	59806.76
632.396	59814.67
632.75	59738.74
633.104	59803.82
633.459	59627.33
633.813	59705.29
634.167	59699.19
634.521	59701.45
634.875	59715.24
635.229	59724.05
635.583	59572.42
635.937	59620.55
636.291	59609.03
636.645	59586.88
636.999	59541.91
637.352	59610.83
637.706	59404.96
638.06	59578.29
638.413	59423.72
638.767	59494.68
639.121	59496.94
639.474	59352.31
639.828	59378.75
640.181	59365.19
640.534	59475.24
640.888	59307.79
641.241	59178.08
641.594	59308.47
641.947	59367
642.301	59238.41
642.654	59252.43
643.007	59205.42
643.36	59259.88
643.713	59196.16
644.066	59251.3
644.419	59184.63
644.771	58858.31
645.124	58655.83
645.477	58635.72
645.83	58534.48
646.182	58494.03
646.535	58428.72
646.888	58485.89
647.24	58438.44
647.593	58629.84
647.945	58460.81
648.298	58367.02
648.65	58259.91
649.002	58124.32
649.355	58180.36
649.707	58130.65
650.059	58107.37
650.411	58500.81
650.763	58559.34
651.115	58885.2
651.467	58799.33
651.819	58757.75
652.171	58693.57
652.523	58663.29
652.875	58639.79
653.227	58543.52
653.578	58771.31
653.93	58727.69
654.282	58563.63
654.633	58496.51
654.985	58530.18
655.337	58607.92
655.688	58497.42
656.039	58594.82
656.391	58424.2
656.742	58481.6
657.094	58461.03
657.445	58431.66
657.796	58453.12
658.147	58349.85
658.498	58423.29
658.849	58461.49
659.2	58396.18
659.551	58317.76
659.902	58433.46
660.253	58277.99
660.604	58383.75
660.955	58240.02
661.306	58322.73
661.656	58266.46
662.007	58240.7
662.358	58255.84
662.708	58262.62
663.059	58226.92
663.409	58067.82
663.76	58266.24
664.11	58237.54
664.461	58245.45
664.811	58260.81
665.161	58193.7
665.511	58126.58
665.862	58141.04
666.212	58189.18
666.562	58184.66
666.912	58146.69
667.262	58028.73
667.612	58079.12
667.962	58172.91
668.312	58058.78
668.662	58220.59
669.011	58120.25
669.361	58125
669.711	58172.91
670.06	58063.3
670.41	57991.22
670.76	58026.92
671.109	58194.83
671.459	58102.62
671.808	58074.38
672.157	58080.03
672.507	57922.74
672.856	57919.58
673.205	57978.33
673.554	58028.05
673.904	57948.5
674.253	58165.67
674.602	57927.49
674.951	57607.27
675.3	57474.62
675.649	57959.35
675.998	57957.32
676.346	57906.02
676.695	57954.15
677.044	57772.01
677.393	57867.38
677.741	57849.98
678.09	57875.29
678.438	57826.93
678.787	57863.08
679.135	57758.45
679.484	57715.29
679.832	57757.32
680.181	57714.39
680.529	57756.19
680.877	57706.7
681.225	57611.79
681.573	57762.75
681.922	57604.33
682.27	57564.11
682.618	57636.2
682.966	57507.84
683.314	57520.27
683.661	57545.13
684.009	57381.06
684.357	57387.84
684.705	57312.14
685.053	57364.79
685.4	57204.8
685.748	57228.3
686.095	57200.73
686.443	57103.78
686.79	57118.47
687.138	57184.68
687.485	57139.94
687.832	57009.09
688.18	57041.64
688.527	56942.43
688.874	56903.11
689.221	56936.33
689.568	56751.02
689.915	56759.16
690.262	56751.7
690.609	56635.32
690.956	56584.02
691.303	56620.4
691.65	56435.55
691.997	56424.48
692.344	56259.74
692.69	56228.32
693.037	56312.39
693.383	56037.37
693.73	56062.9
694.077	56050.02
694.423	56052.96
694.769	55946.98
695.116	55918.73
695.462	55772.29
695.808	55721.44
696.155	55817.94
696.501	55568.23
696.847	55658.4
697.193	55433.99
697.539	55508.12
697.885	55305.18
698.231	55166.66
698.577	55251.85
698.923	55202.59
699.269	54998.53
699.614	54982.25
699.96	54912.65
700.306	54940.45
700.651	54749.49
700.997	54681.25
701.342	54637.41
701.688	54590.17
702.033	54474.92
702.379	54400.8
702.724	54329.84
703.069	54479.22
703.415	54080.13
703.76	54055.27
704.105	54069.51
704.45	53938.89
704.795	53872
705.14	53765.56
705.485	53784.77
705.83	53564.21
706.175	53779.57
706.52	53584.33
706.865	53436.08
707.209	53419.13
707.554	53321.51
707.899	53338.23
708.243	53160.38
708.588	53162.19
708.932	53011.46
709.277	53050.33
709.621	52804.01
709.966	52671.13
710.31	52704.8
710.654	52500.74
710.998	52602.43
711.342	52564.01
711.687	52409.89
712.031	52344.36
712.375	52229.56
712.719	52212.38
713.063	52127.19
713.407	52133.52
713.75	52043.58
714.094	51972.39
714.438	51890.13
714.782	51884.26
715.125	51717.48
715.469	51877.48
715.812	51613.53
716.156	51535.34
716.499	51643.59
716.843	51514.1
717.186	51322.01
717.53	51496.7
717.873	51481.1
718.216	51344.38
718.559	51207.89
718.902	51033.21
719.246	51001.34
719.589	50932.19
719.932	50843.15
720.275	50781.69
720.617	50861.91
720.96	50748.47
721.303	50776.49
721.646	50796.83
721.989	50482.26
722.331	50661.24
722.674	50558.42
723.016	50654.69
723.359	50453.56
723.701	50453.11
724.044	50296.95
724.386	50120.91
724.729	50320.68
725.071	50302.15
725.413	50229.39
725.755	50157.75
726.097	50014.25
726.439	49947.36
726.782	49944.2
727.124	50200.01
727.465	49943.52
727.807	49835.72
728.149	49849.51
728.491	49775.84
728.833	49797.98
729.175	49621.04
729.516	49623.3
729.858	49695.61
730.199	49620.81
730.541	49656.07
730.882	49475.73
731.224	49430.31
731.565	49366.81
731.906	49341.73
732.248	49307.38
732.589	49115.97
732.93	49145.12
733.271	49159.36
733.612	49122.97
733.953	49211.56
734.294	48992.13
734.635	48959.81
734.976	49146.7
735.317	49002.3
735.658	48909.87
735.999	48799.37
736.339	48784.23
736.68	48859.25
737.021	48893.15
737.361	48683.89
737.702	48902.64
738.042	48795.07
738.383	48821.74
738.723	48797.78
739.063	48506.04
739.404	48732.25
739.744	48533.16
740.084	48506.94
740.424	48678.24
740.764	48510.33
741.104	48611.12
741.444	48482.54
741.784	48196.44
742.124	48472.14
742.464	48368.42
742.804	48327.29
743.143	48197.12
743.483	48339.94
743.823	48087.75
744.162	48156.22
744.502	48177.69
744.841	47946.96
745.181	48169.33
745.52	48118.25
745.86	48180.17
746.199	48109.22
746.538	48005.94
746.877	48075.32
747.216	48111.7
747.556	47842.56
747.895	48022.21
748.234	47957.13
748.573	47890.69
748.911	47799.17
749.25	47863.57
749.589	47689.11
749.928	47839.62
750.267	47854.08
750.605	47714.88
750.944	47621.54
751.283	47579.51
751.621	47719.85
751.96	47391.04
752.298	47426.52
752.636	47619.28
752.975	47373.19
753.313	47264.94
753.651	47552.39
753.989	47303.13
754.327	47285.28
754.666	47129.13
755.004	47145.85
