Data from 16-1255_FLMS001491_008.txt Node
Date: Thu Apr 19 16:17:07 BST 2018
User: hsy
Spectrometer: FLMS00149
Trigger mode: 0
Integration Time (sec): 1.000000E-2
Scans to average: 10
Electric dark correction enabled: true
Nonlinearity correction enabled: false
Boxcar width: 0
XAxis mode: Wavelengths
Number of Pixels in Spectrum: 2048
>>>>>Begin Spectral Data<<<<<
341.393	2.09
341.776	2.09
342.16	2.09
342.543	-47.63
342.927	-65.7
343.31	-76.55
343.693	-64.57
344.077	-76.33
344.46	-59.6
344.843	-62.09
345.226	-43.11
345.61	-47.4
345.993	-14.63
346.376	-1.75
346.759	9.77
347.142	38.93
347.525	48.64
347.908	61.07
348.291	74.4
348.674	95.65
349.057	117.57
349.44	114.18
349.823	140.62
350.206	196.66
350.588	231.91
350.971	249.32
351.354	256.77
351.737	267.62
352.119	284.79
352.502	279.82
352.884	324.12
353.267	317.79
353.65	315.08
354.032	346.49
354.414	332.03
354.797	358.92
355.179	365.7
355.562	394.17
355.944	391.46
356.326	377.45
356.709	376.09
357.091	379.93
357.473	404.79
357.855	386.26
358.238	378.35
358.62	374.06
359.002	390.55
359.384	391.91
359.766	375.87
360.148	372.7
360.53	396.88
360.912	398.01
361.294	379.48
361.676	364.11
362.057	397.56
362.439	378.8
362.821	378.8
363.203	391.68
363.584	381.52
363.966	372.02
364.348	384.45
364.729	368.18
365.111	360.05
365.493	386.94
365.874	389.65
366.256	363.44
366.637	375.19
367.019	385.81
367.4	381.97
367.781	387.16
368.163	364.11
368.544	355.3
368.925	377.22
369.306	383.55
369.688	374.51
370.069	364.79
370.45	381.29
370.831	369.31
371.212	366.15
371.593	377.22
371.974	378.13
372.355	376.77
372.736	379.03
373.117	383.78
373.498	403.21
373.879	372.93
374.26	377
374.641	384.23
375.021	394.4
375.402	413.6
375.783	397.11
376.163	427.16
376.544	381.29
376.925	413.38
377.305	412.93
377.686	390.33
378.066	403.21
378.447	429.42
378.827	426.49
379.208	431.23
379.588	425.58
379.968	431.46
380.349	419.03
380.729	419.48
381.109	411.57
381.489	438.46
381.87	447.5
382.25	434.85
382.63	431.91
383.01	421.06
383.39	419.48
383.77	426.94
384.15	419.93
384.53	442.53
384.91	471.46
385.29	429.65
385.67	457.45
386.049	470.33
386.429	447.95
386.809	456.99
387.189	479.82
387.568	468.07
387.948	481.4
388.328	483.43
388.707	475.3
389.087	480.5
389.466	475.75
389.846	482.53
390.225	487.95
390.605	504
390.984	502.64
391.363	524.34
391.743	488.86
392.122	522.75
392.501	518.46
392.881	511
393.26	513.49
393.639	523.88
394.018	548.52
394.397	518.91
394.776	518.01
395.155	534.96
395.534	531.34
395.913	542.42
396.292	558.46
396.671	554.39
397.05	552.13
397.429	567.5
397.808	527.73
398.186	540.83
398.565	559.14
398.944	567.73
399.323	546.03
399.701	555.07
400.08	579.02
400.458	593.49
400.837	598.23
401.215	569.76
401.594	596.65
401.972	576.54
402.351	598.68
402.729	592.36
403.107	594.17
403.486	605.92
403.864	625.58
404.242	612.24
404.62	620.83
404.999	612.24
405.377	620.61
405.755	645.69
406.133	651.56
406.511	640.27
406.889	652.69
407.267	681.17
407.645	691.11
408.023	674.62
408.401	692.69
408.779	701.28
409.156	689.76
409.534	707.83
409.912	708.96
410.29	701.28
410.667	723.88
411.045	723.2
411.422	747.83
411.8	720.72
412.178	750.32
412.555	760.94
412.933	746.03
413.31	747.61
413.687	775.63
414.065	800.71
414.442	787.15
414.819	776.99
415.197	797.78
415.574	807.72
415.951	819.47
416.328	819.47
416.705	832.13
417.082	825.8
417.46	833.48
417.837	845.23
418.214	840.94
418.591	872.35
418.967	839.81
419.344	870.09
419.721	880.71
420.098	872.58
420.475	906.47
420.852	895.63
421.228	901.95
421.605	891.56
421.982	926.59
422.358	934.95
422.735	926.13
423.111	924.55
423.488	950.99
423.864	956.42
424.241	954.38
424.617	953.03
424.994	979.24
425.37	976.08
425.746	974.27
426.123	988.28
426.499	998
426.875	1038.9
427.251	1009.52
427.627	1035.96
428.003	1053.14
428.379	1068.95
428.756	1064.44
429.132	1097.65
429.507	1102.17
429.883	1089.52
430.259	1103.3
430.635	1140.14
431.011	1139.91
431.387	1149.86
431.763	1169.74
432.138	1163.64
432.514	1183.98
432.89	1190.08
433.265	1196.86
433.641	1227.82
434.016	1234.15
434.392	1242.28
434.767	1272.34
435.143	1271.66
435.518	1299.23
435.894	1285.67
436.269	1318.89
436.644	1334.71
437.02	1341.72
437.395	1332
437.77	1374.03
438.145	1391.21
438.52	1401.6
438.895	1369.74
439.271	1415.16
439.646	1419
440.021	1440.92
440.395	1449.96
440.77	1442.28
441.145	1460.13
441.52	1473.46
441.895	1465.1
442.27	1493.35
442.645	1475.72
443.019	1504.2
443.394	1518.43
443.769	1492.67
444.143	1519.56
444.518	1505.55
444.892	1530.86
445.267	1549.62
445.641	1516.17
446.016	1559.11
446.39	1567.92
446.764	1563.18
447.139	1598.21
447.513	1582.61
447.887	1605.44
448.262	1614.03
448.636	1615.16
449.01	1657.41
449.384	1661.03
449.758	1681.14
450.132	1674.14
450.506	1695.83
450.88	1693.35
451.254	1708.49
451.628	1728.82
452.002	1741.48
452.376	1764.3
452.75	1789.84
453.123	1769.95
453.497	1813.79
453.871	1824.64
454.244	1853.57
454.618	1870.29
454.992	1915.71
455.365	1933.11
455.739	1963.85
456.112	1972.89
456.486	1977.63
456.859	2027.35
457.232	2050.4
457.606	2032.77
457.979	2080.23
458.352	2110.06
458.725	2128.59
459.099	2111.41
459.472	2148.47
459.845	2204.52
460.218	2223.73
460.591	2250.39
460.964	2248.81
461.337	2288.13
461.71	2363.38
462.083	2385.76
462.456	2382.59
462.829	2394.8
463.201	2442.48
463.574	2441.8
463.947	2458.07
464.32	2498.07
464.692	2520.67
465.065	2554.11
465.438	2565.41
465.81	2598.63
466.183	2616.71
466.555	2667.33
466.928	2722.47
467.3	2691.74
467.672	2712.98
468.045	2786.2
468.417	2787.78
468.789	2860.09
469.161	2876.59
469.534	2867.33
469.906	2958.4
470.278	2944.84
470.65	2958.4
471.022	3051.28
471.394	3076.59
471.766	3113.42
472.138	3153.65
472.51	3186.19
472.882	3276.35
473.253	3278.16
473.625	3352.06
473.997	3364.94
474.369	3410.59
474.74	3444.94
475.112	3479.51
475.484	3546.86
475.855	3620.53
476.227	3644.03
476.598	3771.71
476.97	3821.88
477.341	3837.92
477.713	3895.32
478.084	3965.6
478.455	4084.69
478.827	4079.95
479.198	4169.44
479.569	4215.54
479.94	4310.68
480.311	4422.54
480.682	4481.75
481.053	4629.09
481.424	4681.52
481.795	4735.98
482.166	4810.1
482.537	4853.94
482.908	4971.23
483.279	5017.33
483.65	5148.85
484.021	5261.39
484.391	5324.89
484.762	5413.7
485.133	5439.46
485.503	5576.63
485.874	5696.63
486.244	5718.55
486.615	5918.32
486.985	5980.46
487.356	6072.44
487.726	6184.3
488.097	6285.54
488.467	6371.19
488.837	6523.95
489.207	6611.41
489.578	6772.99
489.948	6896.6
490.318	6989.25
490.688	7053.43
491.058	7199.87
491.428	7341.78
491.798	7396.02
492.168	7523.25
492.538	7672.17
492.908	7794.88
493.278	7924.14
493.648	7941.32
494.017	8180.86
494.387	8217.24
494.757	8339.05
495.126	8508.08
495.496	8648.64
495.866	8695.42
496.235	8885.47
496.605	8959.14
496.974	9005.47
497.344	9197.33
497.713	9321.17
498.082	9391
498.452	9613.14
498.821	9729.97
499.19	9789.4
499.559	9924.09
499.928	10006.35
500.298	10139.45
500.667	10235.04
501.036	10322.95
501.405	10550.06
501.774	10566.56
502.143	10704.63
502.512	10827.34
502.88	10999.32
503.249	10998.86
503.618	11128.8
503.987	11291.96
504.356	11418.29
504.724	11642.91
505.093	11667.32
505.462	11687.66
505.83	11899.63
506.199	11983.7
506.567	12199.28
506.936	12243.35
507.304	12462.1
507.672	12483.12
508.041	12636.11
508.409	12771.7
508.777	12889.89
509.145	12957.46
509.514	13094.4
509.882	13215.98
510.25	13340.27
510.618	13413.04
510.986	13504.33
511.354	13632.01
511.722	13819.13
512.09	13973.02
512.458	13886.47
512.826	14147.48
513.193	14185.45
513.561	14301.38
513.929	14386.34
514.297	14595.15
514.664	14685.09
515.032	14802.83
515.4	14953.34
515.767	14991.07
516.135	15114.91
516.502	15087.34
516.869	15338.18
517.237	15468.8
517.604	15381.57
517.972	15653.43
518.339	15826.76
518.706	15885.97
519.073	15932.07
519.44	16030.82
519.808	16254.54
520.175	16282.79
520.542	16534.54
520.909	16512.16
521.276	16694.08
521.643	16859.05
522.009	17035.09
522.376	17134.07
522.743	17308.3
523.11	17488.86
523.477	17593.27
523.843	17689.76
524.21	17915.52
524.577	18051.11
524.943	18244.32
525.31	18210.88
525.676	18556.18
526.043	18717.76
526.409	18780.35
526.776	18905.1
527.142	19019.67
527.508	19135.37
527.874	19367.68
528.241	19464.18
528.607	19556.15
528.973	19783.72
529.339	19856.03
529.705	20032.3
530.071	20107.78
530.437	20233.2
530.803	20546.63
531.169	20544.83
531.535	20709.79
531.901	20826.85
532.267	20863.91
532.632	21086.28
532.998	21077.69
533.364	21236.56
533.73	21253.28
534.095	21458.93
534.461	21527.4
534.826	21703.21
535.192	21651.69
535.557	21954.73
535.923	21936.2
536.288	22112.47
536.653	22260.94
537.019	22200.6
537.384	22363.99
537.749	22459.58
538.114	22466.58
538.479	22420.71
538.845	22631.1
539.21	22776.18
539.575	22775.5
539.94	22867.48
540.305	22971.88
540.67	22937.53
541.034	23060.02
541.399	23194.47
541.764	23230.18
542.129	23235.6
542.494	23325.54
542.858	23457.52
543.223	23472.43
543.587	23582.71
543.952	23619.32
544.316	23684.41
544.681	23698.87
545.045	23723.5
545.41	23963.72
545.774	23869.26
546.138	23857.96
546.503	23914.91
546.867	24083.04
547.231	24230.61
547.595	24289.36
547.959	24336.37
548.324	24406.42
548.688	24398.51
549.052	24572.29
549.416	24600.99
549.779	24583.82
550.143	24664.72
550.507	24861.1
550.871	24855.67
551.235	24819.06
551.599	25292.27
551.962	25096.57
552.326	25173.86
552.689	25278.26
553.053	25223.35
553.417	25295.44
553.78	25609.55
554.143	25604.81
554.507	25579.27
554.87	25873.95
555.234	26064.46
555.597	25773.84
555.96	26021.52
556.323	26144.23
556.686	26137.22
557.05	26359.82
557.413	26383.54
557.776	26435.29
558.139	26541.73
558.502	26737.43
558.865	26692.24
559.228	26912.8
559.59	26983.08
559.953	26987.6
560.316	27314.37
560.679	27303.52
561.041	27468.26
561.404	27579.67
561.767	27756.84
562.129	27752.77
562.492	27981.02
562.854	28010.39
563.217	27992.77
563.579	28054.01
563.941	28337.84
564.304	28345.98
564.666	28743.48
565.028	28617.16
565.39	28710.71
565.753	28908.22
566.115	28988.67
566.477	29232.96
566.839	29214.2
567.201	29601.31
567.563	29586.17
567.925	29735.32
568.287	29747.97
568.648	29913.17
569.01	30223.44
569.372	30401.29
569.734	30388.18
570.095	30684.9
570.457	30767.84
570.819	30903.88
571.18	30940.94
571.542	31273.36
571.903	31216.41
572.265	31489.85
572.626	31615.5
572.987	31679
573.349	32095.26
573.71	32054.35
574.071	32147.23
574.432	32364.86
574.794	32704.96
575.155	32810.04
575.516	32782.92
575.877	32989.25
576.238	33082.58
576.599	33276.92
576.96	33433.08
577.32	33392.62
577.681	33711.03
578.042	33850.69
578.403	34079.84
578.763	34182.43
579.124	34237.8
579.485	34558.24
579.845	34715.08
580.206	34902.19
580.566	34927.27
580.927	34978.12
581.287	35369.07
581.648	35415.4
582.008	35800.92
582.368	35738.33
582.728	36085.89
583.089	36250.4
583.449	36360
583.809	36762.25
584.169	36994.11
584.529	37054.22
584.889	37566.75
585.249	37573.08
585.609	37693.98
585.969	38103.69
586.329	38219.16
586.688	38611.7
587.048	38795.87
587.408	39058.92
587.768	39261.4
588.127	39631.78
588.487	39931.21
588.846	40478.31
589.206	40373.01
589.565	40809.15
589.925	41321.46
590.284	41682.8
590.643	41725.97
591.003	42126.86
591.362	42649.78
591.721	42753.73
592.08	43124.8
592.44	43649.76
592.799	43971.56
593.158	44372.9
593.517	44529.96
593.876	44986.22
594.235	45269.37
594.593	45475.47
594.952	45855.12
595.311	46108
595.67	46530.36
596.029	47042.89
596.387	47314.29
596.746	47878.12
597.104	47870.66
597.463	48187.72
597.822	48597.2
598.18	48718.1
598.538	48971.88
598.897	49560.11
599.255	49559.43
599.613	50153.54
599.972	50157.16
600.33	50570.93
600.688	50644.6
601.046	51058.6
601.404	51425.15
601.762	51492.71
602.12	51802.08
602.478	52011.57
602.836	52282.98
603.194	52284.78
603.552	52578.34
603.91	52763.19
604.268	53019.45
604.625	53052.9
604.983	53411.53
605.341	53479.33
605.698	53801.81
606.056	54086.09
606.413	54079.31
606.771	54420.77
607.128	54551.39
607.485	54608.34
607.843	54793.42
608.2	54996.8
608.557	55196.35
608.914	55235.21
609.272	55616.9
609.629	55715.65
609.986	55881.3
610.343	55948.87
610.7	56292.81
611.057	56264.11
611.414	56345.92
611.771	56604.67
612.127	56646.7
612.484	56829.97
612.841	56907.03
613.198	56953.14
613.554	57071.32
613.911	57342.28
614.267	57414.59
614.624	57443.07
614.98	57528.94
615.337	57795.6
615.693	57859.33
616.05	57938.42
616.406	58036.27
616.762	58130.96
617.118	58167.34
617.475	58228.81
617.831	58348.8
618.187	58490.72
618.543	58546.54
618.899	58771.62
619.255	58803.93
619.611	58783.37
619.967	59035.79
620.323	59061.33
620.678	58960.99
621.034	59045.96
621.39	59101.1
621.746	59148.56
622.101	59414.31
622.457	59312.85
622.812	59515.55
623.168	59530.02
623.523	59503.8
623.879	59654.76
624.234	59555.1
624.589	59638.94
624.945	59670.35
625.3	59816.11
625.655	59778.15
626.01	59861.08
626.365	59814.3
626.72	59814.53
627.075	59823.34
627.43	59842.78
627.785	59855.21
628.14	59911.25
628.495	59920.06
628.85	59984.02
629.205	59925.94
629.559	60106.27
629.914	59944.47
630.269	59964.58
630.623	59962.1
630.978	59894.75
631.332	60026.05
631.687	60061.98
632.041	59999.83
632.396	60084.13
632.75	59963.68
633.104	60033.73
633.459	59889.78
633.813	59922.32
634.167	59905.15
634.521	59992.15
634.875	59997.12
635.229	59874.87
635.583	59840.52
635.937	59823.12
636.291	59808.88
636.645	59835.55
636.999	59746.28
637.352	59830.12
637.706	59689.79
638.06	59807.75
638.413	59688.2
638.767	59582.9
639.121	59669.67
639.474	59634.87
639.828	59632.39
640.181	59573.63
640.534	59672.16
640.888	59500.64
641.241	59426.06
641.594	59472.39
641.947	59604.36
642.301	59458.38
642.654	59451.6
643.007	59391.72
643.36	59483.69
643.713	59379.96
644.066	59501.99
644.419	59312.62
644.771	58994.44
645.124	58821.79
645.477	58767.32
645.83	58683.49
646.182	58630.15
646.535	58536.37
646.888	58626.31
647.24	58527.56
647.593	58731.17
647.945	58636.25
648.298	58549.48
648.65	58483.04
649.002	58350.16
649.355	58404.17
649.707	58270.61
650.059	58295.02
650.411	58615.69
650.763	58664.73
651.115	59029.24
651.467	58959.41
651.819	58938.85
652.171	58915.57
652.523	58844.84
652.875	58838.06
653.227	58792.18
653.578	58867.89
653.93	58785.63
654.282	58710.6
654.633	58623.15
654.985	58723.26
655.337	58743.14
655.688	58629.7
656.039	58789.47
656.391	58562.36
656.742	58606.65
657.094	58627.67
657.445	58672.64
657.796	58579.08
658.147	58533.43
658.498	58562.36
658.849	58660.66
659.2	58560.32
659.551	58466.32
659.902	58636.25
660.253	58464.96
660.604	58575.47
660.955	58459.76
661.306	58531.17
661.656	58413.21
662.007	58487.56
662.358	58440.1
662.708	58504.05
663.059	58466.54
663.409	58314
663.76	58445.07
664.11	58458.86
664.461	58501.34
664.811	58374.34
665.161	58404.62
665.511	58298.41
665.862	58368.69
666.212	58391.52
666.562	58398.52
666.912	58360.56
667.262	58245.3
667.612	58369.82
667.962	58387.9
668.312	58272.87
668.662	58438.29
669.011	58385.41
669.361	58345.87
669.711	58368.24
670.06	58284.63
670.41	58244.63
670.76	58256.15
671.109	58409.59
671.459	58246.66
671.808	58271.74
672.157	58329.82
672.507	58239.43
672.856	58155.14
673.205	58202.14
673.554	58263.84
673.904	58142.48
674.253	58385.87
674.602	58200.79
674.951	57930.28
675.3	57766.67
675.649	58177.51
675.998	58156.95
676.346	58188.36
676.695	58237.17
677.044	57926.67
677.393	58092.77
677.741	58119.43
678.09	58043.05
678.438	57935.03
678.787	58018.87
679.135	58003.96
679.484	57857.07
679.832	57970.96
680.181	57886.67
680.529	57949.95
680.877	57892.77
681.225	57835.15
681.573	57948.14
681.922	57809.16
682.27	57810.97
682.618	57808.25
682.966	57684.64
683.314	57709.27
683.661	57667.24
684.009	57530.97
684.357	57524.19
684.705	57503.63
685.053	57519.9
685.4	57444.87
685.748	57388.83
686.095	57399
686.443	57277.65
686.79	57256.86
687.138	57311.54
687.485	57276.97
687.832	57240.59
688.18	57213.92
688.527	57126.92
688.874	57088.95
689.221	57081.72
689.568	56957.88
689.915	56826.13
690.262	56930.09
690.609	56883.98
690.956	56792.91
691.303	56841.27
691.65	56728.73
691.997	56634.05
692.344	56542.07
692.69	56474.05
693.037	56488.06
693.383	56349.54
693.73	56389.99
694.077	56221.63
694.423	56251.91
694.769	56113.84
695.116	56094.85
695.462	56079.26
695.808	55920.17
696.155	56027.28
696.501	55778.48
696.847	55846.72
697.193	55723.11
697.539	55723.34
697.885	55527.64
698.231	55455.77
698.577	55505.49
698.923	55483.34
699.269	55173.75
699.614	55151.15
699.96	55079.51
700.306	55082
700.651	54976.92
700.997	54906.41
701.342	54859.4
701.688	54754.77
702.033	54602.24
702.379	54707.54
702.724	54455.57
703.069	54558.4
703.415	54224.17
703.76	54304.17
704.105	54258.06
704.45	54087.22
704.795	54063.49
705.14	53937.85
705.485	54016.04
705.83	53845.87
706.175	53894.91
706.52	53809.04
706.865	53705.99
707.209	53527.46
707.554	53435.49
707.899	53538.31
708.243	53301.71
708.588	53382.83
708.932	53109.62
709.277	53231.2
709.621	53006.8
709.966	52825.11
710.31	52911.89
710.654	52691.33
710.998	52743.98
711.342	52746.47
711.687	52610.65
712.031	52509.64
712.375	52496.3
712.719	52409.07
713.063	52302.86
713.407	52380.15
713.75	52252.92
714.094	52274.61
714.438	52055.64
714.782	52069.87
715.125	51938.13
715.469	52184.22
715.812	51700.39
716.156	51762.31
716.499	51706.27
716.843	51861.97
717.186	51489.55
717.53	51665.14
717.873	51683.22
718.216	51490.91
718.559	51404.81
718.902	51168.65
719.246	51282.78
719.589	51164.36
719.932	51108.77
720.275	51145.6
720.617	51064.93
720.96	50899.74
721.303	51008.43
721.646	50975.44
721.989	50840.53
722.331	50887.98
722.674	50771.6
723.016	50806.4
723.359	50659.06
723.701	50732.06
724.044	50566.86
724.386	50490.93
724.729	50607.09
725.071	50440.09
725.413	50396.47
725.755	50378.17
726.097	50290.49
726.439	50255.46
726.782	50142.47
727.124	50293.2
727.465	50157.83
727.807	49946.31
728.149	50100.21
728.491	49918.74
728.833	50019.98
729.175	49828.58
729.516	49851.63
729.858	49726.66
730.199	49888.69
730.541	49761.46
730.882	49558.53
731.224	49712.2
731.565	49628.36
731.906	49592.2
732.248	49570.73
732.589	49369.61
732.93	49298.87
733.271	49405.76
733.612	49282.6
733.953	49370.28
734.294	49219.1
734.635	49175.49
734.976	49330.96
735.317	49154.24
735.658	49132.1
735.999	48996.06
736.339	49071.08
736.68	49090.97
737.021	49082.61
737.361	48883.52
737.702	49053.46
738.042	48963.29
738.383	49008.26
738.723	48889.62
739.063	48762.16
739.404	48994.93
739.744	48758.32
740.084	48771.2
740.424	48820.69
740.764	48681.49
741.104	48857.53
741.444	48592.9
741.784	48441.04
742.124	48605.56
742.464	48594.71
742.804	48565.56
743.143	48434.26
743.483	48507.48
743.823	48356.07
744.162	48354.72
744.502	48443.98
744.841	48281.05
745.181	48421.61
745.52	48319.46
745.86	48253.48
746.199	48189.98
746.538	48226.81
746.877	48230.65
747.216	48176.42
747.556	48075.4
747.895	48127.6
748.234	48078.57
748.573	48060.49
748.911	48030.21
749.25	48013.48
749.589	47799.03
749.928	47908.18
750.267	47884.45
750.605	47804.68
750.944	47773.49
751.283	47754.28
751.621	47775.75
751.96	47537.34
752.298	47661.85
752.636	47740.04
752.975	47656.2
753.313	47395.19
753.651	47721.74
753.989	47486.04
754.327	47443.33
754.666	47288.53
755.004	47364.91
755.342	47329.66
