Data from 166_FLMS001491_003.txt Node
Date: Thu Apr 19 16:18:17 BST 2018
User: hsy
Spectrometer: FLMS00149
Trigger mode: 0
Integration Time (sec): 1.000000E-2
Scans to average: 10
Electric dark correction enabled: true
Nonlinearity correction enabled: false
Boxcar width: 0
XAxis mode: Wavelengths
Number of Pixels in Spectrum: 2048
>>>>>Begin Spectral Data<<<<<
341.393	-7.12
341.776	-7.12
342.16	-7.12
342.543	-63.39
342.927	-64.74
343.31	-80.79
343.693	-59.09
344.077	-46.89
344.46	-54.35
344.843	-44.18
345.226	-59.55
345.61	-32.88
345.993	-10.51
346.376	1.47
346.759	-3.73
347.142	29.26
347.525	45.08
347.908	59.55
348.291	64.07
348.674	85.99
349.057	106.55
349.44	149.04
349.823	145.87
350.206	173.89
350.588	230.39
350.971	268.35
351.354	275.36
351.737	280.33
352.119	297.28
352.502	312.2
352.884	327.11
353.267	316.49
353.65	329.14
354.032	331.63
354.414	362.36
354.797	344.51
355.179	362.36
355.562	379.31
355.944	376.83
356.326	368.92
356.709	377.5
357.091	392.19
357.473	387.45
357.855	378.41
358.238	388.58
358.62	373.89
359.002	404.17
359.384	409.59
359.766	408.46
360.148	383.61
360.53	387.9
360.912	395.36
361.294	399.42
361.676	394.9
362.057	388.13
362.439	393.77
362.821	365.53
363.203	363.95
363.584	377.05
363.966	372.31
364.348	379.99
364.729	387.22
365.111	356.26
365.493	389.71
365.874	377.05
366.256	392.87
366.637	360.78
367.019	377.96
367.4	377.5
367.781	384.51
368.163	377.28
368.544	362.36
368.925	373.44
369.306	368.01
369.688	388.35
370.069	383.61
370.45	379.76
370.831	394.9
371.212	375.24
371.593	387.22
371.974	393.32
372.355	371.18
372.736	384.51
373.117	398.97
373.498	382.25
373.879	391.29
374.26	387.67
374.641	382.93
375.021	383.83
375.402	385.19
375.783	409.59
376.163	432.42
376.544	419.31
376.925	399.42
377.305	419.76
377.686	412.08
378.066	401.23
378.447	409.37
378.827	402.81
379.208	409.82
379.588	446.88
379.968	443.72
380.349	421.57
380.729	430.38
381.109	425.86
381.489	447.78
381.87	435.13
382.25	437.62
382.63	445.3
383.01	419.31
383.39	447.33
383.77	435.13
384.15	445.3
384.53	445.98
384.91	449.14
385.29	463.15
385.67	450.72
386.049	488.69
386.429	460.67
386.809	467.9
387.189	454.56
387.568	481
387.948	487.33
388.328	483.49
388.707	488.69
389.087	475.35
389.466	484.85
389.846	500.89
390.225	507.9
390.605	489.59
390.984	493.43
391.363	499.53
391.743	503.83
392.122	520.55
392.501	515.58
392.881	512.64
393.26	519.87
393.639	517.39
394.018	544.05
394.397	530.04
394.776	554.9
395.155	525.3
395.534	540.89
395.913	553.77
396.292	546.99
396.671	550.61
397.05	547.44
397.429	542.25
397.808	571.85
398.186	565.07
398.565	539.76
398.944	546.31
399.323	571.17
399.701	579.31
400.08	579.76
400.458	571.85
400.837	595.58
401.215	573.88
401.594	589.7
401.972	600.78
402.351	602.81
402.729	601.91
403.107	609.36
403.486	605.07
403.864	634.67
404.242	600.1
404.62	627.44
404.999	632.64
405.377	637.38
405.755	635.8
406.133	664.5
406.511	643.71
406.889	660.66
407.267	650.72
407.645	660.21
408.023	665.63
408.401	696.14
408.779	681
409.156	684.39
409.534	702.47
409.912	701.34
410.29	744.27
410.667	712.86
411.045	752.64
411.422	740.88
411.8	745.4
412.178	744.73
412.555	771.39
412.933	757.83
413.31	768.23
413.687	770.04
414.065	778.62
414.442	785.4
414.819	792.86
415.197	801.45
415.574	835.57
415.951	829.24
416.328	847.1
416.705	841.45
417.082	822.24
417.46	826.53
417.837	843.03
418.214	862.01
418.591	859.07
418.967	861.11
419.344	866.76
419.721	915.57
420.098	893.2
420.475	893.42
420.852	906.98
421.228	894.78
421.605	919.41
421.982	923.93
422.358	937.49
422.735	942.01
423.111	933.2
423.488	952.63
423.864	971.84
424.241	976.13
424.617	979.52
424.994	983.59
425.37	991.95
425.746	985.62
426.123	989.69
426.499	1021.1
426.875	1015.68
427.251	1016.13
427.627	1034.44
428.003	1061.78
428.379	1080.31
428.756	1055.9
429.132	1118.73
429.507	1106.75
429.883	1110.37
430.259	1115.79
430.635	1127.99
431.011	1139.52
431.387	1157.82
431.763	1170.03
432.138	1193.75
432.514	1200.08
432.89	1213.87
433.265	1236.24
433.641	1229.46
434.016	1232.85
434.392	1255
434.767	1299.29
435.143	1246.86
435.518	1292.51
435.894	1301.1
436.269	1323.02
436.644	1346.97
437.02	1336.35
437.395	1350.13
437.77	1385.16
438.145	1368.89
438.52	1390.13
438.895	1415.67
439.271	1364.37
439.646	1412.05
440.021	1450.02
440.395	1415.67
440.77	1444.37
441.145	1461.32
441.52	1495.21
441.895	1455.89
442.27	1495.21
442.645	1476.91
443.019	1485.95
443.394	1505.16
443.769	1530.02
444.143	1525.5
444.518	1549.68
444.892	1533.86
445.267	1549
445.641	1565.27
446.016	1569.56
446.39	1565.72
446.764	1620.64
447.139	1598.49
447.513	1600.52
447.887	1626.06
448.262	1621.77
448.636	1640.07
449.01	1665.38
449.384	1656.11
449.758	1672.39
450.132	1697.02
450.506	1726.62
450.88	1719.62
451.254	1730.46
451.628	1753.29
452.002	1743.57
452.376	1775.66
452.75	1778.82
453.123	1810.91
453.497	1827.41
453.871	1819.5
454.244	1842.32
454.618	1888.88
454.992	1932.49
455.365	1924.58
455.739	1956.67
456.112	1976.56
456.486	2018.82
456.859	2009.78
457.232	2088.65
457.606	2050.23
457.979	2060.85
458.352	2085.48
458.725	2118.48
459.099	2171.58
459.472	2164.58
459.845	2209.32
460.218	2249.55
460.591	2272.14
460.964	2266.04
461.337	2320.05
461.71	2330.67
462.083	2332.71
462.456	2361.41
462.829	2382.42
463.201	2478.69
463.574	2433.5
463.947	2463.33
464.32	2510.56
464.692	2532.7
465.065	2535.87
465.438	2600.27
465.81	2643.43
466.183	2618.8
466.555	2668.97
466.928	2687.05
467.3	2664
467.672	2763.43
468.045	2817.21
468.417	2793.94
468.789	2805.46
469.161	2853.15
469.534	2875.07
469.906	2936.31
470.278	2905.57
470.65	2949.41
471.022	3013.59
471.394	3079.81
471.766	3146.02
472.138	3145.34
472.51	3193.93
472.882	3258.56
473.253	3246.36
473.625	3308.73
473.997	3389.85
474.369	3407.26
474.74	3460.36
475.112	3480.93
475.484	3537.65
475.855	3635.72
476.227	3667.36
476.598	3717.3
476.97	3774.48
477.341	3842.95
477.713	3892.21
478.084	3954.59
478.455	4044.75
478.827	4120
479.198	4170.85
479.569	4170.62
479.94	4325.87
480.311	4339.21
480.682	4409.71
481.053	4543.72
481.424	4586.43
481.795	4620.56
482.166	4799.31
482.537	4822.13
482.908	4921.34
483.279	4939.42
483.65	5045.18
484.021	5156.59
484.391	5230.03
484.762	5295.57
485.133	5374.89
485.503	5395
485.874	5595.9
486.244	5624.6
486.615	5761.54
486.985	5757.25
487.356	5999.73
487.726	5986.17
488.097	6132.16
488.467	6193.62
488.837	6308.2
489.207	6385.03
489.578	6501.18
489.948	6621.18
490.318	6667.28
490.688	6707.06
491.058	6871.12
491.428	7028.18
491.798	7062.3
492.168	7223.65
492.538	7277.66
492.908	7327.38
493.278	7478.33
493.648	7551.55
494.017	7672.45
494.387	7755.62
494.757	7837.2
495.126	7960.58
495.496	8026.57
495.866	8100.24
496.235	8176.4
496.605	8263.85
496.974	8373
497.344	8503.17
497.713	8589.04
498.082	8660.9
498.452	8793.33
498.821	8852.99
499.19	8844.63
499.559	8998.52
499.928	9113.55
500.298	9133.43
500.667	9208.91
501.036	9252.53
501.405	9363.71
501.774	9416.36
502.143	9511.05
502.512	9633.53
502.88	9684.83
503.249	9745.62
503.618	9881.66
503.987	9870.59
504.356	9937.7
504.724	10046.4
505.093	10171.37
505.462	10207.75
505.83	10286.62
506.199	10371.82
506.567	10567.07
506.936	10607.29
507.304	10622.43
507.672	10748.76
508.041	10801.86
508.409	10878.92
508.777	11010.22
509.145	11097.45
509.514	11078.92
509.882	11152.36
510.25	11223.77
510.618	11370.66
510.986	11323.21
511.354	11455.18
511.722	11645.91
512.09	11747.6
512.458	11628.28
512.826	11915.51
513.193	11964.77
513.561	11885.68
513.929	11934.94
514.297	12154.6
514.664	12186.46
515.032	12301.94
515.4	12389.17
515.767	12581.93
516.135	12497.64
516.502	12413.57
516.869	12785.09
517.237	12753.68
517.604	12709.61
517.972	12955.93
518.339	13023.73
518.706	13105.53
519.073	13135.13
519.44	13242.7
519.808	13368.8
520.175	13446.54
520.542	13639.53
520.909	13661.45
521.276	13710.71
521.643	13921.78
522.009	13866.87
522.376	14128.56
522.743	14072.74
523.11	14306.63
523.477	14428.66
523.843	14496.91
524.21	14733.28
524.577	14818.25
524.943	14847.41
525.31	14965.37
525.676	15235.42
526.043	15247.17
526.409	15310.67
526.776	15539.59
527.142	15642.87
527.508	15681.28
527.874	15808.74
528.241	15873.14
528.607	16006.92
528.973	16176.64
529.339	16132.34
529.705	16317.65
530.071	16531.43
530.437	16647.58
530.803	16741.37
531.169	16895.04
531.535	16850.29
531.901	16975.26
532.267	17063.62
532.632	17221.81
532.998	17281.69
533.364	17397.4
533.73	17512.42
534.095	17681.23
534.461	17688.24
534.826	17790.38
535.192	17850.72
535.557	18038.51
535.923	18064.95
536.288	18185.17
536.653	18246.64
537.019	18222.91
537.384	18237.6
537.749	18403.47
538.114	18453.87
538.479	18535.22
538.845	18564.82
539.21	18627.65
539.575	18712.62
539.94	18863.12
540.305	18880.07
540.67	18911.25
541.034	18975.89
541.399	19035.32
541.764	19193.73
542.129	19215.43
542.494	19257.69
542.858	19426.95
543.223	19395.76
543.587	19513.27
543.952	19527.51
544.316	19623.55
544.681	19595.3
545.045	19724.57
545.41	19799.37
545.774	19819.25
546.138	19847.27
546.503	19879.14
546.867	19882.08
547.231	20180.6
547.595	20240.26
547.959	20284.33
548.324	20291.78
548.688	20427.37
549.052	20377.66
549.416	20445
549.779	20505.79
550.143	20556.86
550.507	20697.87
550.871	20726.8
551.235	20660.81
551.599	20915.5
551.962	20932.22
552.326	21017.87
552.689	21025.77
553.053	20996.17
553.417	21076.62
553.78	21310.97
554.143	21340.79
554.507	21407.23
554.87	21569.72
555.234	21593.9
555.597	21531.3
555.96	21789.37
556.323	21769.03
556.686	21877.5
557.05	22023.26
557.413	22102.13
557.776	21998.4
558.139	22118.18
558.502	22385.29
558.865	22350.26
559.228	22620.99
559.59	22533.98
559.953	22656.47
560.316	22882.68
560.679	22852.39
561.041	23023.01
561.404	23188.66
561.767	23340.97
562.129	23242.67
562.492	23522.88
562.854	23479.04
563.217	23606.27
563.579	23745.25
563.941	23856.66
564.304	24005.13
564.666	24124.68
565.028	24148.4
565.39	24258.01
565.753	24503.2
566.115	24612.35
566.477	24698.45
566.839	24870.19
567.201	25016.18
567.563	25045.78
567.925	25227.7
568.287	25286.23
568.648	25361.48
569.01	25617.52
569.372	25769.83
569.734	25830.39
570.095	25973.22
570.457	26208.01
570.819	26317.39
571.18	26377.95
571.542	26598.74
571.903	26654.1
572.265	26793.31
572.626	27004.83
572.987	27077.59
573.349	27252.96
573.71	27381.77
574.071	27480.29
574.432	27601.42
574.794	28007.06
575.155	28009.09
575.516	27955.31
575.877	28228.52
576.238	28318.69
576.599	28561.85
576.96	28664.44
577.32	28720.71
577.681	28842.07
578.042	29092.23
578.403	29057.65
578.763	29119.57
579.124	29342.84
579.485	29600.01
579.845	29866.45
580.206	29894.02
580.566	29902.83
580.927	30242.48
581.287	30327.9
581.648	30433.21
582.008	30746.88
582.368	30968.34
582.728	31103.25
583.089	31368.33
583.449	31377.37
583.809	31689.68
584.169	31992.04
584.529	32098.25
584.889	32600.61
585.249	32443.78
585.609	32560.61
585.969	33017.32
586.329	33221.61
586.688	33685.1
587.048	33938.88
587.408	34224.75
587.768	34307.23
588.127	34859.08
588.487	35125.97
588.846	35825.61
589.206	35827.87
589.565	36264.24
589.925	36730.9
590.284	36859.71
590.643	37213.82
591.003	37905.56
591.362	38405.43
591.721	38691.3
592.08	38998.86
592.44	39613.08
592.799	39811.72
593.158	40427.3
593.517	40722.21
593.876	41431.79
594.235	41697.55
594.593	42200.13
594.952	42677.86
595.311	43252.54
595.67	43538.63
596.029	44142.68
596.387	44643.91
596.746	45179.26
597.104	45275.08
597.463	45700.38
597.822	46373.58
598.18	46557.08
598.538	46990.97
598.897	47589.37
599.255	47729.93
599.613	48493.3
599.972	48755.89
600.33	49074.98
600.688	49366.5
601.046	49792.02
601.404	50399.24
601.762	50498.9
602.12	51000.58
602.478	51216.39
602.836	51638.08
603.194	51686.66
603.552	52075.81
603.91	52280.32
604.268	52723.47
604.625	52919.4
604.983	53331.82
605.341	53440.74
605.698	53788.3
606.056	54163.43
606.413	54311.68
606.771	54627.38
607.128	54846.58
607.485	54927.03
607.843	55148.95
608.2	55375.83
608.557	55733.79
608.914	55837.06
609.272	56119.32
609.629	56387.56
609.986	56710.03
610.343	56720.88
610.7	57041.55
611.057	57146.18
611.414	57196.12
611.771	57498.26
612.127	57694.87
612.484	57805.82
612.841	57964.92
613.198	58022.54
613.554	58169.2
613.911	58389.54
614.267	58492.13
614.624	58679.02
614.98	58890.99
615.337	59106.58
615.693	59144.77
616.05	59253.24
616.406	59422.73
616.762	59459.57
617.118	59580.47
617.475	59685.55
617.831	59855.94
618.187	60003.51
618.543	60072.66
618.899	60254.35
619.255	60309.71
619.611	60420.9
619.967	60522.36
620.323	60697.73
620.678	60569.14
621.034	60668.8
621.39	60765.52
621.746	60806.88
622.101	61132.06
622.457	60952.18
622.812	61134.1
623.168	61207.32
623.523	61249.8
623.879	61309.46
624.234	61236.69
624.589	61405.73
624.945	61386.07
625.3	61475.78
625.655	61531.6
626.01	61561.88
626.365	61650.24
626.72	61616.35
627.075	61671.49
627.43	61751.48
627.785	61652.73
628.14	61730.24
628.495	61795.55
628.85	61849.33
629.205	61792.39
629.559	61942.44
629.914	61834.42
630.269	61826.74
630.623	61780.18
630.978	61792.16
631.332	61961.2
631.687	61974.53
632.041	61849.79
632.396	61967.75
632.75	61908.32
633.104	61940.18
633.459	61859.96
633.813	61949.22
634.167	61899.05
634.521	61884.81
634.875	61891.14
635.229	61807.3
635.583	61770.47
635.937	61810.47
636.291	61800.3
636.645	61788.77
636.999	61676.01
637.352	61780.18
637.706	61694.31
638.06	61737.25
638.413	61652.73
638.767	61623.13
639.121	61707.64
639.474	61691.15
639.828	61619.51
640.181	61653.41
640.534	61690.92
640.888	61618.83
641.241	61547.65
641.594	61492.96
641.947	61594.88
642.301	61494.54
642.654	61549.46
643.007	61389.69
643.36	61491.83
643.713	61463.58
644.066	61470.81
644.419	61356.01
644.771	61112.86
645.124	60932.07
645.477	60864.05
645.83	60773.88
646.182	60794.9
646.535	60734.56
646.888	60800.1
647.24	60712.19
647.593	60801.23
647.945	60734.34
648.298	60683.49
648.65	60620.21
649.002	60462.7
649.355	60505.64
649.707	60394.91
650.059	60419.54
650.411	60644.39
650.763	60832.86
651.115	61151.5
651.467	61033.08
651.819	61085.29
652.171	61063.14
652.523	60976.14
652.875	60991.96
653.227	60863.82
653.578	61039.86
653.93	60960.54
654.282	60823.6
654.633	60877.16
654.985	60882.58
655.337	60894.11
655.688	60776.14
656.039	60903.14
656.391	60647.78
656.742	60719.42
657.094	60686.65
657.445	60770.72
657.796	60767.1
658.147	60619.54
658.498	60741.11
658.849	60801.45
659.2	60648.01
659.551	60603.49
659.902	60782.47
660.253	60597.39
660.604	60707.44
660.955	60536.37
661.306	60637.16
661.656	60590.38
662.007	60590.61
662.358	60583.38
662.708	60629.25
663.059	60564.4
663.409	60418.19
663.76	60537.5
664.11	60600.55
664.461	60623.38
664.811	60521.01
665.161	60534.11
665.511	60434.46
665.862	60454.34
666.212	60535.7
666.562	60518.75
666.912	60512.87
667.262	60461.12
667.612	60521.01
667.962	60451.86
668.312	60331.63
668.662	60583.6
669.011	60497.51
669.361	60389.49
669.711	60480.78
670.06	60393.1
670.41	60320.33
670.76	60313.56
671.109	60437.62
671.459	60372.76
671.808	60432.42
672.157	60407.11
672.507	60250.05
672.856	60258.42
673.205	60306.32
673.554	60318.75
673.904	60244.63
674.253	60443.95
674.602	60243.73
674.951	59952.43
675.3	59821.36
675.649	60290.51
675.998	60291.18
676.346	60295.25
676.695	60285.08
677.044	60119.66
677.393	60114.92
677.741	60214.57
678.09	60142.26
678.438	60057.74
678.787	60150.17
679.135	60090.74
679.484	59962.38
679.832	60122.6
680.181	59997.41
680.529	60106.56
680.877	59964.19
681.225	59945.2
681.573	60121.24
681.922	59922.83
682.27	59869.27
682.618	59901.59
682.966	59813.91
683.314	59817.98
683.661	59838.31
684.009	59780.46
684.357	59741.37
684.705	59717.19
685.053	59687.58
685.4	59634.25
685.748	59556.06
686.095	59589.28
686.443	59474.48
686.79	59498.21
687.138	59532.56
687.485	59578.66
687.832	59380.02
688.18	59419.12
688.527	59280.59
688.874	59267.93
689.221	59260.7
689.568	59244.43
689.915	59159.24
690.262	59147.03
690.609	59058.9
690.956	58997.66
691.303	58994.27
691.65	58929.18
691.997	58859.81
692.344	58748.85
692.69	58719.7
693.037	58753.82
693.383	58580.04
693.73	58683.09
694.077	58466.15
694.423	58549.53
694.769	58385.24
695.116	58404.23
695.462	58308.41
695.808	58223.67
696.155	58285.81
696.501	58082.65
696.847	58185.02
697.193	57943
697.539	58017.8
697.885	57823.45
698.231	57836.11
698.577	57752.49
698.923	57711.14
699.269	57582.78
699.614	57503.69
699.96	57468.88
700.306	57405.38
700.651	57370.58
700.997	57235.9
701.342	57151.15
701.688	57220.08
702.033	57134.2
702.379	57093.75
702.724	57033.64
703.069	57063.7
703.415	56777.6
703.76	56766.08
704.105	56745.97
704.45	56623.48
704.795	56613.99
705.14	56514.56
705.485	56528.34
705.83	56242.02
706.175	56451.06
706.52	56313.89
706.865	56225.3
707.209	56127.68
707.554	56119.77
707.899	56092.42
708.243	55936.95
708.588	56038.19
708.932	55786.44
709.277	55868.93
709.621	55730.17
709.966	55637.07
710.31	55584.87
710.654	55530.86
710.998	55433.91
711.342	55545.32
711.687	55363.18
712.031	55349.17
712.375	55287.92
712.719	55232.56
713.063	55159.57
713.407	55232.56
713.75	55130.64
714.094	55084.09
714.438	54892.23
714.782	54904.21
715.125	54777.66
715.469	54947.82
715.812	54644.55
716.156	54588.28
716.499	54535.18
716.843	54671.44
717.186	54398.46
717.53	54589.64
717.873	54553.93
718.216	54413.6
718.559	54257.9
718.902	54038.24
719.246	54183.1
719.589	54113.72
719.932	53993.95
720.275	54052.93
720.617	54054.06
720.96	53955.08
721.303	53939.26
721.646	53957.56
721.989	53778.59
722.331	53821.07
722.674	53728.42
723.016	53716.67
723.359	53615.2
723.701	53684.58
724.044	53516.9
724.386	53372.49
724.729	53513.28
725.071	53431.7
725.413	53374.98
725.755	53287.98
726.097	53127.76
726.439	53191.03
726.782	53046.4
727.124	53244.36
727.465	53114.65
727.807	52970.02
728.149	52997.14
728.491	52909.46
728.833	52910.59
729.175	52925.05
729.516	52746.97
729.858	52740.2
730.199	52874.2
730.541	52786.52
730.882	52643.93
731.224	52635.57
731.565	52509.01
731.906	52546.98
732.248	52538.39
732.589	52520.54
732.93	52253.88
733.271	52374.56
733.612	52214.56
733.953	52383.37
734.294	52193.77
734.635	52194.9
734.976	52253.65
735.317	52155.58
735.658	52113.54
735.999	52068.35
736.339	52074.45
736.68	51967.33
737.021	51865.64
737.361	51825.19
737.702	52047.33
738.042	51855.25
738.383	51806.21
738.723	51831.52
739.063	51623.61
739.404	51760.79
739.744	51704.06
740.084	51551.07
740.424	51551.98
740.764	51453.9
741.104	51624.97
741.444	51417.29
741.784	51268.37
742.124	51426.78
742.464	51292.32
742.804	51179.56
743.143	51195.15
743.483	51223.17
743.823	51051.65
744.162	51109.5
744.502	51136.17
744.841	50968.04
745.181	51061.37
745.52	50904.09
745.86	50977.3
746.199	50952.67
746.538	50902.05
746.877	50955.38
747.216	50890.98
747.556	50702.28
747.895	50745.45
748.234	50633.13
748.573	50512.01
748.911	50599.46
749.25	50636.75
749.589	50344.78
749.928	50355.17
750.267	50479.01
750.605	50371.9
750.944	50197.66
751.283	50266.36
751.621	50234.05
751.96	50010.78
752.298	49989.76
752.636	49908.18
752.975	49793.38
753.313	49795.19
753.651	49957.44
753.989	49626.6
754.327	49623.89
754.666	49481.52
755.004	49438.81
755.342	49567.85
755.679	49449.43
