Data from 166_FLMS001491_009.txt Node
Date: Thu Apr 19 16:18:34 BST 2018
User: hsy
Spectrometer: FLMS00149
Trigger mode: 0
Integration Time (sec): 1.000000E-2
Scans to average: 10
Electric dark correction enabled: true
Nonlinearity correction enabled: false
Boxcar width: 0
XAxis mode: Wavelengths
Number of Pixels in Spectrum: 2048
>>>>>Begin Spectral Data<<<<<
341.393	-28.23
341.776	-28.23
342.16	-28.23
342.543	-68.46
342.927	-70.49
343.31	-76.14
343.693	-70.27
344.077	-65.07
344.46	-52.87
344.843	-63.26
345.226	-54.22
345.61	-36.82
345.993	-5.86
346.376	7.25
346.759	1.82
347.142	37.75
347.525	34.36
347.908	60.58
348.291	79.79
348.674	80.69
349.057	122.27
349.44	122.04
349.823	144.87
350.206	172.89
350.588	231.19
350.971	251.08
351.354	252.21
351.737	265.09
352.119	274.13
352.502	315.71
352.884	317.29
353.267	325.43
353.65	320.23
354.032	342.6
354.414	333.79
354.797	375.37
355.179	349.84
355.562	379.21
355.944	383.96
356.326	386.67
356.709	366.78
357.091	383.73
357.473	374.24
357.855	397.74
358.238	395.71
358.62	378.54
359.002	376.5
359.384	375.82
359.766	376.95
360.148	382.6
360.53	379.89
360.912	386.44
361.294	388.25
361.676	371.98
362.057	388.03
362.439	386.67
362.821	376.95
363.203	385.31
363.584	384.41
363.966	385.54
364.348	392.55
364.729	376.95
365.111	386.44
365.493	382.38
365.874	354.36
366.256	398.65
366.637	343.51
367.019	381.92
367.4	380.34
367.781	381.7
368.163	373.34
368.544	366.56
368.925	370.85
369.306	376.73
369.688	384.64
370.069	393.68
370.45	375.6
370.831	394.13
371.212	400.68
371.593	396.16
371.974	386.22
372.355	395.26
372.736	383.96
373.117	393.22
373.498	380.8
373.879	390.51
374.26	393
374.641	380.34
375.021	396.16
375.402	391.19
375.783	403.17
376.163	400.46
376.544	397.97
376.925	407.69
377.305	426.9
377.686	422.6
378.066	409.72
378.447	405.43
378.827	418.08
379.208	427.35
379.588	412.21
379.968	428.93
380.349	431.19
380.729	417.4
381.109	414.69
381.489	430.29
381.87	439.55
382.25	422.6
382.63	426.22
383.01	420.12
383.39	453.79
383.77	455.37
384.15	463.28
384.53	443.84
384.91	462.15
385.29	454.47
385.67	437.52
386.049	476.39
386.429	452.43
386.809	472.77
387.189	467.12
387.568	470.28
387.948	490.17
388.328	506.44
388.707	496.27
389.087	495.37
389.466	465.09
389.846	479.32
390.225	505.09
390.605	490.4
390.984	510.96
391.363	503.28
391.743	502.83
392.122	523.84
392.501	517.97
392.881	514.58
393.26	517.74
393.639	529.27
394.018	514.12
394.397	502.6
394.776	523.84
395.155	523.16
395.534	536.95
395.913	550.96
396.292	564.97
396.671	568.81
397.05	554.58
397.429	542.82
397.808	555.03
398.186	573.11
398.565	569.49
398.944	562.94
399.323	550.28
399.701	594.12
400.08	576.72
400.458	584.41
400.837	571.3
401.215	576.5
401.594	600.68
401.972	606.33
402.351	605.87
402.729	614.69
403.107	615.37
403.486	610.85
403.864	624.4
404.242	625.76
404.62	644.06
404.999	633.22
405.377	659.66
405.755	647
406.133	638.64
406.511	642.48
406.889	642.48
407.267	659.88
407.645	674.8
408.023	680.22
408.401	696.94
408.779	691.97
409.156	699.66
409.534	671.18
409.912	713.44
410.29	726.77
410.667	728.36
411.045	751.86
411.422	727.9
411.8	751.86
412.178	738.07
412.555	753.67
412.933	757.51
413.31	765.19
413.687	785.76
414.065	794.12
414.442	766.77
414.819	822.82
415.197	807.9
415.574	845.42
415.951	837.51
416.328	846.09
416.705	834.57
417.082	844.96
417.46	848.13
417.837	857.62
418.214	842.93
418.591	882.48
418.967	889.48
419.344	872.53
419.721	886.32
420.098	919.09
420.475	921.12
420.852	906.43
421.228	913.89
421.605	901.01
421.982	934.9
422.358	931.29
422.735	950.5
423.111	950.72
423.488	961.34
423.864	950.72
424.241	973.1
424.617	969.03
424.994	998.18
425.37	1000.67
425.746	1025.98
426.123	1001.8
426.499	996.6
426.875	1036.6
427.251	1045.86
427.627	1051.29
428.003	1066.65
428.379	1078.4
428.756	1093.32
429.132	1088.8
429.507	1104.17
429.883	1121.34
430.259	1109.82
430.635	1161.57
431.011	1152.07
431.387	1185.29
431.763	1172.41
432.138	1223.94
432.514	1217.61
432.89	1211.96
433.265	1235.46
433.641	1250.83
434.016	1273.88
434.392	1306.87
434.767	1286.99
435.143	1310.71
435.518	1297.61
435.894	1313.2
436.269	1324.73
436.644	1359.3
437.02	1362.92
437.395	1361.56
437.77	1368.79
438.145	1378.28
438.52	1424.61
438.895	1421.67
439.271	1419.86
439.646	1469.13
440.021	1443.37
440.395	1459.18
440.77	1456.25
441.145	1503.7
441.52	1478.85
441.895	1514.1
442.27	1530.6
442.645	1522.91
443.019	1545.06
443.394	1529.92
443.769	1519.07
444.143	1521.56
444.518	1551.39
444.892	1544.83
445.267	1547.77
445.641	1554.32
446.016	1572.18
446.39	1588.9
446.764	1617.6
447.139	1617.37
447.513	1623.7
447.887	1584.61
448.262	1645.39
448.636	1646.75
449.01	1675.45
449.384	1654.21
449.758	1717.94
450.132	1735.34
450.506	1706.64
450.88	1737.82
451.254	1755.9
451.628	1780.31
452.002	1787.54
452.376	1817.59
452.75	1816.01
453.123	1830.7
453.497	1846.97
453.871	1879.74
454.244	1894.2
454.618	1907.08
454.992	1931.49
455.365	1933.3
455.739	1966.29
456.112	2004.26
456.486	2018.27
456.859	2029.11
457.232	2069.79
457.606	2078.15
457.979	2126.96
458.352	2177.58
458.725	2166.06
459.099	2149.34
459.472	2201.09
459.845	2255.55
460.218	2259.16
460.591	2273.85
460.964	2286.73
461.337	2318.6
461.71	2369.44
462.083	2438.14
462.456	2401.76
462.829	2421.42
463.201	2467.29
463.574	2488.99
463.947	2508.2
464.32	2538.48
464.692	2575.99
465.065	2596.78
465.438	2631.13
465.81	2647.18
466.183	2638.59
466.555	2708.64
466.928	2775.99
467.3	2715.42
467.672	2775.76
468.045	2858.92
468.417	2853.5
468.789	2859.37
469.161	2902.76
469.534	2968.07
469.906	3004.23
470.278	2976.43
470.65	3049.2
471.022	3092.59
471.394	3126.26
471.766	3173.94
472.138	3220.95
472.51	3267.72
472.882	3284.9
473.253	3334.84
473.625	3375.52
473.997	3463.88
474.369	3484.67
474.74	3495.97
475.112	3569.41
475.484	3619.58
475.855	3664.55
476.227	3750.42
476.598	3838.56
476.97	3811.67
477.341	3942.74
477.713	3998.55
478.084	4020.7
478.455	4131.66
478.827	4148.61
479.198	4255.27
479.569	4348.83
479.94	4400.12
480.311	4397.86
480.682	4542.95
481.053	4594.7
481.424	4726.9
481.795	4791.75
482.166	4832.2
482.537	4881.69
482.908	5078.3
483.279	5111.29
483.65	5183.15
484.021	5287.78
484.391	5295.24
484.762	5381.12
485.133	5477.38
485.503	5504.05
485.874	5620.43
486.244	5665.85
486.615	5880.31
486.985	5945.85
487.356	6017.71
487.726	6111.94
488.097	6198.72
488.467	6316.23
488.837	6433.74
489.207	6469.9
489.578	6640.97
489.948	6727.52
490.318	6804.35
490.688	6914.18
491.058	6994.41
491.428	7144.69
491.798	7118.7
492.168	7293.83
492.538	7419.71
492.908	7436.88
493.278	7568.18
493.648	7672.35
494.017	7757.55
494.387	7891.11
494.757	7963.19
495.126	8104.43
495.496	8095.17
495.866	8241.15
496.235	8317.08
496.605	8476.18
496.974	8497.19
497.344	8629.62
497.713	8698.09
498.082	8741.25
498.452	8862.38
498.821	8900.12
499.19	8977.41
499.559	9077.97
499.928	9215.59
500.298	9256.27
500.667	9304.63
501.036	9331.07
501.405	9493.32
501.774	9522.7
502.143	9630.04
502.512	9691.06
502.88	9831.62
503.249	9861.45
503.618	9947.78
503.987	10022.58
504.356	10059.41
504.724	10159.52
505.093	10224.38
505.462	10268.67
505.83	10286.07
506.199	10540.08
506.567	10639.51
506.936	10628.21
507.304	10778.04
507.672	10772.39
508.041	10845.15
508.409	10973.96
508.777	11078.14
509.145	11176.22
509.514	11150
509.882	11233.17
510.25	11369.66
510.618	11402.65
510.986	11411.24
511.354	11566.04
511.722	11732.36
512.09	11801.74
512.458	11704.34
512.826	11895.29
513.193	11964.45
513.561	11988.63
513.929	12061.84
514.297	12174.61
514.664	12312.46
515.032	12419.8
515.4	12603.52
515.767	12576.63
516.135	12610.08
516.502	12587.71
516.869	12865.66
517.237	12855.72
517.604	12848.04
517.972	13047.13
518.339	13172.78
518.706	13231.53
519.073	13272.21
519.44	13347.91
519.808	13586.55
520.175	13513.56
520.542	13726.88
520.909	13752.42
521.276	13872.87
521.643	14003.94
522.009	14091.4
522.376	14131.85
522.743	14311.95
523.11	14516.47
523.477	14514.21
523.843	14656.35
524.21	14760.53
524.577	14903.8
524.943	15037.36
525.31	15220.86
525.676	15227.86
526.043	15382.66
526.409	15487.06
526.776	15585.14
527.142	15695.65
527.508	15862.65
527.874	15958.92
528.241	16094.28
528.607	16140.15
528.973	16278.23
529.339	16429.19
529.705	16524.1
530.071	16617.2
530.437	16713.92
530.803	16927.03
531.169	17005.67
531.535	17067.36
531.901	17129.28
532.267	17234.14
532.632	17332.67
532.998	17443.85
533.364	17547.58
533.73	17641.81
534.095	17714.12
534.461	17766.55
534.826	17947.11
535.192	18015.81
535.557	18119.54
535.923	18227.56
536.288	18194.56
536.653	18316.14
537.019	18443.82
537.384	18443.15
537.749	18576.25
538.114	18495.57
538.479	18649.69
538.845	18661.22
539.21	18747.54
539.575	18840.42
539.94	18871.83
540.305	19099.62
540.67	18980.08
541.034	19041.1
541.399	19235.67
541.764	19337.13
542.129	19351.14
542.494	19479.73
542.858	19531.25
543.223	19460.75
543.587	19619.61
543.952	19590.91
544.316	19770.79
544.681	19697.35
545.045	19919.04
545.41	19840.17
545.774	19938.92
546.138	19991.8
546.503	20039.04
546.867	20079.71
547.231	20201.97
547.595	20382.08
547.959	20363.55
548.324	20382.98
548.688	20481.06
549.052	20599.25
549.416	20522.64
549.779	20631.11
550.143	20638.34
550.507	20826.36
550.871	20899.8
551.235	20868.17
551.599	20989.29
551.962	21046.47
552.326	21154.49
552.689	21171.66
553.053	21027.03
553.417	21230.19
553.78	21406.46
554.143	21513.35
554.507	21455.95
554.87	21634.7
555.234	21739.78
555.597	21760.12
555.96	21810.74
556.323	21991.3
556.686	22044.86
557.05	22120.56
557.413	22128.47
557.776	22085.08
558.139	22494.34
558.502	22379.31
558.865	22506.09
559.228	22742.47
559.59	22684.16
559.953	22836.93
560.316	23129.8
560.679	23076.92
561.041	23111.5
561.404	23240.98
561.767	23581.31
562.129	23504.25
562.492	23662.67
562.854	23743.34
563.217	23690.92
563.579	23954.41
563.941	24047.29
564.304	24265.59
564.666	24353.05
565.028	24416.1
565.39	24615.41
565.753	24668.97
566.115	24783.77
566.477	24871.9
566.839	25017.21
567.201	25197.77
567.563	25308.28
567.925	25458.1
568.287	25545.78
568.648	25570.19
569.01	25795.49
569.372	26026.67
569.734	25971.99
570.095	26315.48
570.457	26448.81
570.819	26552.08
571.18	26579.88
571.542	26833.66
571.903	26762.25
572.265	27082.69
572.626	27211.73
572.987	27253.31
573.349	27453.53
573.71	27497.37
574.071	27738.95
574.432	27917.02
574.794	28146.17
575.155	28120.18
575.516	28180.06
575.877	28312.49
576.238	28391.81
576.599	28622.99
576.96	28672.25
577.32	28838.35
577.681	28993.38
578.042	29215.07
578.403	29283.99
578.763	29266.59
579.124	29400.15
579.485	29757.42
579.845	30038.77
580.206	30027.25
580.566	29994.71
580.927	30299.33
581.287	30498.65
581.648	30536.39
582.008	30798.75
582.368	31024.28
582.728	31069.93
583.089	31222.7
583.449	31266.31
583.809	31729.12
584.169	31994.88
584.529	32110.13
584.889	32425.15
585.249	32491.59
585.609	32686.61
585.969	33095.87
586.329	33278.91
586.688	33582.86
587.048	33906.92
587.408	34143.3
587.768	34360.69
588.127	34834.8
588.487	34957.97
588.846	35624.39
589.206	35766.53
589.565	36091.27
589.925	36731.48
590.284	36931.25
590.643	37233.39
591.003	37717.67
591.362	38309.06
591.721	38715.83
592.08	38962.15
592.44	39579.76
592.799	39921
593.158	40198.96
593.517	40725.72
593.876	41253.84
594.235	41568.86
594.593	41999.59
594.952	42488.84
595.311	42902.39
595.67	43422.83
596.029	43977.39
596.387	44449.47
596.746	44979.4
597.104	45156.34
597.463	45701.41
597.822	46232.02
598.18	46442.41
598.538	46964.88
598.897	47590.4
599.255	47753.79
599.613	48478.51
599.972	48660.88
600.33	49102
600.688	49365.04
601.046	49772.72
601.404	50232.82
601.762	50545.8
602.12	50888.39
602.478	51327.93
602.836	51600.47
603.194	51627.58
603.552	52083.39
603.91	52340.78
604.268	52647.44
604.625	52892.41
604.983	53187.32
605.341	53272.96
605.698	53731.48
606.056	54211.47
606.413	54244.46
606.771	54622.76
607.128	54778.69
607.485	54928.06
607.843	55174.61
608.2	55450.53
608.557	55718.32
608.914	55809.39
609.272	56177.75
609.629	56382.71
609.986	56638.98
610.343	56678.98
610.7	57072.41
611.057	57183.14
611.414	57270.82
611.771	57527.32
612.127	57742.22
612.484	57898.83
612.841	58073.29
613.198	58085.94
613.554	58295.88
613.911	58554.18
614.267	58715.31
614.624	58773.84
614.98	58992.59
615.337	59229.64
615.693	59262.86
616.05	59363.88
616.406	59553.7
616.762	59602.97
617.118	59722.96
617.475	59760.48
617.831	59982.17
618.187	60119.34
618.543	60179.45
618.899	60333.57
619.255	60416.96
619.611	60444.07
619.967	60639.55
620.323	60783.05
620.678	60775.59
621.034	60821.92
621.39	60946.66
621.746	60927
622.101	61319.08
622.457	61100.78
622.812	61275.47
623.168	61336.48
623.523	61367.21
623.879	61537.83
624.234	61483.37
624.589	61551.84
624.945	61629.13
625.3	61733.53
625.655	61750.03
626.01	61845.85
626.365	61894.66
626.72	61802.68
627.075	61793.19
627.43	61920.19
627.785	61915.45
628.14	61966.97
628.495	61987.54
628.85	62077.48
629.205	62055.11
629.559	62131.49
629.914	62083.13
630.269	62080.42
630.623	62044.71
630.978	62017.37
631.332	62143.46
631.687	62213.97
632.041	62126.97
632.396	62160.64
632.75	62140.53
633.104	62225.27
633.459	62087.42
633.813	62142.11
634.167	62115.89
634.521	62128.1
634.875	62222.11
635.229	62184.14
635.583	62038.16
635.937	62032.73
636.291	62049.68
636.645	62085.16
636.999	62000.87
637.352	62114.54
637.706	61879.52
638.06	62121.09
638.413	61950.25
638.767	61851.04
639.121	62036.8
639.474	61864.6
639.828	61920.65
640.181	61866.18
640.534	61913.41
640.888	61806.3
641.241	61746.41
641.594	61815.79
641.947	61896.47
642.301	61817.37
642.654	61844.49
643.007	61703.48
643.36	61783.93
643.713	61655.12
644.066	61806.3
644.419	61616.7
644.771	61437.04
645.124	61232.75
645.477	61191.85
645.83	61108.69
646.182	61098.97
646.535	61025.08
646.888	61048.8
647.24	61023.49
647.593	61117.73
647.945	61010.39
648.298	60934.68
648.65	60851.97
649.002	60745.31
649.355	60732.65
649.707	60729.26
650.059	60750.28
650.411	60987.79
650.763	61117.73
651.115	61395.24
651.467	61338.74
651.819	61353.88
652.171	61330.6
652.523	61242.25
652.875	61276.37
653.227	61157.05
653.578	61326.76
653.93	61248.8
654.282	61115.02
654.633	61098.07
654.985	61151.63
655.337	61192.76
655.688	61093.32
656.039	61194.34
656.391	60961.8
656.742	61020.33
657.094	60973.1
657.445	61060.1
657.796	61024.62
658.147	60898.3
658.498	60952.08
658.849	60976.72
659.2	60851.75
659.551	60835.93
659.902	61037.28
660.253	60853.56
660.604	60905.98
660.955	60819.43
661.306	60870.96
661.656	60827.57
662.007	60776.04
662.358	60797.29
662.708	60810.39
663.059	60745.76
663.409	60618.08
663.76	60747.8
664.11	60742.6
664.461	60780.79
664.811	60788.92
665.161	60735.59
665.511	60665.09
665.862	60694.01
666.212	60700.11
666.562	60764.29
666.912	60630.06
667.262	60668.93
667.612	60583.51
667.962	60611.98
668.312	60630.96
668.662	60727.68
669.011	60632.09
669.361	60641.13
669.711	60664.41
670.06	60580.79
670.41	60515.71
670.76	60555.48
671.109	60648.36
671.459	60543.51
671.808	60542.38
672.157	60595.26
672.507	60517.97
672.856	60529.04
673.205	60536.05
673.554	60584.86
673.904	60471.64
674.253	60712.09
674.602	60518.2
674.951	60232.33
675.3	60087.7
675.649	60502.6
675.998	60496.28
676.346	60492.21
676.695	60520.46
677.044	60418.76
677.393	60462.38
677.741	60494.69
678.09	60466.67
678.438	60349.39
678.787	60390.74
679.135	60384.87
679.484	60237.75
679.832	60324.76
680.181	60260.12
680.529	60271.88
680.877	60190.75
681.225	60175.83
681.573	60361.59
681.922	60181.03
682.27	60144.87
682.618	60106.91
682.966	60111.43
683.314	60073.46
683.661	60068.27
684.009	60002.73
684.357	60006.12
684.705	59904.88
685.053	59945.78
685.4	59834.6
685.748	59848.16
686.095	59820.14
686.443	59695.85
686.79	59707.6
687.138	59792.11
687.485	59721.61
687.832	59703.98
688.18	59679.8
688.527	59526.58
688.874	59640.48
689.221	59626.02
689.568	59458.79
689.915	59442.07
690.262	59516.64
690.609	59443.65
690.956	59368.62
691.303	59295.18
691.65	59219.7
691.997	59194.62
692.344	59115.3
692.69	59081.62
693.037	59058.8
693.383	58925.47
693.73	58945.58
694.077	58811.8
694.423	58866.94
694.769	58785.59
695.116	58781.97
695.462	58716.89
695.808	58501.07
696.155	58638.47
696.501	58504.24
696.847	58525.25
697.193	58265.83
697.539	58368.42
697.885	58215.21
698.231	58157.13
698.577	58139.95
698.923	58192.61
699.269	57981.77
699.614	57896.12
699.96	57803.92
700.306	57847.08
700.651	57736.8
700.997	57636.24
701.342	57586.52
701.688	57598.95
702.033	57478.73
702.379	57462.68
702.724	57364.16
703.069	57432.85
703.415	57167.78
703.76	57133.88
704.105	57149.7
704.45	57048.46
704.795	56927.78
705.14	56852.76
705.485	56820.44
705.83	56750.16
706.175	56767.34
706.52	56691.63
706.865	56607.57
707.209	56568.47
707.554	56434.46
707.899	56542.03
708.243	56364.18
708.588	56382.49
708.932	56203.73
709.277	56216.62
709.621	56069.05
709.966	55991.99
710.31	55997.64
710.654	55804.65
710.998	55836.29
711.342	55895.95
711.687	55798.32
712.031	55709.51
712.375	55544.99
712.719	55540.02
713.063	55594.48
713.407	55644.43
713.75	55495.73
714.094	55420.25
714.438	55307.49
714.782	55244.44
715.125	55179.81
715.469	55236.75
715.812	54975.07
716.156	54956.08
716.499	54944.11
716.843	54991.11
717.186	54786.82
717.53	55012.8
717.873	54895.75
718.216	54920.83
718.559	54692.36
718.902	54507.73
719.246	54567.84
719.589	54503.89
719.932	54434.29
720.275	54383.67
720.617	54384.57
720.96	54347.74
721.303	54383.44
721.646	54485.81
721.989	54097.12
722.331	54279.49
722.674	54174.63
723.016	54181.64
723.359	53968.54
723.701	54044.02
724.044	53926.28
724.386	53734.19
724.729	53913.62
725.071	53849.67
725.413	53818.49
725.755	53739.17
726.097	53653.97
726.439	53562.45
726.782	53473.18
727.124	53633.18
727.465	53546.63
727.807	53403.36
728.149	53423.47
728.491	53352.28
728.833	53385.28
729.175	53300.53
729.516	53124.49
729.858	53169.46
730.199	53304.83
730.541	53064.61
730.882	53065.06
731.224	53071.84
731.565	52905.97
731.906	53002.46
732.248	53030.03
732.589	52842.01
732.93	52787.33
733.271	52826.87
733.612	52806.99
733.953	52831.17
734.294	52727.67
734.635	52634.79
734.976	52686.76
735.317	52439.77
735.658	52425.08
735.999	52425.53
736.339	52403.38
736.68	52476.15
737.021	52367.68
737.361	52214.69
737.702	52463.27
738.042	52297.85
738.383	52233.89
738.723	52177.17
739.063	52201.81
739.404	52167.23
739.744	52083.62
740.084	52018.08
740.424	52087.46
740.764	51984.64
741.104	52140.56
741.444	51880.01
741.784	51791.65
742.124	51877.75
742.464	51758.65
742.804	51837.52
743.143	51658.09
743.483	51687.02
743.823	51556.62
744.162	51587.58
744.502	51512.56
744.841	51333.81
745.181	51562.05
745.52	51327.03
745.86	51413.35
746.199	51342.62
746.538	51310.76
746.877	51397.98
747.216	51279.8
747.556	51176.52
747.895	51209.52
748.234	51042.97
748.573	51139.23
748.911	51025.34
749.25	51021.27
749.589	50837.1
749.928	50963.19
750.267	50885.46
750.605	50800.71
750.944	50687.95
751.283	50649.08
751.621	50851.78
751.96	50610.89
752.298	50532.7
752.636	50489.99
752.975	50369.31
753.313	50169.32
753.651	50421.74
753.989	50201.86
754.327	50097.45
754.666	49951.02
755.004	50111.92
