Data from 166_FLMS001491_010.txt Node
Date: Thu Apr 19 16:18:38 BST 2018
User: hsy
Spectrometer: FLMS00149
Trigger mode: 0
Integration Time (sec): 1.000000E-2
Scans to average: 10
Electric dark correction enabled: true
Nonlinearity correction enabled: false
Boxcar width: 0
XAxis mode: Wavelengths
Number of Pixels in Spectrum: 2048
>>>>>Begin Spectral Data<<<<<
341.393	-4.52
341.776	-4.52
342.16	-4.52
342.543	-43.61
342.927	-56.72
343.31	-88.81
343.693	-63.28
344.077	-51.75
344.46	-54.01
344.843	-53.11
345.226	-46.33
345.61	-20.11
345.993	-21.69
346.376	-4.07
346.759	19.43
347.142	28.93
347.525	41.35
347.908	39.1
348.291	71.41
348.674	84.74
349.057	118.19
349.44	132.65
349.823	141.69
350.206	167.91
350.588	223.04
350.971	265.08
351.354	268.24
351.737	281.57
352.119	308.01
352.502	297.39
352.884	307.34
353.267	350.05
353.65	329.03
354.032	334.45
354.414	346.43
354.797	375.36
355.179	371.29
355.562	371.52
355.944	377.62
356.326	366.77
356.709	386.88
357.091	404.96
357.473	404.06
357.855	379.88
358.238	411.29
358.62	377.39
359.002	404.06
359.384	376.49
359.766	383.27
360.148	376.26
360.53	382.81
360.912	386.2
361.294	389.14
361.676	380.1
362.057	384.62
362.439	380.1
362.821	377.39
363.203	396.15
363.584	364.96
363.966	371.29
364.348	376.94
364.729	386.88
365.111	363.38
365.493	386.66
365.874	381.68
366.256	388.92
366.637	381.46
367.019	373.78
367.4	374
367.781	365.64
368.163	376.04
368.544	367.67
368.925	352.53
369.306	380.78
369.688	395.7
370.069	381.91
370.45	369.48
370.831	372.87
371.212	387.33
371.593	387.56
371.974	378.07
372.355	372.65
372.736	386.66
373.117	397.96
373.498	376.71
373.879	378.52
374.26	401.12
374.641	364.51
375.021	368.13
375.402	395.7
375.783	404.51
376.163	412.19
376.544	414.9
376.925	382.81
377.305	390.95
377.686	407.9
378.066	403.15
378.447	416.26
378.827	385.98
379.208	425.07
379.588	401.35
379.968	427.11
380.349	409.71
380.729	421.46
381.109	420.78
381.489	434.79
381.87	413.55
382.25	435.69
382.63	421.23
383.01	436.15
383.39	404.96
383.77	423.49
384.15	466.2
384.53	445.86
384.91	463.04
385.29	422.59
385.67	450.61
386.049	478.41
386.429	453.32
386.809	446.54
387.189	462.59
387.568	436.37
387.948	446.54
388.328	461
388.707	481.8
389.087	489.25
389.466	481.34
389.846	482.93
390.225	484.28
390.605	501.23
390.984	484.96
391.363	503.49
391.743	499.87
392.122	488.12
392.501	491.51
392.881	509.14
393.26	522.7
393.639	532.64
394.018	533.55
394.397	529.7
394.776	524.73
395.155	522.92
395.534	538.74
395.913	528.57
396.292	536.94
396.671	535.81
397.05	538.06
397.429	542.58
397.808	559.53
398.186	534.9
398.565	557.27
398.944	542.81
399.323	563.38
399.701	569.25
400.08	559.08
400.458	543.71
400.837	583.71
401.215	565.18
401.594	544.84
401.972	581.68
402.351	567.22
402.729	598.18
403.107	598.63
403.486	579.19
403.864	594.79
404.242	594.11
404.62	596.14
404.999	600.89
405.377	616.93
405.755	597.72
406.133	597.72
406.511	643.6
406.889	617.16
407.267	657.16
407.645	631.85
408.023	636.14
408.401	662.13
408.779	646.54
409.156	669.36
409.534	662.36
409.912	681.79
410.29	688.12
410.667	690.83
411.045	706.87
411.422	707.55
411.8	705.29
412.178	729.25
412.555	730.83
412.933	730.15
413.31	753.2
413.687	747.78
414.065	759.53
414.442	763.82
414.819	799.53
415.197	790.49
415.574	802.01
415.951	787.78
416.328	795.46
416.705	773.31
417.082	817.38
417.46	811.96
417.837	826.42
418.214	795.46
418.591	828.23
418.967	832.97
419.344	816.93
419.721	839.75
420.098	840.66
420.475	828.68
420.852	847.66
421.228	874.55
421.605	878.17
421.982	867.1
422.358	893.08
422.735	902.8
423.111	894.67
423.488	919.07
423.864	935.79
424.241	936.92
424.617	936.47
424.994	948
425.37	929.02
425.746	937.15
426.123	939.41
426.499	964.72
426.875	966.3
427.251	993.19
427.627	982.35
428.003	1027.09
428.379	1000.65
428.756	1037.26
429.132	1056.47
429.507	1072.51
429.883	1046.07
430.259	1046.75
430.635	1062.57
431.011	1088.56
431.387	1068.9
431.763	1094.89
432.138	1115.45
432.514	1141.89
432.89	1145.51
433.265	1147.54
433.641	1185.73
434.016	1196.13
434.392	1215.79
434.767	1211.27
435.143	1215.56
435.518	1218.95
435.894	1242
436.269	1239.97
436.644	1263.02
437.02	1267.54
437.395	1260.53
437.77	1306.63
438.145	1300.08
438.52	1323.13
438.895	1314.77
439.271	1322.45
439.646	1339.63
440.021	1345.73
440.395	1363.81
440.77	1350.7
441.145	1375.33
441.52	1363.58
441.895	1384.82
442.27	1397.03
442.645	1384.82
443.019	1419.4
443.394	1415.56
443.769	1449
444.143	1431.37
444.518	1443.13
444.892	1446.06
445.267	1438.38
445.641	1474.99
446.016	1479.96
446.39	1480.64
446.764	1517.93
447.139	1498.72
447.513	1505.27
447.887	1489.45
448.262	1499.4
448.636	1531.49
449.01	1522.9
449.384	1556.8
449.758	1556.34
450.132	1571.26
450.506	1598.15
450.88	1609.45
451.254	1595.66
451.628	1618.49
452.002	1647.87
452.376	1673.4
452.75	1705.27
453.123	1664.36
453.497	1691.93
453.871	1719.95
454.244	1772.61
454.618	1760.18
454.992	1773.06
455.365	1801.76
455.739	1834.3
456.112	1837.24
456.486	1900.74
456.859	1897.8
457.232	1898.71
457.606	1906.39
457.979	1970.12
458.352	1980.96
458.725	1959.04
459.099	2027.74
459.472	2052.83
459.845	2049.21
460.218	2086.27
460.591	2097.12
460.964	2131.02
461.337	2157.01
461.71	2186.16
462.083	2191.81
462.456	2222.54
462.829	2204.24
463.201	2286.72
463.574	2269.54
463.947	2287.85
464.32	2327.62
464.692	2368.75
465.065	2324.68
465.438	2390.9
465.81	2420.05
466.183	2446.49
466.555	2474.51
466.928	2473.38
467.3	2510.89
467.672	2531.46
468.045	2590.89
468.417	2573.72
468.789	2586.6
469.161	2635.41
469.534	2660.04
469.906	2742.98
470.278	2702.98
470.65	2761.06
471.022	2824.78
471.394	2860.94
471.766	2932.35
472.138	2919.7
472.51	2967.38
472.882	2969.64
473.253	3042.86
473.625	3076.08
473.997	3130.09
474.369	3134.15
474.74	3190.42
475.112	3275.85
475.484	3306.81
475.855	3372.57
476.227	3405.56
476.598	3489.63
476.97	3547.48
477.341	3526.01
477.713	3630.64
478.084	3645.1
478.455	3714.93
478.827	3776.85
479.198	3903.17
479.569	3864.53
479.94	3969.61
480.311	4038.76
480.682	4098.65
481.053	4231.98
481.424	4284.86
481.795	4351.75
482.166	4386.78
482.537	4454.12
482.908	4544.06
483.279	4576.38
483.65	4686.43
484.021	4776.82
484.391	4859.08
484.762	4895.01
485.133	4946.31
485.503	4987.21
485.874	5176.81
486.244	5234.21
486.615	5318.28
486.985	5416.13
487.356	5481.89
487.726	5533.41
488.097	5685.05
488.467	5745.84
488.837	5861.54
489.207	5932.73
489.578	5993.74
489.948	6142.66
490.318	6203.9
490.688	6260.4
491.058	6373.39
491.428	6458.36
491.798	6512.82
492.168	6680.95
492.538	6744.91
492.908	6855.19
493.278	6992.36
493.648	7017.89
494.017	7115.07
494.387	7259.47
494.757	7270.54
495.126	7376.76
495.496	7411.78
495.866	7548.73
496.235	7572.23
496.605	7769.74
496.974	7781.04
497.344	7895.39
497.713	7988.72
498.082	8028.26
498.452	8114.14
498.821	8203.63
499.19	8273
499.559	8340.12
499.928	8421.7
500.298	8544.18
500.667	8668.7
501.036	8672.99
501.405	8740.56
501.774	8802.48
502.143	8915.47
502.512	8973.78
502.88	9092.64
503.249	9114.79
503.618	9216.93
503.987	9263.71
504.356	9356.82
504.724	9462.8
505.093	9496.7
505.462	9544.16
505.83	9633.42
506.199	9773.3
506.567	9786.41
506.936	9904.6
507.304	9965.16
507.672	10106.85
508.041	10119.73
508.409	10236.57
508.777	10313.4
509.145	10384.81
509.514	10354.76
509.882	10471.59
510.25	10464.58
510.618	10584.13
510.986	10665.03
511.354	10712.03
511.722	10855.76
512.09	10957.23
512.458	10995.19
512.826	11088.07
513.193	11193.15
513.561	11239.25
513.929	11270.44
514.297	11428.85
514.664	11469.98
515.032	11542.75
515.4	11574.61
515.767	11679.24
516.135	11810.31
516.502	11680.37
516.869	11918.78
517.237	11985.9
517.604	11912.23
517.972	12197.65
518.339	12269.28
518.706	12290.98
519.073	12413.68
519.44	12425.66
519.808	12530.29
520.175	12595.15
520.542	12694.13
520.909	12871.53
521.276	12878.31
521.643	13154
522.009	13062.48
522.376	13210.73
522.743	13256.37
523.11	13485.52
523.477	13653.2
523.843	13637.16
524.21	13870.37
524.577	13988.78
524.943	14029.46
525.31	14188.33
525.676	14310.58
526.043	14411.37
526.409	14368.89
526.776	14562.78
527.142	14756.22
527.508	14800.97
527.874	14915.54
528.241	15053.39
528.607	15145.82
528.973	15247.96
529.339	15317.79
529.705	15461.51
530.071	15569.99
530.437	15663.09
530.803	15762.52
531.169	15846.81
531.535	15881.62
531.901	15965.46
532.267	16069.41
532.632	16206.81
532.998	16307.82
533.364	16385.33
533.73	16431.21
534.095	16583.07
534.461	16583.29
534.826	16788.71
535.192	16777.86
535.557	16998.88
535.923	16995.94
536.288	17175.82
536.653	17197.29
537.019	17131.98
537.384	17320.67
537.749	17325.87
538.114	17374.68
538.479	17392.99
538.845	17537.17
539.21	17665.75
539.575	17672.08
539.94	17669.59
540.305	17859.19
540.67	17820.32
541.034	17886.31
541.399	17961.11
541.764	18073.42
542.129	18023.03
542.494	18094.89
542.858	18239.97
543.223	18242.23
543.587	18381.21
543.952	18387.09
544.316	18425.05
544.681	18413.98
545.045	18622.34
545.41	18724.25
545.774	18626.63
546.138	18743.91
546.503	18829.34
546.867	18886.96
547.231	18950.01
547.595	18919.95
547.959	19074.75
548.324	19072.49
548.688	19149.33
549.052	19161.3
549.416	19144.13
549.779	19209.44
550.143	19289.66
550.507	19429.09
550.871	19515.65
551.235	19508.64
551.599	19634.96
551.962	19676.09
552.326	19700.5
552.689	19806.26
553.053	19748.41
553.417	19861.17
553.78	20148.85
554.143	20125.12
554.507	20189.98
554.87	20150.88
555.234	20294.16
555.597	20271.33
555.96	20425.45
556.323	20512.45
556.686	20543.87
557.05	20665.9
557.413	20722.84
557.776	20791.77
558.139	20955.38
558.502	20961.48
558.865	21063.63
559.228	21204.64
559.59	21262.04
559.953	21391.98
560.316	21565.31
560.679	21576.38
561.041	21766.66
561.404	21763.72
561.767	22022.92
562.129	22010.95
562.492	22162.36
562.854	22251.39
563.217	22206.87
563.579	22283.26
563.941	22548.79
564.304	22636.69
564.666	22702.23
565.028	22806.63
565.39	22783.81
565.753	22987.64
566.115	23140.86
566.477	23155.55
566.839	23262.44
567.201	23573.39
567.563	23651.81
567.925	23822.88
568.287	23833.95
568.648	23898.35
569.01	24037.33
569.372	24273.26
569.734	24252.47
570.095	24497.66
570.457	24650.65
570.819	24640.03
571.18	24686.13
571.542	24998.89
571.903	24934.03
572.265	25085.89
572.626	25213.35
572.987	25261.03
573.349	25504.64
573.71	25665.99
574.071	25853.11
574.432	25968.81
574.794	26153.44
575.155	26148.01
575.516	26172.87
575.877	26344.17
576.238	26415.8
576.599	26567.66
576.96	26672.07
577.32	26826.41
577.681	26952.29
578.042	27059.85
578.403	27393.18
578.763	27401.99
579.124	27480.86
579.485	27736.9
579.845	27971.47
580.206	27893.28
580.566	28129.66
580.927	28206.49
581.287	28603.77
581.648	28555.41
582.008	28794.72
582.368	28951.1
582.728	29231.1
583.089	29356.29
583.449	29534.82
583.809	29788.6
584.169	29947.01
584.529	30144.97
584.889	30590.61
585.249	30579.76
585.609	30788.79
585.969	31119.63
586.329	31284.15
586.688	31749.22
587.048	31997.58
587.408	32071.7
587.768	32565.02
588.127	32776.31
588.487	33191.44
588.846	33749.62
589.206	33586.01
589.565	34054.7
589.925	34716.6
590.284	34932.19
590.643	35308.45
591.003	35744.82
591.362	36301.19
591.721	36641.52
592.08	36910.67
592.44	37403.31
592.799	37815.73
593.158	38249.39
593.517	38630.17
593.876	39153.09
594.235	39605.51
594.593	40058.61
594.952	40376.11
595.311	40818.59
595.67	41365.69
596.029	41912.12
596.387	42376.51
596.746	42822.38
597.104	43117.28
597.463	43667.55
597.822	44244.03
598.18	44391.83
598.538	44839.95
598.897	45564.45
599.255	45691.91
599.613	46577.08
599.972	46565.33
600.33	47149.27
600.688	47485.76
601.046	47838.74
601.404	48570.25
601.762	48758.04
602.12	49268.54
602.478	49490
602.836	49771.8
603.194	50053.37
603.552	50459.24
603.91	50639.8
604.268	51102.84
604.625	51304.41
604.983	51877.73
605.341	51773.78
605.698	52298.06
606.056	52642.68
606.413	52777.37
606.771	53146.85
607.128	53378.26
607.485	53525.6
607.843	53770.56
608.2	54105.92
608.557	54468.4
608.914	54500.04
609.272	54783.64
609.629	55086.01
609.986	55287.81
610.343	55496.39
610.7	55794.69
611.057	55877.17
611.414	55971.18
611.771	56264.06
612.127	56491.62
612.484	56572.98
612.841	56799.41
613.198	56850.26
613.554	57007.99
613.911	57327.08
614.267	57428.77
614.624	57560.97
614.98	57701.76
615.337	57969.32
615.693	57978.14
616.05	58200.5
616.406	58290.44
616.762	58333.83
617.118	58511.68
617.475	58532.92
617.831	58798
618.187	58878
618.543	58987.38
618.899	59214.71
619.255	59246.13
619.611	59284.09
619.967	59468.04
620.323	59608.6
620.678	59524.54
621.034	59636.17
621.39	59757.3
621.746	59757.75
622.101	60065.31
622.457	59924.07
622.812	60087.46
623.168	60162.03
623.523	60176.04
623.879	60294.69
624.234	60248.13
624.589	60429.15
624.945	60406.77
625.3	60458.3
625.655	60504.62
626.01	60651.29
626.365	60628.69
626.72	60568.35
627.075	60621.46
627.43	60680.66
627.785	60724.05
628.14	60739.19
628.495	60754.11
628.85	60768.12
629.205	60685.86
629.559	60920.43
629.914	60781
630.269	60886.08
630.623	60836.14
630.978	60847.67
631.332	60995.68
631.687	60930.15
632.041	60964.95
632.396	61022.58
632.75	60921.34
633.104	60979.64
633.459	60836.37
633.813	60943.93
634.167	60863.94
634.521	60855.8
634.875	60883.37
635.229	60890.15
635.583	60795.01
635.937	60825.75
636.291	60906.65
636.645	60868.23
636.999	60802.02
637.352	60872.07
637.706	60700.1
638.06	60833.65
638.413	60807.67
638.767	60682.92
639.121	60787.78
639.474	60698.52
639.828	60696.94
640.181	60696.48
640.534	60743.49
640.888	60568.12
641.241	60541.23
641.594	60567
641.947	60713.43
642.301	60585.07
642.654	60618.97
643.007	60476.6
643.36	60596.6
643.713	60541.91
644.066	60645.86
644.419	60416.49
644.771	60127.91
645.124	59988.25
645.477	60023.73
645.83	59847.92
646.182	59877.97
646.535	59811.76
646.888	59885.21
647.24	59855.83
647.593	59935.6
647.945	59806.79
648.298	59755.94
648.65	59675.27
649.002	59570.64
649.355	59548.94
649.707	59459.91
650.059	59588.94
650.411	59791.42
650.763	59890.4
651.115	60240
651.467	60108.02
651.819	60108.93
652.171	60089.95
652.523	59992.09
652.875	60025.54
653.227	59879.1
653.578	60104.86
653.93	59983.51
654.282	59894.92
654.633	59783.06
654.985	59886.79
655.337	59883.17
655.688	59843.17
656.039	59866
656.391	59647.7
656.742	59785.32
657.094	59746.68
657.445	59757.3
657.796	59796.17
658.147	59701.26
658.498	59701.26
658.849	59734.7
659.2	59666.91
659.551	59641.14
659.902	59762.04
660.253	59608.15
660.604	59722.95
660.955	59591.43
661.306	59702.61
661.656	59524.31
662.007	59588.94
662.358	59628.71
662.708	59611.09
663.059	59566.8
663.409	59417.19
663.76	59590.75
664.11	59605.66
664.461	59588.04
664.811	59498.1
665.161	59501.49
665.511	59422.17
665.862	59454.03
666.212	59531.09
666.562	59556.85
666.912	59496.74
667.262	59349.4
667.612	59436.4
667.962	59441.6
668.312	59338.1
668.662	59470.75
669.011	59421.26
669.361	59350.53
669.711	59449.06
670.06	59367.25
670.41	59318.21
670.76	59307.37
671.109	59408.61
671.459	59389.17
671.808	59295.16
672.157	59320.02
672.507	59212
672.856	59238.44
673.205	59280.7
673.554	59428.72
673.904	59282.28
674.253	59442.05
674.602	59302.17
674.951	58935.85
675.3	58767.49
675.649	59306.01
675.998	59240.02
676.346	59251.32
676.695	59252.68
677.044	59068.96
677.393	59172.23
677.741	59260.59
678.09	59183.75
678.438	59147.6
678.787	59193.25
679.135	59183.53
679.484	59062.85
679.832	59115.73
680.181	59034.83
680.529	59071.22
680.877	58998.67
681.225	58944.21
681.573	59151.89
681.922	59009.97
682.27	58924.1
682.618	58919.81
682.966	58821.28
683.314	58936.08
683.661	58920.03
684.009	58779.7
684.357	58727.5
684.705	58734.5
685.053	58682.3
685.4	58612.02
685.748	58576.54
686.095	58591.68
686.443	58584.67
686.79	58558.69
687.138	58614.28
687.485	58532.92
687.832	58403.89
688.18	58345.81
688.527	58330.67
688.874	58324.57
689.221	58271.69
689.568	58271.91
689.915	58164.57
690.262	58238.24
690.609	58190.79
690.956	58014.07
691.303	58000.06
691.65	57977.68
691.997	57922.77
692.344	57779.5
692.69	57817.01
693.037	57821.08
693.383	57612.72
693.73	57700.4
694.077	57534.98
694.423	57581.54
694.769	57503.12
695.116	57469
695.462	57381.32
695.808	57303.35
696.155	57347.42
696.501	57152.17
696.847	57225.61
697.193	57047.09
697.539	57121.66
697.885	56939.52
698.231	56913.08
698.577	56855
698.923	56857.71
699.269	56671.28
699.614	56674.22
699.96	56488.01
700.306	56565.97
700.651	56431.06
700.997	56382.7
701.342	56377.27
701.688	56233.55
702.033	56237.17
702.379	56227
702.724	56030.17
703.069	56166.21
703.415	55823.62
703.76	55864.29
704.105	55840.34
704.45	55767.12
704.795	55720.34
705.14	55595.6
705.485	55623.85
705.83	55392.67
706.175	55565.09
706.52	55433.57
706.865	55350.86
707.209	55236.97
707.554	55260.47
707.899	55272.22
708.243	55095.95
708.588	54993.36
708.932	54944.77
709.277	54912.45
709.621	54808.95
709.966	54655.06
710.31	54711.78
710.654	54505.69
710.998	54597.66
711.342	54572.12
711.687	54430.21
712.031	54407.16
712.375	54217.11
712.719	54307.5
713.063	54180.72
713.407	54406.71
713.75	54146.15
714.094	54092.14
714.438	53897.11
714.782	54005.36
715.125	53810.56
715.469	53909.99
715.812	53685.82
716.156	53653.28
716.499	53716.78
716.843	53690.34
717.186	53348.2
717.53	53638.82
717.873	53557.46
718.216	53507.75
718.559	53358.6
718.902	53077.47
719.246	53187.3
719.589	53119.73
719.932	53074.99
720.275	53020.3
720.617	53037.25
720.96	52820.08
721.303	53016.91
721.646	52972.17
721.989	52700.76
722.331	52854.88
722.674	52762
723.016	52787.54
723.359	52575.79
723.701	52610.14
724.044	52500.09
724.386	52392.29
724.729	52498.96
725.071	52402.01
725.413	52381.9
725.755	52222.81
726.097	52161.34
726.439	52115.69
726.782	52059.2
727.124	52288.12
727.465	52073.43
727.807	51922.48
728.149	52062.59
728.491	51907.34
728.833	51949.59
729.175	51771.29
729.516	51708.47
729.858	51698.75
730.199	51820.11
730.541	51705.31
730.882	51566.33
731.224	51690.84
731.565	51571.07
731.906	51524.97
732.248	51579.21
732.589	51261.93
732.93	51218.99
733.271	51283.17
733.612	51263.51
733.953	51346.9
734.294	51210.4
734.635	51060.58
734.976	51239.1
735.317	51037.08
735.658	50947.81
735.999	50957.08
736.339	50988.04
736.68	50971.09
737.021	50935.16
737.361	50719.12
737.702	51029.17
738.042	50844.31
738.383	50804.09
738.723	50926.57
739.063	50678.44
739.404	50802.51
739.744	50691.1
740.084	50536.07
740.424	50581.27
740.764	50468.73
741.104	50680.93
741.444	50409.97
741.784	50269.41
742.124	50365.68
742.464	50269.64
742.804	50275.51
743.143	50233.93
743.483	50131.56
743.823	49942.87
744.162	50007.05
744.502	50023.32
744.841	49916.88
745.181	49965.47
745.52	49932.25
745.86	49865.36
746.199	49859.48
746.538	49841.4
746.877	49852.47
747.216	49689.99
747.556	49560.28
747.895	49551.01
748.234	49525.93
748.573	49433.95
748.911	49389.44
749.25	49315.31
749.589	49226.5
749.928	49264.92
750.267	49202.1
750.605	48983.34
750.944	48963.91
751.283	49035.55
751.621	49192.38
751.96	48892.95
752.298	48916
752.636	48904.02
752.975	48653.41
753.313	48515.33
753.651	48769.11
753.989	48512.17
754.327	48590.13
754.666	48255
755.004	48411.38
755.342	48406.41
755.679	48205.74
756.017	48004.39
