Data from 166_FLMS001491_001.txt Node
Date: Thu Apr 19 16:18:11 BST 2018
User: hsy
Spectrometer: FLMS00149
Trigger mode: 0
Integration Time (sec): 1.000000E-2
Scans to average: 10
Electric dark correction enabled: true
Nonlinearity correction enabled: false
Boxcar width: 0
XAxis mode: Wavelengths
Number of Pixels in Spectrum: 2048
>>>>>Begin Spectral Data<<<<<
341.393	-21.93
341.776	-21.93
342.16	-21.93
342.543	-53.8
342.927	-54.93
343.31	-75.27
343.693	-72.78
344.077	-74.59
344.46	-61.48
344.843	-40.69
345.226	-50.86
345.61	-42.95
345.993	-18.54
346.376	-19.9
346.759	25.3
347.142	46.09
347.525	64.62
347.908	64.62
348.291	71.85
348.674	83.37
349.057	101.23
349.44	130.83
349.823	148.68
350.206	172.86
350.588	230.94
350.971	245.4
351.354	273.65
351.737	280.66
352.119	301.22
352.502	337.6
352.884	321.79
353.267	321.11
353.65	312.75
354.032	349.13
354.414	370.82
354.797	361.11
355.179	354.55
355.562	355
355.944	367.66
356.326	377.15
356.709	387.55
357.091	395.46
357.473	394.33
357.855	376.47
358.238	361.11
358.62	395
359.002	387.32
359.384	406.53
359.766	377.15
360.148	398.39
360.53	398.17
360.912	388.22
361.294	377.15
361.676	413.31
362.057	391.16
362.439	392.74
362.821	377.6
363.203	383.48
363.584	370.82
363.966	360.88
364.348	389.13
364.729	387.09
365.111	373.54
365.493	366.08
365.874	388.9
366.256	385.51
366.637	394.78
367.019	376.47
367.4	391.16
367.781	408.11
368.163	385.96
368.544	366.08
368.925	373.31
369.306	375.57
369.688	392.52
370.069	369.69
370.45	366.53
370.831	390.94
371.212	390.71
371.593	394.33
371.974	382.8
372.355	370.37
372.736	380.99
373.117	406.98
373.498	400.2
373.879	379.41
374.26	413.31
374.641	385.06
375.021	399.98
375.402	403.59
375.783	411.27
376.163	418.51
376.544	415.12
376.925	416.7
377.305	420.09
377.686	397.49
378.066	417.15
378.447	428.68
378.827	416.02
379.208	412.63
379.588	400.43
379.968	447.43
380.349	447.21
380.729	430.48
381.109	430.71
381.489	431.61
381.87	440.43
382.25	422.12
382.63	426.42
383.01	434.32
383.39	450.14
383.77	441.1
384.15	449.92
384.53	453.53
384.91	458.73
385.29	463.93
385.67	465.06
386.049	481.1
386.429	482.01
386.809	460.31
387.189	456.7
387.568	471.61
387.948	469.13
388.328	479.07
388.707	483.59
389.087	475
389.466	484.27
389.846	499.86
390.225	481.56
390.605	491.5
390.984	523.36
391.363	510.25
391.743	521.78
392.122	514.32
392.501	528.33
392.881	534.21
393.26	541.21
393.639	528.11
394.018	526.98
394.397	568.56
394.776	552.97
395.155	560.42
395.534	525.85
395.913	547.99
396.292	562.68
396.671	548.67
397.05	543.25
397.429	543.47
397.808	573.53
398.186	571.5
398.565	551.38
398.944	569.69
399.323	567.43
399.701	561.33
400.08	568.78
400.458	591.38
400.837	580.54
401.215	564.04
401.594	594.32
401.972	605.62
402.351	592.29
402.729	609.24
403.107	611.72
403.486	603.59
403.864	616.01
404.242	607.2
404.62	616.24
404.999	634.09
405.377	650.82
405.755	643.58
406.133	653.75
406.511	658.95
406.889	653.08
407.267	678.84
407.645	669.57
408.023	680.87
408.401	686.75
408.779	684.04
409.156	691.95
409.534	713.64
409.912	684.26
410.29	707.76
410.667	738.05
411.045	754.54
411.422	729.46
411.8	718.84
412.178	743.24
412.555	766.75
412.933	767.2
413.31	790.7
413.687	773.75
414.065	780.53
414.442	780.98
414.819	791.6
415.197	811.04
415.574	814.88
415.951	834.31
416.328	821.21
416.705	839.74
417.082	829.57
417.46	844.71
417.837	835.67
418.214	886.74
418.591	859.4
418.967	898.27
419.344	874.09
419.721	900.08
420.098	883.58
420.475	870.7
420.852	891.71
421.228	908.66
421.605	915.89
421.982	932.39
422.358	942.33
422.735	920.19
423.111	935.55
423.488	954.09
423.864	940.3
424.241	950.47
424.617	975.78
424.994	958.38
425.37	990.69
425.746	982.33
426.123	1022.11
426.499	1012.39
426.875	1037.25
427.251	1021.88
427.627	1035.21
428.003	1022.11
428.379	1043.12
428.756	1063.01
429.132	1071.14
429.507	1099.17
429.883	1088.09
430.259	1102.1
430.635	1116.34
431.011	1123.12
431.387	1156.79
431.763	1201.08
432.138	1161.54
432.514	1190.24
432.89	1215.1
433.265	1202.89
433.641	1225.04
434.016	1216.23
434.392	1258.94
434.767	1276.11
435.143	1268.2
435.518	1273.62
435.894	1284.47
436.269	1318.37
436.644	1351.59
437.02	1328.76
437.395	1352.72
437.77	1346.62
438.145	1374.41
438.52	1379.84
438.895	1371.93
439.271	1398.82
439.646	1443.79
440.021	1440.4
440.395	1419.84
440.77	1439.72
441.145	1464.58
441.52	1472.49
441.895	1468.65
442.27	1481.08
442.645	1476.33
443.019	1517.01
443.394	1499.83
443.769	1515.88
444.143	1511.81
444.518	1515.2
444.892	1536.22
445.267	1509.78
445.641	1548.19
446.016	1552.26
446.39	1587.51
446.764	1601.53
447.139	1583.9
447.513	1602.88
447.887	1618.93
448.262	1614.86
448.636	1608.53
449.01	1614.63
449.384	1640.62
449.758	1652.82
450.132	1657.57
450.506	1673.61
450.88	1721.97
451.254	1672.94
451.628	1741.41
452.002	1731.47
452.376	1763.56
452.75	1800.84
453.123	1790.9
453.497	1768.07
453.871	1816.21
454.244	1875.19
454.618	1903.44
454.992	1909.31
455.365	1859.6
455.739	1941.86
456.112	1959.26
456.486	1994.06
456.859	1976.43
457.232	2045.58
457.606	2038.12
457.979	2064.79
458.352	2096.88
458.725	2113.15
459.099	2125.35
459.472	2124.45
459.845	2167.39
460.218	2217.55
460.591	2246.25
460.964	2254.84
461.337	2288.29
461.71	2361.28
462.083	2322.86
462.456	2315.86
462.829	2386.36
463.201	2409.19
463.574	2424.33
463.947	2444.89
464.32	2494.38
464.692	2509.3
465.065	2505.68
465.438	2528.51
465.81	2590.65
466.183	2582.97
466.555	2630.88
466.928	2683.08
467.3	2661.38
467.672	2701.16
468.045	2727.37
468.417	2745
468.789	2772.79
469.161	2836.52
469.534	2862.28
469.906	2919.68
470.278	2953.13
470.65	2963.75
471.022	2991.09
471.394	3074.93
471.766	3097.08
472.138	3118.55
472.51	3200.35
472.882	3218.21
473.253	3249.62
473.625	3310.18
473.997	3373.68
474.369	3366.45
474.74	3396.96
475.112	3478.76
475.484	3552.43
475.855	3614.35
476.227	3617.29
476.598	3767.34
476.97	3774.8
477.341	3817.29
477.713	3890.51
478.084	3902.03
478.455	4007.79
478.827	4017.96
479.198	4153.32
479.569	4179.31
479.94	4272.19
480.311	4306.99
480.682	4422.02
481.053	4523.48
481.424	4533.43
481.795	4627.43
482.166	4730.93
482.537	4778.17
482.908	4876.02
483.279	4947.2
483.65	5052.51
484.021	5132.28
484.391	5176.35
484.762	5226.52
485.133	5328.89
485.503	5410.01
485.874	5559.16
486.244	5601.19
486.615	5687.52
486.985	5699.95
487.356	5907.4
487.726	5939.26
488.097	6110.11
488.467	6149.65
488.837	6273.49
489.207	6353.04
489.578	6460.15
489.948	6610.89
490.318	6612.92
490.688	6704.44
491.058	6852.46
491.428	6950.31
491.798	7033.7
492.168	7169.74
492.538	7265.56
492.908	7336.06
493.278	7462.61
493.648	7506.91
494.017	7684.98
494.387	7778.76
494.757	7863.51
495.126	7914.35
495.496	8020.11
495.866	8087.23
496.235	8198.64
496.605	8343.04
496.974	8353.21
497.344	8493.77
497.713	8548.69
498.082	8619.87
498.452	8713.66
498.821	8851.28
499.19	8848.57
499.559	8949.81
499.928	9084.94
500.298	9186.41
500.667	9248.1
501.036	9322.9
501.405	9416.46
501.774	9456.23
502.143	9507.76
502.512	9668.43
502.88	9771.25
503.249	9810.8
503.618	9950.68
503.987	9971.02
504.356	9993.17
504.724	10172.37
505.093	10187.29
505.462	10226.38
505.83	10354.74
506.199	10482.2
506.567	10596.77
506.936	10574.17
507.304	10759.7
507.672	10792.47
508.041	10883.54
508.409	10998.11
508.777	11066.14
509.145	11104.78
509.514	11220.26
509.882	11269.75
510.25	11379.35
510.618	11462.74
510.986	11485.56
511.354	11559.91
511.722	11708.15
512.09	11853.91
512.458	11757.42
512.826	11903.4
513.193	12007.35
513.561	12031.53
513.929	12152.43
514.297	12250.96
514.664	12359.43
515.032	12408.7
515.4	12586.55
515.767	12626.32
516.135	12696.6
516.502	12655.02
516.869	12816.82
517.237	13007.55
517.604	12818.18
517.972	13069.02
518.339	13218.62
518.706	13144.5
519.073	13313.08
519.44	13379.52
519.808	13660.42
520.175	13576.8
520.542	13767.53
520.909	13927.08
521.276	13886.63
521.643	14098.15
522.009	14180.18
522.376	14247.52
522.743	14379.27
523.11	14480.28
523.477	14784.68
523.843	14744.91
524.21	14923.21
524.577	14992.59
524.943	15078.01
525.31	15223.31
525.676	15334.05
526.043	15478.67
526.409	15543.76
526.776	15725.45
527.142	15781.49
527.508	15981.26
527.874	16103.52
528.241	16232.33
528.607	16282.04
528.973	16478.42
529.339	16513.45
529.705	16687.46
530.071	16858.98
530.437	16915.25
530.803	17032.08
531.169	17038.41
531.535	17218.52
531.901	17330.83
532.267	17376.48
532.632	17564.04
532.998	17616.47
533.364	17739.86
533.73	17741.44
534.095	18008.1
534.461	18014.2
534.826	18118.15
535.192	18233.86
535.557	18471.59
535.923	18343.46
536.288	18559.05
536.653	18580.29
537.019	18762.88
537.384	18712.49
537.749	18708.42
538.114	18815.54
538.479	18787.51
538.845	18978.92
539.21	18924.91
539.575	19083.55
539.94	19193.38
540.305	19356.99
540.67	19401.51
541.034	19344.34
541.399	19525.12
541.764	19504.11
542.129	19532.13
542.494	19674.72
542.858	19740.48
543.223	19679.47
543.587	19963.53
543.952	19776.19
544.316	20041.49
544.681	19950.65
545.045	20108.16
545.41	20309.96
545.774	20238.1
546.138	20207.82
546.503	20341.82
546.867	20329.85
547.231	20500.46
547.595	20612.55
547.959	20700.46
548.324	20764.86
548.688	20776.84
549.052	20868.36
549.416	20824.52
549.779	20842.15
550.143	20944.97
550.507	21113.33
550.871	21153.55
551.235	21159.88
551.599	21375.02
551.962	21414.79
552.326	21376.37
552.689	21507.67
553.053	21277.62
553.417	21492.98
553.78	21706.76
554.143	21857.94
554.507	21862.91
554.87	21975.68
555.234	22096.58
555.597	22047.54
555.96	22173.64
556.323	22342.68
556.686	22297.7
557.05	22464.03
557.413	22574.08
557.776	22571.6
558.139	22784.92
558.502	22746.28
558.865	22796.45
559.228	23041.64
559.59	23090.68
559.953	23158.47
560.316	23452.25
560.679	23377.45
561.041	23560.95
561.404	23578.8
561.767	23873.26
562.129	23829.19
562.492	24057.21
562.854	24137.88
563.217	24109.86
563.579	24182.4
563.941	24381.49
564.304	24624.88
564.666	24691.77
565.028	24779.9
565.39	24827.58
565.753	25049.95
566.115	25028.71
566.477	25285.42
566.839	25469.15
567.201	25570.61
567.563	25505.08
567.925	25836.37
568.287	25922.02
568.648	26083.37
569.01	26169.69
569.372	26409.01
569.734	26512.06
570.095	26647.87
570.457	26817.36
570.819	26900.07
571.18	26936
571.542	27057.58
571.903	27228.87
572.265	27431.13
572.626	27495.53
572.987	27613.72
573.349	27856.88
573.71	27981.62
574.071	28122.64
574.432	28304.1
574.794	28510.42
575.155	28511.55
575.516	28608.73
575.877	28759.91
576.238	28808.27
576.599	29064.08
576.96	29127.81
577.32	29333.9
577.681	29308.59
578.042	29728.24
578.403	29666.55
578.763	29771.41
579.124	30059.76
579.485	30298.85
579.845	30403.25
580.206	30549.24
580.566	30641.67
580.927	30881.89
581.287	31010.92
581.648	31088.43
582.008	31468.31
582.368	31525.48
582.728	31632.83
583.089	31942.2
583.449	32127.28
583.809	32349.64
584.169	32600.26
584.529	32691.56
584.889	33196.18
585.249	33304.65
585.609	33306.91
585.969	33825.54
586.329	34059.43
586.688	34495.58
587.048	34643.14
587.408	35015.34
587.768	35322.67
588.127	35702.32
588.487	35988.64
588.846	36698
589.206	36579.82
589.565	36996.08
589.925	37684.42
590.284	37942.04
590.643	38308.58
591.003	38706.31
591.362	39416.35
591.721	39644.37
592.08	39978.82
592.44	40693.61
592.799	41036.42
593.158	41374.72
593.517	41731.77
593.876	42334.69
594.235	42666.21
594.593	43092.86
594.952	43702.57
595.311	43898.27
595.67	44476.33
596.029	45147.27
596.387	45621.84
596.746	46124.65
597.104	46216.62
597.463	46820.68
597.822	47348.35
598.18	47537.49
598.538	47999.4
598.897	48560.29
599.255	48720.29
599.613	49449.08
599.972	49621.28
600.33	49940.14
600.688	50243.86
601.046	50522.95
601.404	51091.75
601.762	51395.7
602.12	51780.32
602.478	52033.42
602.836	52346.18
603.194	52428.66
603.552	52841.76
603.91	53015.09
604.268	53453.95
604.625	53615.53
604.983	54029.07
605.341	54013.03
605.698	54445.56
606.056	54850.07
606.413	54886.9
606.771	55281.24
607.128	55373.67
607.485	55536.15
607.843	55820.44
608.2	56049.81
608.557	56318.96
608.914	56454.32
609.272	56690.25
609.629	56961.2
609.986	57074.87
610.343	57276.67
610.7	57526.83
611.057	57664.01
611.414	57762.99
611.771	58035.3
612.127	58200.04
612.484	58353.93
612.841	58488.84
613.198	58504.44
613.554	58639.8
613.911	58919.57
614.267	59028.94
614.624	59173.8
614.98	59296.51
615.337	59514.35
615.693	59611.75
616.05	59686.78
616.406	59961.57
616.762	59971.74
617.118	60044.28
617.475	60115.24
617.831	60297.84
618.187	60463.48
618.543	60518.62
618.899	60658.73
619.255	60686.98
619.611	60820.31
619.967	60936.91
620.323	61050.13
620.678	61017.59
621.034	61065.05
621.39	61147.3
621.746	61249.22
622.101	61561.31
622.457	61404.92
622.812	61567.41
623.168	61649.21
623.523	61632.49
623.879	61797.68
624.234	61700.06
624.589	61855.08
624.945	61898.25
625.3	61919.94
625.655	61992.03
626.01	62022.31
626.365	62091.91
626.72	62077.9
627.075	62073.38
627.43	62148.41
627.785	62205.81
628.14	62221.17
628.495	62291.23
628.85	62236.54
629.205	62238.12
629.559	62331.45
629.914	62267.5
630.269	62323.09
630.623	62277.44
630.978	62256.43
631.332	62450.32
631.687	62392.92
632.041	62357.67
632.396	62433.15
632.75	62437.67
633.104	62418.23
633.459	62282.42
633.813	62308.4
634.167	62314.28
634.521	62389.98
634.875	62315.41
635.229	62286.94
635.583	62266.6
635.937	62256.2
636.291	62255.75
636.645	62257.56
636.999	62160.61
637.352	62304.11
637.706	62128.07
638.06	62229.54
638.413	62220.27
638.767	62090.56
639.121	62187.73
639.474	62067.05
639.828	62135.53
640.181	62066.83
640.534	62128.3
640.888	62014.4
641.241	61954.06
641.594	61974.63
641.947	62057.79
642.301	61964.68
642.654	61997.9
643.007	61916.1
643.36	61949.32
643.713	61905.02
644.066	62066.38
644.419	61826.83
644.771	61613.28
645.124	61370.8
645.477	61338.03
645.83	61294.19
646.182	61282.44
646.535	61178.26
646.888	61272.95
647.24	61212.61
647.593	61344.81
647.945	61187.08
648.298	61121.54
648.65	61034.54
649.002	60886.97
649.355	60940.08
649.707	60807.65
650.059	60896.01
650.411	61135.1
650.763	61279.73
651.115	61586.39
651.467	61479.95
651.819	61508.88
652.171	61433.17
652.523	61377.81
652.875	61343.68
653.227	61314.08
653.578	61505.04
653.93	61355.66
654.282	61235.89
654.633	61213.97
654.985	61280.18
655.337	61287.87
655.688	61200.41
656.039	61359.28
656.391	61147.76
656.742	61169.68
657.094	61164.03
657.445	61135.33
657.796	61180.52
658.147	61122.45
658.498	61126.06
658.849	61183.46
659.2	61113.63
659.551	61039.51
659.902	61166.06
660.253	60984.37
660.604	61095.33
660.955	60967.87
661.306	61080.41
661.656	61013.97
662.007	61003.35
662.358	60985.27
662.708	60970.81
663.059	60913.86
663.409	60850.14
663.76	60982.11
664.11	61012.84
664.461	60992.51
664.811	60990.25
665.161	60962.45
665.511	60919.29
665.862	60936.46
666.212	60932.17
666.562	60950.25
666.912	60924.03
667.262	60802
667.612	60820.99
667.962	60846.52
668.312	60774.43
668.662	60959.29
669.011	60862.57
669.361	60811.72
669.711	60872.51
670.06	60768.56
670.41	60813.75
670.76	60761.1
671.109	60838.84
671.459	60799.52
671.808	60706.86
672.157	60781.89
672.507	60649.92
672.856	60648.79
673.205	60713.19
673.554	60730.37
673.904	60661.67
674.253	60887.42
674.602	60718.39
674.951	60415.35
675.3	60240.89
675.649	60717.03
675.998	60683.36
676.346	60611.5
676.695	60707.99
677.044	60593.65
677.393	60663.93
677.741	60641.33
678.09	60566.98
678.438	60507.32
678.787	60580.09
679.135	60633.87
679.484	60520.65
679.832	60501.22
680.181	60454.22
680.529	60475.23
680.877	60416.25
681.225	60357.49
681.573	60516.36
681.922	60378.96
682.27	60302.58
682.618	60332.18
682.966	60364.05
683.314	60313.2
683.661	60304.61
684.009	60199.76
684.357	60104.85
684.705	60132.64
685.053	60173.09
685.4	60051.29
685.748	60115.24
686.095	60016.03
686.443	59964.96
686.79	59893.33
687.138	59956.83
687.485	59893.55
687.832	59823.95
688.18	59883.61
688.527	59762.71
688.874	59741.01
689.221	59745.99
689.568	59640
689.915	59573.11
690.262	59628.25
690.609	59589.15
690.956	59428.03
691.303	59486.56
691.65	59400.46
691.997	59357.3
692.344	59250.41
692.69	59245.66
693.037	59212.44
693.383	59060.58
693.73	59164.98
694.077	58969.06
694.423	58998.89
694.769	58905.78
695.116	58854.26
695.462	58773.58
695.808	58718.22
696.155	58789.4
696.501	58575.17
696.847	58623.53
697.193	58476.64
697.539	58583.76
697.885	58364.55
698.231	58304.44
698.577	58269.87
698.923	58270.09
699.269	58080.27
699.614	58035.07
699.96	57924.34
700.306	57893.6
700.651	57849.76
700.997	57833.72
701.342	57789.65
701.688	57669.88
702.033	57615.65
702.379	57650.45
702.724	57492.94
703.069	57522.09
703.415	57179.73
703.76	57259.95
704.105	57271.02
704.45	57121.2
704.795	57146.28
705.14	57013.4
705.485	57013.4
705.83	56836.68
706.175	56864.03
706.52	56842.11
706.865	56732.28
707.209	56643.47
707.554	56650.93
707.899	56629.23
708.243	56494.55
708.588	56520.99
708.932	56348.56
709.277	56368.9
709.621	56202.35
709.966	56119.87
710.31	56159.87
710.654	55975.24
710.998	55976.82
711.342	56054.11
711.687	55909.48
712.031	55877.39
712.375	55707
712.719	55704.06
713.063	55655.02
713.407	55783.6
713.75	55562.37
714.094	55618.64
714.438	55406.21
714.782	55498.41
715.125	55351.07
715.469	55378.64
715.812	55230.17
716.156	55213.45
716.499	55141.36
716.843	55195.14
717.186	55047.8
717.53	55135.03
717.873	55111.31
718.216	54994.25
718.559	54857.3
718.902	54656.4
719.246	54817.98
719.589	54651.88
719.932	54585.44
720.275	54631.32
720.617	54578.66
720.96	54450.08
721.303	54531.89
721.646	54478.55
721.989	54286.69
722.331	54433.81
722.674	54265.9
723.016	54198.11
723.359	54147.71
723.701	54175.74
724.044	54058
724.386	53873.37
724.729	54025.68
725.071	53933.71
725.413	53991.79
725.755	53936.19
726.097	53724.67
726.439	53673.6
726.782	53613.27
727.124	53842.64
727.465	53633.6
727.807	53545.47
728.149	53642.19
728.491	53529.43
728.833	53526.49
729.175	53407.85
729.516	53311.13
729.858	53342.09
730.199	53433.61
730.541	53296.44
730.882	53200.17
731.224	53340.5
731.565	53173.05
731.906	53131.92
732.248	53230.45
732.589	52986.84
732.93	52903.23
733.271	52954.3
733.612	52836.56
733.953	52965.6
734.294	52848.77
734.635	52680.41
734.976	52915.66
735.317	52659.17
735.658	52684.25
735.999	52605.16
736.339	52580.07
736.68	52621.43
737.021	52580.52
737.361	52451.71
737.702	52624.82
738.042	52469.57
738.383	52467.08
738.723	52462.56
739.063	52328.33
739.404	52364.03
739.744	52272.96
740.084	52152.96
740.424	52320.64
740.764	52209.46
741.104	52335.78
741.444	52068
741.784	51976.92
742.124	52053.31
742.464	52111.16
742.804	51976.47
743.143	51860.32
743.483	51919.3
743.823	51828
744.162	51715.46
744.502	51780.32
744.841	51602.92
745.181	51765.4
745.52	51514.56
745.86	51619.19
746.199	51589.36
746.538	51405.64
746.877	51560.44
747.216	51411.06
747.556	51342.59
747.895	51444.28
748.234	51308.47
748.573	51123.16
748.911	51117.51
749.25	51120
749.589	51047.01
749.928	51030.96
750.267	51039.32
750.605	50918.2
750.944	50936.5
751.283	50764.75
751.621	50865.99
751.96	50673.91
752.298	50550.3
752.636	50678.88
752.975	50566.11
753.313	50338.32
753.651	50527.92
753.989	50377.64
754.327	50390.75
754.666	50122.96
755.004	50204.32
755.342	50199.12
