Data from 166_FLMS001491_007.txt Node
Date: Thu Apr 19 16:18:28 BST 2018
User: hsy
Spectrometer: FLMS00149
Trigger mode: 0
Integration Time (sec): 1.000000E-2
Scans to average: 10
Electric dark correction enabled: true
Nonlinearity correction enabled: false
Boxcar width: 0
XAxis mode: Wavelengths
Number of Pixels in Spectrum: 2048
>>>>>Begin Spectral Data<<<<<
341.393	-7.42
341.776	-7.42
342.16	-7.42
342.543	-71.14
342.927	-64.14
343.31	-69.33
343.693	-60.97
344.077	-76.57
344.46	-58.94
344.843	-64.81
345.226	-41.99
345.61	-29.34
345.993	-13.97
346.376	-6.51
346.759	20.61
347.142	2.98
347.525	39.59
347.908	59.7
348.291	80.27
348.674	92.24
349.057	127.04
349.44	132.69
349.823	144.67
350.206	176.99
350.588	234.61
350.971	225.35
351.354	268.28
351.737	259.24
352.119	301.05
352.502	298.34
352.884	329.3
353.267	346.25
353.65	329.98
354.032	357.1
354.414	350.77
354.797	340.37
355.179	368.39
355.562	354.38
355.944	377.66
356.326	399.13
356.709	385.34
357.091	376.98
357.473	385.34
357.855	405.23
358.238	385.34
358.62	390.54
359.002	383.76
359.384	389.64
359.766	405.23
360.148	399.58
360.53	397.32
360.912	388.28
361.294	396.64
361.676	388.96
362.057	382.18
362.439	381.5
362.821	381.73
363.203	391.22
363.584	393.03
363.966	383.08
364.348	374.72
364.729	393.48
365.111	373.37
365.493	391.9
365.874	394.61
366.256	374.5
366.637	405.91
367.019	395.06
367.4	381.05
367.781	383.31
368.163	387.83
368.544	381.73
368.925	354.61
369.306	369.75
369.688	365.23
370.069	393.25
370.45	372.01
370.831	398.68
371.212	402.07
371.593	389.86
371.974	359.81
372.355	375.4
372.736	398.22
373.117	391.22
373.498	380.6
373.879	394.38
374.26	372.01
374.641	384.67
375.021	377.66
375.402	398
375.783	423.08
376.163	409.75
376.544	426.47
376.925	396.87
377.305	395.06
377.686	397.09
378.066	421.27
378.447	414.04
378.827	407.49
379.208	407.94
379.588	416.3
379.968	427.15
380.349	422.86
380.729	413.36
381.109	434.38
381.489	428.96
381.87	431.67
382.25	421.27
382.63	446.13
383.01	420.14
383.39	431.44
383.77	441.61
384.15	460.82
384.53	437.77
384.91	429.18
385.29	437.77
385.67	454.72
386.049	434.16
386.429	427.83
386.809	481.16
387.189	494.72
387.568	453.36
387.948	463.08
388.328	493.59
388.707	456.75
389.087	467.83
389.466	478.45
389.846	473.25
390.225	484.1
390.605	506.02
390.984	491.1
391.363	518.9
391.743	480.48
392.122	499.69
392.501	487.94
392.881	499.24
393.26	513.02
393.639	513.7
394.018	509.86
394.397	527.71
394.776	539.46
395.155	516.19
395.534	501.05
395.913	560.48
396.292	527.71
396.671	522.06
397.05	555.06
397.429	542.85
397.808	572.23
398.186	527.94
398.565	569.29
398.944	562.51
399.323	548.73
399.701	581.5
400.08	581.72
400.458	576.98
400.837	572.68
401.215	565
401.594	577.65
401.972	591.89
402.351	593.02
402.729	615.17
403.107	581.5
403.486	575.62
403.864	609.97
404.242	598.9
404.62	627.82
404.999	624.21
405.377	620.37
405.755	615.17
406.133	635.28
406.511	627.6
406.889	655.39
407.267	632.34
407.645	632.12
408.023	642.06
408.401	659.46
408.779	646.35
409.156	677.09
409.534	684.54
409.912	702.85
410.29	701.49
410.667	721.15
411.045	699.46
411.422	721.15
411.8	706.01
412.178	710.98
412.555	745.79
412.933	776.97
413.31	753.47
413.687	751.66
414.065	756.86
414.442	767.03
414.819	769.06
415.197	774.49
415.574	791.43
415.951	798.89
416.328	798.21
416.705	778.1
417.082	810.87
417.46	819.91
417.837	833.92
418.214	849.96
418.591	824.2
418.967	827.82
419.344	852.45
419.721	869.17
420.098	859.23
420.475	873.24
420.852	861.04
421.228	860.81
421.605	893.35
421.982	868.95
422.358	894.03
422.735	882.96
423.111	904.43
423.488	936.29
423.864	942.16
424.241	910.98
424.617	954.59
424.994	932
425.37	943.75
425.746	939
426.123	977.19
426.499	967.25
426.875	978.1
427.251	1002.05
427.627	990.75
428.003	1014.7
428.379	1020.58
428.756	1023.07
429.132	1019
429.507	1065.33
429.883	1046.79
430.259	1048.15
430.635	1093.8
431.011	1082.73
431.387	1118.21
431.763	1106.45
432.138	1116.62
432.514	1143.06
432.89	1162.05
433.265	1172.89
433.641	1171.54
434.016	1196.4
434.392	1205.21
434.767	1223.74
435.143	1222.16
435.518	1244.53
435.894	1252.21
436.269	1266.68
436.644	1282.04
437.02	1271.42
437.395	1323.85
437.77	1308.26
438.145	1317.52
438.52	1305.77
438.895	1328.6
439.271	1366.79
439.646	1387.8
440.021	1348.48
440.395	1393.68
440.77	1375.6
441.145	1381.93
441.52	1424.64
441.895	1426.22
442.27	1468.25
442.645	1398.42
443.019	1450.4
443.394	1453.34
443.769	1441.59
444.143	1445.65
444.518	1465.77
444.892	1451.08
445.267	1469.83
445.641	1499.21
446.016	1498.99
446.39	1496.73
446.764	1487.69
447.139	1491.3
447.513	1498.53
447.887	1540.79
448.262	1531.98
448.636	1517.29
449.01	1568.14
449.384	1571.3
449.758	1577.4
450.132	1628.25
450.506	1616.05
450.88	1632.77
451.254	1612.2
451.628	1646.33
452.002	1647.91
452.376	1669.15
452.75	1703.95
453.123	1726.32
453.497	1765.42
453.871	1748.47
454.244	1801.35
454.618	1801.12
454.992	1798.41
455.365	1826.66
455.739	1832.99
456.112	1857.17
456.486	1894
456.859	1913.66
457.232	1955.25
457.606	1942.36
457.979	1974.91
458.352	2004.28
458.725	2033.21
459.099	2028.01
459.472	2068.24
459.845	2093.77
460.218	2113.89
460.591	2129.93
460.964	2148.23
461.337	2163.15
461.71	2227.55
462.083	2260.32
462.456	2233.88
462.829	2246.09
463.201	2261.68
463.574	2303.48
463.947	2365.18
464.32	2410.6
464.692	2381.22
465.065	2386.87
465.438	2413.31
465.81	2472.07
466.183	2424.39
466.555	2495.34
466.928	2534.44
467.3	2545.96
467.672	2563.59
468.045	2629.35
468.417	2636.58
468.789	2624.15
469.161	2689.24
469.534	2756.81
469.906	2778.95
470.278	2807.43
470.65	2788.22
471.022	2850.81
471.394	2914.54
471.766	2922.23
472.138	2984.82
472.51	2986.18
472.882	3062.33
473.253	3074.54
473.625	3100.3
473.997	3202.9
474.369	3205.16
474.74	3222.1
475.112	3254.87
475.484	3346.62
475.855	3414.87
476.227	3462.78
476.598	3495.54
476.97	3538.25
477.341	3623.9
477.713	3718.14
478.084	3699.38
478.455	3776.67
478.827	3816.44
479.198	3908.87
479.569	3946.38
479.94	4048.75
480.311	4112.02
480.682	4179.37
481.053	4261.4
481.424	4329.87
481.795	4317.67
482.166	4483.31
482.537	4513.6
482.908	4625.46
483.279	4673.14
483.65	4737.32
484.021	4814.83
484.391	4921.27
484.762	4940.48
485.133	4993.58
485.503	5123.52
485.874	5229.74
486.244	5244.2
486.615	5395.83
486.985	5438.09
487.356	5566
487.726	5547.02
488.097	5761.92
488.467	5854.35
488.837	5945.65
489.207	6012.09
489.578	6153.78
489.948	6149.26
490.318	6263.61
490.688	6305.87
491.058	6436.71
491.428	6514.9
491.798	6640.09
492.168	6719.19
492.538	6858.85
492.908	6881.22
493.278	7067.43
493.648	7061.55
494.017	7191.04
494.387	7258.61
494.757	7367.53
495.126	7425.61
495.496	7497.02
495.866	7563.23
496.235	7693.4
496.605	7789.44
496.974	7863.11
497.344	8007.06
497.713	8071.24
498.082	8050.9
498.452	8243.89
498.821	8295.42
499.19	8386.94
499.559	8435.75
499.928	8530.44
500.298	8640.95
500.667	8711.9
501.036	8710.77
501.405	8857.66
501.774	8937.21
502.143	9052.46
502.512	9094.72
502.88	9219.01
503.249	9226.69
503.618	9289.74
503.987	9366.35
504.356	9471.88
504.724	9595.04
505.093	9562.28
505.462	9700.8
505.83	9740.8
506.199	9818.54
506.567	9887.92
506.936	9888.37
507.304	10085.65
507.672	10192.32
508.041	10160.91
508.409	10331.75
508.777	10437.96
509.145	10461.46
509.514	10523.16
509.882	10669.59
510.25	10651.74
510.618	10758.18
510.986	10785.75
511.354	10924.95
511.722	11033.42
512.09	11097.83
512.458	11162.69
512.826	11241.78
513.193	11304.6
513.561	11314.1
513.929	11442.45
514.297	11560.64
514.664	11676.8
515.032	11682.45
515.4	11804.7
515.767	11803.12
516.135	11950.24
516.502	11911.59
516.869	12091.48
517.237	12205.6
517.604	12119.95
517.972	12355.88
518.339	12436.55
518.706	12477.23
519.073	12547.28
519.44	12575.53
519.808	12768.29
520.175	12763.55
520.542	12922.87
520.909	13075.63
521.276	13076.31
521.643	13261.84
522.009	13330.54
522.376	13445.56
522.743	13558.56
523.11	13687.59
523.477	13896.85
523.843	13947.7
524.21	14054.36
524.577	14122.61
524.943	14205.09
525.31	14333.9
525.676	14478.08
526.043	14549.49
526.409	14712.2
526.776	14864.28
527.142	14991.29
527.508	14997.61
527.874	15206.65
528.241	15240.77
528.607	15302.24
528.973	15411.39
529.339	15477.83
529.705	15749.91
530.071	15885.05
530.437	15869.23
530.803	16062.9
531.169	16068.55
531.535	16167.3
531.901	16338.82
532.267	16465.6
532.632	16581.3
532.998	16597.57
533.364	16704.24
533.73	16741.75
534.095	16946.26
534.461	16986.94
534.826	17032.81
535.192	17223.09
535.557	17234.84
535.923	17285.92
536.288	17419.47
536.653	17526.59
537.019	17495.4
537.384	17602.29
537.749	17626.7
538.114	17717.32
538.479	17748.05
538.845	17785.79
539.21	17914.37
539.575	18020.81
539.94	18014.48
540.305	18222.84
540.67	18228.49
541.034	18302.39
541.399	18308.94
541.764	18442.72
542.129	18504.41
542.494	18538.31
542.858	18703.05
543.223	18595.71
543.587	18716.84
543.952	18734.24
544.316	18901.24
544.681	18852.43
545.045	18982.14
545.41	19069.82
545.774	18934.23
546.138	19139.65
546.503	19225.3
546.867	19295.13
547.231	19250.38
547.595	19491.06
547.959	19497.61
548.324	19541.22
548.688	19509.13
549.052	19526.53
549.416	19568.34
549.779	19699.64
550.143	19764.72
550.507	19918.61
550.871	19926.98
551.235	19924.72
551.599	20220.75
551.962	20238.38
552.326	20185.5
552.689	20232.5
553.053	20335.78
553.417	20355.89
553.78	20539.84
554.143	20562.67
554.507	20626.17
554.87	20801.76
555.234	20929.89
555.597	20759.5
555.96	20967.85
556.323	21053.05
556.686	21032.03
557.05	21136.44
557.413	21177.56
557.776	21340.5
558.139	21431.57
558.502	21573.03
558.865	21523.32
559.228	21688.74
559.59	21843.99
559.953	21834.27
560.316	22026.36
560.679	22152.91
561.041	22314.48
561.404	22457.98
561.767	22528.04
562.129	22484.2
562.492	22822.27
562.854	22850.97
563.217	22765.09
563.579	22935.71
563.941	23103.16
564.304	23182.26
564.666	23441.01
565.028	23495.24
565.39	23556.49
565.753	23759.87
566.115	23816.59
566.477	23848.68
566.839	24096.13
567.201	24265.39
567.563	24243.92
567.925	24390.59
568.287	24551.94
568.648	24767.75
569.01	24904.25
569.372	25070.8
569.734	25000.74
570.095	25199.83
570.457	25322.54
570.819	25414.97
571.18	25419.94
571.542	25708.07
571.903	25751.91
572.265	25863.09
572.626	26010.43
572.987	26106.47
573.349	26369.74
573.71	26417.88
574.071	26659.91
574.432	26802.95
574.794	26943.29
575.155	27050.86
575.516	27103.51
575.877	27371.53
576.238	27452.2
576.599	27596.83
576.96	27691.97
577.32	27739.65
577.681	27865.98
578.042	28092.19
578.403	28135.57
578.763	28257.83
579.124	28452.4
579.485	28670.25
579.845	28683.58
580.206	28810.13
580.566	29084.7
580.927	29241.76
581.287	29389.78
581.648	29556.78
582.008	29822.99
582.368	29871.35
582.728	30123.09
583.089	30359.7
583.449	30524.21
583.809	30585.9
584.169	30885.33
584.529	31039.23
584.889	31413.68
585.249	31476.05
585.609	31671.07
585.969	32214.34
586.329	32269.25
586.688	32762.34
587.048	32953.98
587.408	33216.12
587.768	33475.09
588.127	33898.81
588.487	34086.15
588.846	34802.97
589.206	34633.26
589.565	35080.7
589.925	35664.87
590.284	36038.87
590.643	36415.13
591.003	36833.42
591.362	37306.63
591.721	37723.57
592.08	37935.99
592.44	38600.61
592.799	38865.46
593.158	39258.9
593.517	39676.97
593.876	40220
594.235	40606.66
594.593	41015.01
594.952	41556.92
595.311	41865.83
595.67	42411.36
596.029	42957.56
596.387	43573.81
596.746	44057.42
597.104	44298.76
597.463	44485.2
597.822	45385.74
598.18	45567.88
598.538	45950.47
598.897	46536.22
599.255	46723.56
599.613	47450.32
599.972	47576.19
600.33	48056.41
600.688	48257.76
601.046	48752.43
601.404	49485.29
601.762	49706.08
602.12	50188.78
602.478	50455.66
602.836	50785.83
603.194	50858.59
603.552	51299.94
603.91	51556.88
604.268	51885.01
604.625	52106.02
604.983	52514.37
605.341	52537.87
605.698	53098.99
606.056	53426.66
606.413	53498.97
606.771	53905.97
607.128	54061.67
607.485	54296.02
607.843	54407.43
608.2	54837.24
608.557	55072.04
608.914	55174.64
609.272	55435.42
609.629	55801.96
609.986	55984.33
610.343	56138.45
610.7	56563.75
611.057	56568.27
611.414	56619.8
611.771	56930.3
612.127	57092.55
612.484	57275.82
612.841	57460.68
613.198	57608.92
613.554	57663.38
613.911	58008.46
614.267	58134.56
614.624	58132.75
614.98	58375.68
615.337	58614.55
615.693	58740.64
616.05	58859.29
616.406	58943.8
616.762	59013.63
617.118	59129.34
617.475	59205.04
617.831	59412.27
618.187	59507.18
618.543	59617.46
618.899	59848.19
619.255	59807.51
619.611	59929.99
619.967	60022.19
620.323	60180.61
620.678	60121.4
621.034	60221.74
621.39	60196.43
621.746	60327.27
622.101	60626.47
622.457	60511.45
622.812	60616.3
623.168	60716.86
623.523	60729.52
623.879	60886.8
624.234	60775.85
624.589	60968.61
624.945	60971.55
625.3	61038.21
625.655	61082.05
626.01	61054.03
626.365	61166.8
626.72	61164.54
627.075	61144.2
627.43	61279.34
627.785	61266.91
628.14	61331.76
628.495	61380.12
628.85	61379.67
629.205	61291.76
629.559	61495.37
629.914	61388.71
630.269	61381.25
630.623	61309.62
630.978	61300.8
631.332	61497.18
631.687	61509.84
632.041	61476.39
632.396	61500.57
632.75	61508.03
633.104	61517.97
633.459	61409.73
633.813	61437.97
634.167	61469.61
634.521	61449.73
634.875	61461.48
635.229	61462.16
635.583	61347.13
635.937	61375.38
636.291	61401.59
636.645	61342.61
636.999	61314.14
637.352	61417.86
637.706	61260.58
638.06	61374.02
638.413	61269.62
638.767	61210.64
639.121	61301.03
639.474	61209.96
639.828	61185.78
640.181	61226
640.534	61227.59
640.888	61146.68
641.241	61078.89
641.594	61122.73
641.947	61114.59
642.301	61053.8
642.654	61148.04
643.007	61027.14
643.36	61125.44
643.713	61079.57
644.066	61113.69
644.419	60988.5
644.771	60710.31
645.124	60585.79
645.477	60488.4
645.83	60454.5
646.182	60400.04
646.535	60360.94
646.888	60414.27
647.24	60348.06
647.593	60388.74
647.945	60347.61
648.298	60344.44
648.65	60148.97
649.002	60078.46
649.355	60056.54
649.707	60010.44
650.059	60028.29
650.411	60322.75
650.763	60393.93
651.115	60681.84
651.467	60595.06
651.819	60623.08
652.171	60625.11
652.523	60457.44
652.875	60560.03
653.227	60413.37
653.578	60659.46
653.93	60521.61
654.282	60450.66
654.633	60373.37
654.985	60440.71
655.337	60437.78
655.688	60421.05
656.039	60507.6
656.391	60224.9
656.742	60259.7
657.094	60279.36
657.445	60316.65
657.796	60336.76
658.147	60233.71
658.498	60300.83
658.849	60343.54
659.2	60223.54
659.551	60171.34
659.902	60315.74
660.253	60157.1
660.604	60249.76
660.955	60083.43
661.306	60244.11
661.656	60172.25
662.007	60187.84
662.358	60131.57
662.708	60133.38
663.059	60094.73
663.409	60039.59
663.76	60079.59
664.11	60085.47
664.461	60124.79
664.811	60113.94
665.161	60081.85
665.511	60069.42
665.862	59986.94
666.212	60057.9
666.562	60046.6
666.912	59982.19
667.262	59968.18
667.612	59958.69
667.962	60023.1
668.312	59934.29
668.662	60023.55
669.011	59993.95
669.361	59912.59
669.711	59996.43
670.06	59966.6
670.41	59899.71
670.76	59809.32
671.109	59879.15
671.459	59851.35
671.808	59917.11
672.157	59932.93
672.507	59751.01
672.856	59785.36
673.205	59804.12
673.554	59891.12
673.904	59768.19
674.253	59923.89
674.602	59807.28
674.951	59543.34
675.3	59422.66
675.649	59790.11
675.998	59740.62
676.346	59805.48
676.695	59857.45
677.044	59725.7
677.393	59764.12
677.741	59759.38
678.09	59692.94
678.438	59665.59
678.787	59720.51
679.135	59702.65
679.484	59555.99
679.832	59679.6
680.181	59586.95
680.529	59592.15
680.877	59496.11
681.225	59454.52
681.573	59697.68
681.922	59484.81
682.27	59449.78
682.618	59438.03
682.966	59389.44
683.314	59437.8
683.661	59362.1
684.009	59252.95
684.357	59329.78
684.705	59184.25
685.053	59242.78
685.4	59146.28
685.748	59144.7
686.095	59109.22
686.443	59046.85
686.79	58996.46
687.138	59045.72
687.485	59019.06
687.832	58927.53
688.18	58932.5
688.527	58844.82
688.874	58856.12
689.221	58854.99
689.568	58778.38
689.915	58638.05
690.262	58757.37
690.609	58665.84
690.956	58666.97
691.303	58521.22
691.65	58465.62
691.997	58462.46
692.344	58304.5
692.69	58253.88
693.037	58324.16
693.383	58173.88
693.73	58246.65
694.077	58082.36
694.423	58042.58
694.769	57987.22
695.116	58078.52
695.462	57896.37
695.808	57806.43
696.155	57847.56
696.501	57724.4
696.847	57735.02
697.193	57558.53
697.539	57599.43
697.885	57376.84
698.231	57358.76
698.577	57376.39
698.923	57349.49
699.269	57188.82
699.614	57079.22
699.96	57053.46
700.306	57076.06
700.651	56890.98
700.997	56862.05
701.342	56768.95
701.688	56790.19
702.033	56640.81
702.379	56716.52
702.724	56580.7
703.069	56568.5
703.415	56339.13
703.76	56369.41
704.105	56416.64
704.45	56212.12
704.795	56206.93
705.14	56024.33
705.485	56056.42
705.83	55901.17
706.175	56003.99
706.52	55940.72
706.865	55812.59
707.209	55759.93
707.554	55679.26
707.899	55662.76
708.243	55506.38
708.588	55565.59
708.932	55417.79
709.277	55413.05
709.621	55373.5
709.966	55108.88
710.31	55181.87
710.654	54967.86
710.998	55067.3
711.342	55069.78
711.687	54887.86
712.031	54849
712.375	54682.45
712.719	54643.35
713.063	54620.53
713.407	54845.61
713.75	54620.75
714.094	54553.86
714.438	54461.66
714.782	54449.01
715.125	54350.25
715.469	54421.66
715.812	54208.56
716.156	54118.85
716.499	54145.74
716.843	54117.04
717.186	53926.08
717.53	54074.1
717.873	54098.51
718.216	53956.59
718.559	53857.84
718.902	53713.66
719.246	53710.04
719.589	53692.87
719.932	53399.09
720.275	53514.79
720.617	53522.25
720.96	53330.39
721.303	53470.5
721.646	53454.91
721.989	53273.22
722.331	53369.71
722.674	53187.8
723.016	53189.6
723.359	52976.05
723.701	53168.59
724.044	53021.93
724.386	52875.94
724.729	52990.74
725.071	52956.84
725.413	52803.85
725.755	52781.48
726.097	52724.53
726.439	52593.46
726.782	52524.76
727.124	52651.09
727.465	52482.05
727.807	52388.95
728.149	52374.71
728.491	52364.09
728.833	52410.19
729.175	52346.46
729.516	52215.17
729.858	52099.69
730.199	52256.07
730.541	52262.85
730.882	52124.55
731.224	52133.36
731.565	52070.76
731.906	52016.3
732.248	52069.63
732.589	51858.79
732.93	51774.95
733.271	51842.07
733.612	51781.05
733.953	51875.74
734.294	51721.39
734.635	51639.36
734.976	51787.61
735.317	51475.3
735.658	51491.57
735.999	51444.34
736.339	51414.06
736.68	51429.2
737.021	51393.04
737.361	51168.64
737.702	51450.21
738.042	51243.44
738.383	51199.83
738.723	51355.08
739.063	51004.13
739.404	51233.95
739.744	51067.4
740.084	51064.24
740.424	51067.85
740.764	50976.78
741.104	51119.83
741.444	50795.32
741.784	50732.04
742.124	50839.38
742.464	50727.97
742.804	50642.78
743.143	50585.6
743.483	50710.57
743.823	50561.42
744.162	50566.62
744.502	50564.14
744.841	50436.91
745.181	50518.49
745.52	50303.58
745.86	50320.3
746.199	50283.92
746.538	50268.1
746.877	50371.15
747.216	50217.93
747.556	50079.86
747.895	50099.52
748.234	50036.24
748.573	50019.74
748.911	49823.59
749.25	49829.69
749.589	49693.2
749.928	49774.78
750.267	49788.11
750.605	49649.81
750.944	49595.57
751.283	49461.57
751.621	49656.36
751.96	49448.46
752.298	49422.02
752.636	49330.72
752.975	49315.36
753.313	49135.25
753.651	49303.38
753.989	49083.5
754.327	49045.98
754.666	48728.03
755.004	48905.42
755.342	48804.41
755.679	48899.77
