Data from 166_FLMS001491_008.txt Node
Date: Thu Apr 19 16:18:32 BST 2018
User: hsy
Spectrometer: FLMS00149
Trigger mode: 0
Integration Time (sec): 1.000000E-2
Scans to average: 10
Electric dark correction enabled: true
Nonlinearity correction enabled: false
Boxcar width: 0
XAxis mode: Wavelengths
Number of Pixels in Spectrum: 2048
>>>>>Begin Spectral Data<<<<<
341.393	-28.45
341.776	-28.45
342.16	-28.45
342.543	-71.61
342.927	-75.45
343.31	-80.87
343.693	-86.3
344.077	-77.94
344.46	-73.42
344.843	-47.65
345.226	-48.56
345.61	-35.68
345.993	-13.98
346.376	-4.27
346.759	21.04
347.142	36.86
347.525	48.39
347.908	64.89
348.291	78.22
348.674	99.23
349.057	120.03
349.44	149.63
349.823	146.92
350.206	176.97
350.588	234.82
350.971	239.8
351.354	262.39
351.737	275.95
352.119	283.18
352.502	319.79
352.884	304.43
353.267	304.43
353.65	353.01
354.032	341.04
354.414	351.88
354.797	346.23
355.179	355.5
355.562	362.28
355.944	372.22
356.326	383.75
356.709	378.1
357.091	391.2
357.473	380.58
357.855	382.39
358.238	378.1
358.62	419
359.002	389.85
359.384	396.63
359.766	395.05
360.148	380.58
360.53	382.39
360.912	379.68
361.294	384.2
361.676	396.85
362.057	371.77
362.439	376.52
362.821	386.91
363.203	382.39
363.584	379.23
363.966	373.35
364.348	384.88
364.729	383.07
365.111	375.16
365.493	363.86
365.874	402.73
366.256	384.88
366.637	381.94
367.019	372.9
367.4	379.45
367.781	375.61
368.163	380.58
368.544	380.36
368.925	390.75
369.306	380.13
369.688	372.45
370.069	369.28
370.45	381.26
370.831	396.85
371.212	383.3
371.593	390.75
371.974	395.95
372.355	361.15
372.736	399.79
373.117	380.36
373.498	412.22
373.879	375.39
374.26	355.95
374.641	388.94
375.021	394.59
375.402	416.74
375.783	404.99
376.163	406.35
376.544	409.51
376.925	405.44
377.305	393.92
377.686	435.27
378.066	386.68
378.447	421.49
378.827	401.15
379.208	413.58
379.588	407.25
379.968	423.52
380.349	420.36
380.729	412.22
381.109	420.36
381.489	407.02
381.87	409.96
382.25	443.86
382.63	435.27
383.01	448.6
383.39	455.38
383.77	443.18
384.15	454.48
384.53	441.6
384.91	434.37
385.29	461.94
385.67	467.59
386.049	469.17
386.429	455.38
386.809	466.46
387.189	477.08
387.568	451.32
387.948	481.15
388.328	477.53
388.707	481.37
389.087	482.28
389.466	480.47
389.846	493.35
390.225	489.51
390.605	499.45
390.984	488.83
391.363	504.2
391.743	519.56
392.122	479.34
392.501	520.69
392.881	504.65
393.26	502.84
393.639	526.34
394.018	515.04
394.397	517.53
394.776	516.4
395.155	548.94
395.534	557.53
395.913	559.11
396.292	540.35
396.671	551.43
397.05	550.3
397.429	543.52
397.808	539.9
398.186	556.62
398.565	549.17
398.944	547.36
399.323	554.14
399.701	568.83
400.08	575.61
400.458	578.54
400.837	578.32
401.215	581.26
401.594	574.02
401.972	608.15
402.351	612.89
402.729	623.97
403.107	608.83
403.486	601.59
403.864	630.29
404.242	622.16
404.62	618.77
404.999	631.65
405.377	630.75
405.755	651.31
406.133	640.24
406.511	637.75
406.889	666
407.267	669.62
407.645	652.89
408.023	667.81
408.401	664.19
408.779	675.72
409.156	676.62
409.534	699.44
409.912	686.56
410.29	703.29
410.667	736.28
411.045	739.22
411.422	732.89
411.8	739.9
412.178	755.26
412.555	755.49
412.933	764.3
413.31	750.29
413.687	760.69
414.065	800.91
414.442	816.28
414.819	783.06
415.197	788.93
415.574	834.36
415.951	848.14
416.328	845.2
416.705	827.58
417.082	849.5
417.46	833.23
417.837	847.92
418.214	863.73
418.591	837.52
418.967	871.19
419.344	884.75
419.721	872.55
420.098	884.52
420.475	893.79
420.852	892.21
421.228	897.63
421.605	896.28
421.982	895.15
422.358	929.27
422.735	930.63
423.111	951.19
423.488	948.03
423.864	931.08
424.241	942.38
424.617	965.2
424.994	967.23
425.37	973.56
425.746	975.14
426.123	987.12
426.499	994.58
426.875	1033.45
427.251	1036.61
427.627	1048.36
428.003	1052.88
428.379	1051.07
428.756	1072.99
429.132	1080.9
429.507	1074.8
429.883	1093.11
430.259	1123.84
430.635	1140.34
431.011	1131.75
431.387	1140.34
431.763	1180.34
432.138	1169.72
432.514	1166.78
432.89	1232.09
433.265	1223.05
433.641	1216.27
434.016	1251.97
434.392	1250.62
434.767	1293.78
435.143	1269.15
435.518	1310.5
435.894	1295.81
436.269	1325.64
436.644	1337.39
437.02	1329.94
437.395	1362.25
437.77	1341.24
438.145	1398.64
438.52	1396.6
438.895	1409.26
439.271	1396.38
439.646	1425.75
440.021	1429.82
440.395	1453.55
440.77	1424.4
441.145	1453.78
441.52	1464.85
441.895	1479.54
442.27	1526.77
442.645	1485.64
443.019	1498.52
443.394	1493.32
443.769	1512.53
444.143	1527.9
444.518	1528.58
444.892	1529.25
445.267	1558.63
445.641	1559.76
446.016	1581.23
446.39	1577.39
446.764	1574.22
447.139	1595.24
447.513	1613.55
447.887	1595.24
448.262	1628.69
448.636	1647.67
449.01	1675.01
449.384	1682.7
449.758	1677.72
450.132	1679.98
450.506	1701.9
450.88	1690.83
451.254	1683.15
451.628	1756.82
452.002	1725.86
452.376	1756.37
452.75	1792.07
453.123	1805.63
453.497	1808.79
453.871	1857.15
454.244	1877.94
454.618	1889.92
454.992	1917.27
455.365	1883.37
455.739	1941.22
456.112	1986.19
456.486	1999.52
456.859	2005.63
457.232	2033.65
457.606	2065.28
457.979	2089.69
458.352	2111.16
458.725	2107.32
459.099	2154.1
459.472	2181.21
459.845	2225.28
460.218	2234.32
460.591	2261.66
460.964	2227.77
461.337	2318.39
461.71	2359.74
462.083	2358.84
462.456	2379.63
462.829	2419.17
463.201	2454.2
463.574	2417.59
463.947	2468.44
464.32	2489.23
464.692	2504.37
465.065	2530.36
465.438	2591.15
465.81	2597.25
466.183	2663.91
466.555	2665.95
466.928	2690.58
467.3	2677.25
467.672	2699.17
468.045	2780.52
468.417	2835.89
468.789	2851.93
469.161	2837.69
469.534	2851.93
469.906	2971.25
470.278	2971.25
470.65	2990.91
471.022	3049.67
471.394	3020.51
471.766	3145.26
472.138	3149.78
472.51	3235.42
472.882	3223.45
473.253	3262.32
473.625	3332.6
473.997	3407.17
474.369	3407.17
474.74	3455.98
475.112	3522.87
475.484	3528.75
475.855	3622.31
476.227	3641.06
476.598	3757.22
476.97	3794.73
477.341	3850.1
477.713	3921.51
478.084	3956.99
478.455	4037.66
478.827	4119.92
479.198	4191.78
479.569	4210.99
479.94	4330.08
480.311	4398.78
480.682	4457.09
481.053	4535.95
481.424	4579.79
481.795	4667.48
482.166	4759
482.537	4797.87
482.908	4958.54
483.279	4983.4
483.65	5057.97
484.021	5108.14
484.391	5251.19
484.762	5260.68
485.133	5343.84
485.503	5401.69
485.874	5550.84
486.244	5612.99
486.615	5738.18
486.985	5812.3
487.356	5930.49
487.726	5981.57
488.097	6168.91
488.467	6147.66
488.837	6248.23
489.207	6291.61
489.578	6490.03
489.948	6516.69
490.318	6702.9
490.688	6696.12
491.058	6822.9
491.428	6974.99
491.798	7052.72
492.168	7228.76
492.538	7287.75
492.908	7439.61
493.278	7510.57
493.648	7545.59
494.017	7625.14
494.387	7761.86
494.757	7828.3
495.126	7863.55
495.496	8020.38
495.866	8130.66
496.235	8192.81
496.605	8297.44
496.974	8407.94
497.344	8490.43
497.713	8592.57
498.082	8639.35
498.452	8705.34
498.821	8767.71
499.19	8728.61
499.559	8981.94
499.928	9010.86
500.298	9089.51
500.667	9149.17
501.036	9232.33
501.405	9327.92
501.774	9448.14
502.143	9465.77
502.512	9513
502.88	9600.45
503.249	9659.21
503.618	9779.21
503.987	9859.2
504.356	9944.4
504.724	10025.53
505.093	10051.06
505.462	10135.58
505.83	10138.97
506.199	10323.82
506.567	10438.4
506.936	10412.18
507.304	10564.04
507.672	10648.34
508.041	10697.15
508.409	10761.55
508.777	10793.42
509.145	10912.74
509.514	10908.44
509.882	11058.04
510.25	11063.92
510.618	11236.12
510.986	11307.3
511.354	11335.32
511.722	11440.63
512.09	11589.55
512.458	11579.84
512.826	11697.35
513.193	11690.34
513.561	11824.8
513.929	11926.95
514.297	11954.74
514.664	12052.14
515.032	12150.44
515.4	12206.94
515.767	12278.35
516.135	12389.08
516.502	12321.51
516.869	12490.55
517.237	12679.47
517.604	12560.15
517.972	12763.31
518.339	12906.58
518.706	12953.81
519.073	12960.37
519.44	13088.27
519.808	13281.26
520.175	13292.11
520.542	13457.3
520.909	13527.81
521.276	13570.74
521.643	13763.28
522.009	13856.84
522.376	13928.7
522.743	13977.51
523.11	14222.25
523.477	14331.4
523.843	14300.9
524.21	14531.62
524.577	14655.69
524.943	14703.6
525.31	14716.7
525.676	14974.1
526.043	15098.61
526.409	15167.77
526.776	15343.35
527.142	15424.71
527.508	15632.61
527.874	15645.04
528.241	15729.78
528.607	15793.29
528.973	16004.81
529.339	15933.85
529.705	16243.22
530.071	16358.02
530.437	16483.66
530.803	16577.22
531.169	16721.62
531.535	16670.78
531.901	16806.14
532.267	16877.55
532.632	17016.3
532.998	17143.53
533.364	17200.25
533.73	17315.05
534.095	17455.84
534.461	17419.23
534.826	17608.6
535.192	17602.96
535.557	17755.27
535.923	17746.23
536.288	17873.46
536.653	17935.15
537.019	17999.55
537.384	18130.4
537.749	18134.92
538.114	18192.32
538.479	18228.93
538.845	18383.27
539.21	18335.14
539.575	18439.77
539.94	18543.5
540.305	18702.81
540.67	18733.32
541.034	18703.94
541.399	18776.03
541.764	18971.28
542.129	18992.07
542.494	19106.64
542.858	19082.24
543.223	19146.87
543.587	19335.79
543.952	19241.33
544.316	19347.99
544.681	19343.7
545.045	19462.79
545.41	19618.72
545.774	19625.73
546.138	19550.02
546.503	19794.76
546.867	19799.96
547.231	19931.71
547.595	19914.76
547.959	19968.09
548.324	20002.89
548.688	19965.38
549.052	20122.89
549.416	20120.63
549.779	20066.17
550.143	20217.12
550.507	20386.61
550.871	20443.11
551.235	20455.31
551.599	20685.13
551.962	20683.78
552.326	20675.64
552.689	20770.78
553.053	20764.68
553.417	20923.32
553.78	21008.74
554.143	21095.97
554.507	21129.19
554.87	21267.94
555.234	21385
555.597	21262.97
555.96	21430.43
556.323	21560.37
556.686	21520.82
557.05	21773.69
557.413	21691.44
557.776	21748.61
558.139	21960.35
558.502	21932.33
558.865	21991.77
559.228	22343.85
559.59	22274.02
559.953	22319.22
560.316	22547.01
560.679	22598.53
561.041	22638.53
561.404	22794.46
561.767	22944.28
562.129	23072.87
562.492	23229.47
562.854	23258.4
563.217	23197.84
563.579	23283.94
563.941	23510.14
564.304	23751.72
564.666	23900.64
565.028	23802.11
565.39	24043.69
565.753	24159.84
566.115	24218.6
566.477	24426.96
566.839	24479.38
567.201	24661.75
567.563	24595.99
567.925	24885.48
568.287	25009.77
568.648	24955.76
569.01	25171.12
569.372	25389.42
569.734	25485.91
570.095	25701.05
570.457	25698.11
570.819	25846.58
571.18	26006.8
571.542	26231.88
571.903	26265.55
572.265	26390.52
572.626	26582.61
572.987	26527.24
573.349	26779.89
573.71	26942.37
574.071	26913.44
574.432	27181.69
574.794	27449.25
575.155	27424.17
575.516	27470.94
575.877	27685.4
576.238	27823.03
576.599	27930.59
576.96	28092.85
577.32	28102.79
577.681	28369.9
578.042	28518.83
578.403	28603.57
578.763	28666.85
579.124	28772.38
579.485	29022.09
579.845	29280.61
580.206	29310.9
580.566	29375.53
580.927	29575.75
581.287	29719.7
581.648	29779.13
582.008	30148.61
582.368	30289.4
582.728	30323.52
583.089	30490.53
583.449	30653.69
583.809	30834.7
584.169	31114.46
584.529	31212.31
584.889	31662.7
585.249	31692.3
585.609	31824.73
585.969	32381.32
586.329	32447.54
586.688	32865.15
587.048	32956.9
587.408	33344.24
587.768	33579.26
588.127	33997.1
588.487	34208.39
588.846	34865.55
589.206	34789.4
589.565	35225.32
589.925	35921.57
590.284	36171.05
590.643	36584.6
591.003	36971.94
591.362	37493.28
591.721	37771.24
592.08	38217.1
592.44	38799.46
592.799	39074.71
593.158	39457.3
593.517	39771.19
593.876	40390.38
594.235	40700.88
594.593	41131.15
594.952	41745.6
595.311	42105.59
595.67	42737.89
596.029	43263.75
596.387	43784.64
596.746	44223.5
597.104	44402.93
597.463	44837.72
597.822	45513.18
598.18	45834.3
598.538	46158.14
598.897	46857.55
599.255	46938.23
599.613	47783.4
599.972	47799.45
600.33	48411.86
600.688	48715.13
601.046	49076.7
601.404	49625.84
601.762	49913.74
602.12	50368.2
602.478	50626.49
602.836	51035.75
603.194	51077.56
603.552	51493.82
603.91	51708.95
604.268	52132.89
604.625	52414.92
604.983	52735.59
605.341	52818.98
605.698	53256.26
606.056	53703.93
606.413	53776.47
606.771	54189.11
607.128	54350.46
607.485	54437.92
607.843	54757.01
608.2	54985.48
608.557	55295.52
608.914	55360.83
609.272	55674.04
609.629	56008.95
609.986	56228.83
610.343	56240.36
610.7	56651.42
611.057	56694.81
611.414	56798.08
611.771	57098.87
612.127	57267.22
612.484	57436.71
612.841	57692.3
613.198	57693.43
613.554	57765.06
613.911	58099.52
614.267	58178.61
614.624	58328.89
614.98	58536.57
615.337	58774.3
615.693	58781.08
616.05	58934.07
616.406	59131.81
616.762	59184.46
617.118	59279.6
617.475	59367.28
617.831	59542.19
618.187	59604.79
618.543	59768.17
618.899	59922.97
619.255	59990.77
619.611	60006.13
619.967	60195.28
620.323	60327.03
620.678	60352.79
621.034	60366.8
621.39	60382.85
621.746	60521.37
622.101	60849.73
622.457	60665.78
622.812	60822.84
623.168	60873
623.523	60999.78
623.879	61048.14
624.234	60898.31
624.589	61122.26
624.945	61220.79
625.3	61219.66
625.655	61303.95
626.01	61304.86
626.365	61448.81
626.72	61383.95
627.075	61360.67
627.43	61433.67
627.785	61425.53
628.14	61443.38
628.495	61485.87
628.85	61563.83
629.205	61499.2
629.559	61690.61
629.914	61564.74
630.269	61638.63
630.623	61554.57
630.978	61519.54
631.332	61628.24
631.687	61686.77
632.041	61615.13
632.396	61677.95
632.75	61626.88
633.104	61720.89
633.459	61649.48
633.813	61614.68
634.167	61634.57
634.521	61673.89
634.875	61685.41
635.229	61658.29
635.583	61569.48
635.937	61552.31
636.291	61559.31
636.645	61593.44
636.999	61493.33
637.352	61577.17
637.706	61414.01
638.06	61533.55
638.413	61523.38
638.767	61376.49
639.121	61513.44
639.474	61369.49
639.828	61342.37
640.181	61409.04
640.534	61442.71
640.888	61329.49
641.241	61254.91
641.594	61336.72
641.947	61382.37
642.301	61319.55
642.654	61322.94
643.007	61284.52
643.36	61321.35
643.713	61252.88
644.066	61354.35
644.419	61240.45
644.771	60975.37
645.124	60757.07
645.477	60682.27
645.83	60607.25
646.182	60705.32
646.535	60559.79
646.888	60654.48
647.24	60531.54
647.593	60683.4
647.945	60584.2
648.298	60525.89
648.65	60367.93
649.002	60308.95
649.355	60264.43
649.707	60252.46
650.059	60259.69
650.411	60512.56
650.763	60667.13
651.115	60980.12
651.467	60883.85
651.819	60831.2
652.171	60862.16
652.523	60760.92
652.875	60751.2
653.227	60625.78
653.578	60897.64
653.93	60781.93
654.282	60695.83
654.633	60603.41
654.985	60662.16
655.337	60657.19
655.688	60609.73
656.039	60659.9
656.391	60441.83
656.742	60519.11
657.094	60480.92
657.445	60514.37
657.796	60599.11
658.147	60438.21
658.498	60462.85
658.849	60539
659.2	60438.89
659.551	60391.21
659.902	60554.37
660.253	60417.42
660.604	60498.78
660.955	60362.28
661.306	60420.36
661.656	60369.97
662.007	60370.42
662.358	60345.11
662.708	60381.72
663.059	60282.06
663.409	60166.13
663.76	60255.62
664.11	60285.67
664.461	60316.86
664.811	60306.69
665.161	60305.56
665.511	60194.6
665.862	60216.07
666.212	60262.85
666.562	60228.05
666.912	60207.48
667.262	60080.48
667.612	60157.09
667.962	60186.24
668.312	60113.7
668.662	60206.35
669.011	60191.21
669.361	60134.04
669.711	60137.2
670.06	60152.34
670.41	60098.34
670.76	60005.46
671.109	60171.1
671.459	60139.46
671.808	60055.4
672.157	60105.34
672.507	60070.77
672.856	59955.97
673.205	60027.6
673.554	60091.33
673.904	59988.73
674.253	60123.65
674.602	59994.83
674.951	59721.62
675.3	59563.21
675.649	59961.39
675.998	59948.06
676.346	59981.73
676.695	60019.24
677.044	59894.5
677.393	59949.19
677.741	60002.52
678.09	59919.81
678.438	59880.26
678.787	59909.19
679.135	59920.26
679.484	59735.18
679.832	59922.75
680.181	59782.86
680.529	59844.78
680.877	59728.63
681.225	59739.7
681.573	59899.7
681.922	59672.81
682.27	59631.68
682.618	59658.12
682.966	59644.11
683.314	59630.1
683.661	59599.37
684.009	59527.95
684.357	59486.37
684.705	59418.35
685.053	59508.97
685.4	59394.62
685.748	59345.36
686.095	59383.1
686.443	59234.4
686.79	59254.06
687.138	59339.94
687.485	59283.44
687.832	59135.2
688.18	59221.75
688.527	59092.03
688.874	59082.99
689.221	59064.01
689.568	58941.08
689.915	58862.21
690.262	58926.16
690.609	58910.34
690.956	58828.54
691.303	58796.67
691.65	58712.16
691.997	58617.7
692.344	58498.15
692.69	58514.65
693.037	58557.58
693.383	58345.39
693.73	58428.1
694.077	58266.74
694.423	58382.67
694.769	58256.35
695.116	58203.92
695.462	58120.99
695.808	58007.77
696.155	58049.8
696.501	57895.23
696.847	57960.54
697.193	57822.69
697.539	57840.54
697.885	57607.1
698.231	57642.81
698.577	57610.94
698.923	57599.64
699.269	57414.79
699.614	57371.85
699.96	57310.39
700.306	57340.89
700.651	57219.77
700.997	57137.96
701.342	57070.84
701.688	56992.2
702.033	56981.81
702.379	56976.61
702.724	56822.04
703.069	56904.75
703.415	56591.53
703.76	56567.13
704.105	56635.6
704.45	56529.84
704.795	56368.94
705.14	56319.9
705.485	56307.7
705.83	56223.63
706.175	56285.1
706.52	56123.07
706.865	56099.57
707.209	55989.97
707.554	55975.96
707.899	55955.39
708.243	55897.99
708.588	55822.52
708.932	55683.76
709.277	55751.56
709.621	55578.91
709.966	55558.12
710.31	55460.04
710.654	55301.85
710.998	55435.86
711.342	55380.27
711.687	55278.8
712.031	55095.3
712.375	55013.95
712.719	54956.1
713.063	54933.05
713.407	55057.79
713.75	54869.55
714.094	54877.46
714.438	54774.41
714.782	54658.48
715.125	54646.5
715.469	54786.84
715.812	54457.13
716.156	54371.25
716.499	54444.7
716.843	54441.08
717.186	54179.39
717.53	54374.64
717.873	54367.86
718.216	54252.16
718.559	54157.93
718.902	53922
719.246	54018.04
719.589	53991.15
719.932	53893.07
720.275	53818.27
720.617	53976.01
720.96	53819.63
721.303	53767.43
721.646	53805.17
721.989	53608.11
722.331	53654.21
722.674	53576.02
723.016	53595.68
723.359	53466.42
723.701	53566.53
724.044	53372.18
724.386	53233.66
724.729	53308.68
725.071	53308.46
725.413	53207.67
725.755	53141.23
726.097	53136.94
726.439	52991.86
726.782	52903.5
727.124	53080.67
727.465	52991.18
727.807	52835.25
728.149	52865.3
728.491	52662.82
728.833	52755.93
729.175	52630.96
729.516	52588.48
729.858	52574.69
730.199	52651.75
730.541	52578.76
730.882	52462.15
731.224	52460.57
731.565	52346.45
731.906	52400.01
732.248	52398.42
732.589	52176.74
732.93	52139.9
733.271	52154.36
733.612	52091.09
733.953	52157.98
734.294	52068.26
734.635	51983.07
734.976	52082.5
735.317	51932.67
735.658	51825.78
735.999	51792.79
736.339	51839.8
736.68	51807.25
737.021	51729.06
737.361	51559.8
737.702	51767.25
738.042	51645.45
738.383	51712.57
738.723	51713.92
739.063	51547.6
739.404	51651.78
739.744	51484.1
740.084	51392.8
740.424	51435.74
740.764	51318.45
741.104	51537.43
741.444	51276.42
741.784	51138.8
742.124	51290.88
742.464	51137.21
742.804	51116.88
743.143	50871.46
743.483	51087.5
743.823	50917.33
744.162	50885.02
744.502	50960.5
744.841	50814.74
745.181	50801.63
745.52	50710.11
745.86	50725.47
746.199	50673.5
746.538	50604.12
746.877	50700.84
747.216	50666.94
747.556	50482.99
747.895	50561.86
748.234	50380.4
748.573	50347.18
748.911	50285.49
749.25	50296.33
749.589	50144.47
749.928	50226.96
750.267	50223.57
750.605	50079.62
750.944	49998.26
751.283	49876.91
751.621	50085.49
751.96	49878.04
752.298	49728.89
752.636	49787.42
752.975	49687.76
753.313	49585.84
753.651	49730.47
753.989	49343.59
754.327	49449.35
754.666	49195.8
755.004	49337.04
755.342	49325.96
755.679	49243.48
