Data from 166_FLMS001491_004.txt Node
Date: Thu Apr 19 16:18:20 BST 2018
User: hsy
Spectrometer: FLMS00149
Trigger mode: 0
Integration Time (sec): 1.000000E-2
Scans to average: 10
Electric dark correction enabled: true
Nonlinearity correction enabled: false
Boxcar width: 0
XAxis mode: Wavelengths
Number of Pixels in Spectrum: 2048
>>>>>Begin Spectral Data<<<<<
341.393	-11.13
341.776	-11.13
342.16	-11.13
342.543	-59.49
342.927	-57
343.31	-85.03
343.693	-82.54
344.077	-49.32
344.46	-55.2
344.843	-52.94
345.226	-35.54
345.61	-24.24
345.993	-24.46
346.376	-14.52
346.759	16.67
347.142	11.24
347.525	33.39
347.908	60.96
348.291	65.03
348.674	102.31
349.057	134.18
349.44	148.87
349.823	153.39
350.206	176.21
350.588	236.55
350.971	254.63
351.354	277.45
351.737	298.92
352.119	301.63
352.502	314.29
352.884	315.19
353.267	324
353.65	332.59
354.032	357.45
354.414	355.41
354.797	373.72
355.179	361.97
355.562	368.52
355.944	388.41
356.326	403.32
356.709	378.92
357.091	398.58
357.473	390.22
357.855	385.92
358.238	386.15
358.62	420.05
359.002	392.48
359.384	398.8
359.766	388.41
360.148	395.19
360.53	434.51
360.912	381.85
361.294	374.85
361.676	389.99
362.057	394.96
362.439	374.62
362.821	387.73
363.203	387.96
363.584	389.76
363.966	393.38
364.348	396.77
364.729	374.62
365.111	380.27
365.493	380.95
365.874	370.33
366.256	365.13
366.637	382.31
367.019	366.71
367.4	378.69
367.781	391.57
368.163	382.53
368.544	394.74
368.925	377.56
369.306	394.96
369.688	388.41
370.069	401.74
370.45	386.6
370.831	397.22
371.212	377.56
371.593	369.2
371.974	377.79
372.355	388.18
372.736	393.15
373.117	372.36
373.498	403.77
373.879	409.65
374.26	409.42
374.641	388.63
375.021	402.87
375.402	394.28
375.783	421.4
376.163	421.18
376.544	420.05
376.925	400.84
377.305	411.01
377.686	421.63
378.066	426.82
378.447	418.01
378.827	418.92
379.208	414.85
379.588	411.23
379.968	441.97
380.349	436.77
380.729	441.97
381.109	439.48
381.489	437.22
381.87	431.57
382.25	437.9
382.63	434.96
383.01	439.71
383.39	446.26
383.77	456.43
384.15	465.47
384.53	451.46
384.91	465.24
385.29	451.46
385.67	465.02
386.049	449.65
386.429	481.29
386.809	493.94
387.189	468.86
387.568	470.44
387.948	468.41
388.328	491.91
388.707	506.6
389.087	494.62
389.466	506.14
389.846	506.37
390.225	510.89
390.605	503.43
390.984	513.15
391.363	511.79
391.743	504.34
392.122	516.09
392.501	544.34
392.881	515.18
393.26	520.61
393.639	539.82
394.018	537.1
394.397	548.18
394.776	546.6
395.155	558.8
395.534	565.8
395.913	549.76
396.292	564.9
396.671	561.51
397.05	558.8
397.429	570.1
397.808	560.83
398.186	559.93
398.565	568.29
398.944	573.26
399.323	562.87
399.701	585.46
400.08	600.38
400.458	603.32
400.837	594.96
401.215	614.39
401.594	601.74
401.972	600.38
402.351	610.55
402.729	617.55
403.107	620.27
403.486	613.03
403.864	618.01
404.242	643.77
404.62	641.28
404.999	657.1
405.377	663.65
405.755	672.92
406.133	658.46
406.511	661.17
406.889	675.41
407.267	691.45
407.645	689.64
408.023	691.68
408.401	696.65
408.779	697.78
409.156	716.08
409.534	745.01
409.912	726.7
410.29	739.59
410.667	737.1
411.045	761.73
411.422	749.98
411.8	764.22
412.178	778
412.555	790.66
412.933	779.58
413.31	819.36
413.687	790.21
414.065	799.24
414.442	817.32
414.819	816.65
415.197	865.46
415.574	843.99
415.951	849.86
416.328	832.69
416.705	861.84
417.082	863.42
417.46	868.85
417.837	867.49
418.214	887.38
418.591	897.77
418.967	908.39
419.344	879.02
419.721	899.58
420.098	885.57
420.475	919.92
420.852	939.81
421.228	931.67
421.605	939.58
421.982	949.3
422.358	954.95
422.735	947.72
423.111	973.48
423.488	972.57
423.864	977.77
424.241	982.97
424.617	1021.84
424.994	988.84
425.37	1015.74
425.746	1008.5
426.123	1051.22
426.499	1056.86
426.875	1046.47
427.251	1063.42
427.627	1090.08
428.003	1100.71
428.379	1098.22
428.756	1086.92
429.132	1138.22
429.507	1151.33
429.883	1146.58
430.259	1156.3
430.635	1184.09
431.011	1192.45
431.387	1191.78
431.763	1211.44
432.138	1233.81
432.514	1227.26
432.89	1256.18
433.265	1244.2
433.641	1293.47
434.016	1287.14
434.392	1308.16
434.767	1333.47
435.143	1331.21
435.518	1353.81
435.894	1352.68
436.269	1382.73
436.644	1389.96
437.02	1378.66
437.395	1391.77
437.77	1397.87
438.145	1421.15
438.52	1435.61
438.895	1451.2
439.271	1455.72
439.646	1498.66
440.021	1505.44
440.395	1495.5
440.77	1465.22
441.145	1488.04
441.52	1528.26
441.895	1504.99
442.27	1526.68
442.645	1556.06
443.019	1570.98
443.394	1556.06
443.769	1572.11
444.143	1575.04
444.518	1598.32
444.892	1577.53
445.267	1613.01
445.641	1602.39
446.016	1660.46
446.39	1632.67
446.764	1666.57
447.139	1665.21
447.513	1662.72
447.887	1651.43
448.262	1646.68
448.636	1717.19
449.01	1699.56
449.384	1728.71
449.758	1760.8
450.132	1765.09
450.506	1770.74
450.88	1814.13
451.254	1772.78
451.628	1782.72
452.002	1810.52
452.376	1840.57
452.75	1853
453.123	1855.94
453.497	1893
453.871	1907.92
454.244	1925.32
454.618	1984.98
454.992	1995.15
455.365	2028.36
455.739	2047.8
456.112	2057.29
456.486	2049.83
456.859	2082.6
457.232	2148.14
457.606	2160.34
457.979	2150.85
458.352	2223.39
458.725	2205.31
459.099	2255.93
459.472	2255.48
459.845	2291.86
460.218	2341.8
460.591	2350.39
460.964	2353.33
461.337	2412.54
461.71	2444.85
462.083	2467.68
462.456	2469.94
462.829	2463.16
463.201	2522.59
463.574	2519.43
463.947	2562.81
464.32	2585.19
464.692	2614.56
465.065	2631.51
465.438	2649.59
465.81	2732.53
466.183	2723.26
466.555	2786.76
466.928	2787.67
467.3	2823.82
467.672	2860.66
468.045	2908.79
468.417	2874.67
468.789	2902.24
469.161	2954.22
469.534	2971.16
469.906	3052.74
470.278	3058.62
470.65	3102.01
471.022	3166.41
471.394	3222.46
471.766	3193.08
472.138	3291.61
472.51	3338.16
472.882	3348.1
473.253	3406.63
473.625	3458.38
473.997	3552.62
474.369	3519.62
474.74	3588.55
475.112	3700.86
475.484	3738.15
475.855	3799.17
476.227	3786.74
476.598	3883.23
476.97	3946.28
477.341	3993.96
477.713	4073.51
478.084	4142.89
478.455	4189.44
478.827	4243.9
479.198	4348.3
479.569	4403.44
479.94	4498.36
480.311	4506.72
480.682	4634.62
481.053	4760.27
481.424	4865.8
481.795	4836.2
482.166	4938.12
482.537	4996.65
482.908	5071.67
483.279	5164.33
483.65	5305.57
484.021	5428.28
484.391	5457.2
484.762	5533.58
485.133	5582.62
485.503	5661.26
485.874	5795.27
486.244	5873.01
486.615	5985.77
486.985	6075.04
487.356	6174.7
487.726	6250.63
488.097	6400.45
488.467	6471.64
488.837	6583.27
489.207	6655.59
489.578	6801.57
489.948	6911.17
490.318	7022.58
490.688	7077.72
491.058	7185.07
491.428	7296.02
491.798	7334.44
492.168	7506.41
492.538	7573.3
492.908	7698.72
493.278	7850.13
493.648	7863.69
494.017	8058.26
494.387	8131.26
494.757	8199.73
495.126	8297.8
495.496	8325.15
495.866	8446.05
496.235	8523.34
496.605	8651.24
496.974	8769.66
497.344	8860.28
497.713	8904.79
498.082	8999.03
498.452	9115.41
498.821	9208.97
499.19	9278.12
499.559	9378.45
499.928	9514.5
500.298	9504.55
500.667	9695.96
501.036	9675.85
501.405	9836.52
501.774	9846.46
502.143	9978.89
502.512	10052.33
502.88	10136.17
503.249	10183.4
503.618	10242.61
503.987	10351.08
504.356	10420.69
504.724	10522.6
505.093	10584.3
505.462	10655.93
505.83	10725.31
506.199	10830.39
506.567	11020.22
506.936	10993.33
507.304	11143.61
507.672	11146.54
508.041	11318.74
508.409	11415.46
508.777	11438.29
509.145	11580.88
509.514	11623.59
509.882	11690.26
510.25	11775
510.618	11902
510.986	11891.83
511.354	11982.91
511.722	12151.26
512.09	12283.91
512.458	12139.06
512.826	12316.91
513.193	12394.87
513.561	12506.73
513.929	12593.51
514.297	12814.97
514.664	12893.39
515.032	12849.55
515.4	12947.63
515.767	13070.79
516.135	13160.05
516.502	13082.99
516.869	13378.12
517.237	13362.98
517.604	13374.06
517.972	13581.51
518.339	13681.84
518.706	13768.4
519.073	13756.64
519.44	13905.34
519.808	14046.58
520.175	14058.78
520.542	14248.16
520.909	14216.52
521.276	14355.27
521.643	14579.9
522.009	14621.25
522.376	14742.61
522.743	14832.1
523.11	15022.83
523.477	15231.18
523.843	15190.96
524.21	15548.69
524.577	15574.22
524.943	15683.82
525.31	15753.88
525.676	16025.06
526.043	16087.43
526.409	16093.53
526.776	16357.48
527.142	16417.14
527.508	16486.29
527.874	16559.51
528.241	16715.44
528.607	16824.81
528.973	17087.63
529.339	17040.63
529.705	17298.25
530.071	17460.73
530.437	17466.38
530.803	17603.32
531.169	17780.72
531.535	17802.19
531.901	17931.9
532.267	17997.66
532.632	18175.96
532.998	18287.37
533.364	18462.96
533.73	18468.16
534.095	18636.97
534.461	18554.48
534.826	18765.1
535.192	18863.18
535.557	18917.19
535.923	18884.19
536.288	19036.96
536.653	19132.32
537.019	19221.13
537.384	19269.49
537.749	19391.07
538.114	19438.53
538.479	19431.52
538.845	19587.9
539.21	19628.58
539.575	19716.26
539.94	19802.13
540.305	19981.57
540.67	19956.71
541.034	20039.64
541.399	20091.17
541.764	20219.07
542.129	20178.4
542.494	20213.2
542.858	20339.97
543.223	20455.9
543.587	20525.96
543.952	20537.71
544.316	20715.33
544.681	20613.41
545.045	20691.83
545.41	20929.11
545.774	20921.88
546.138	20857.47
546.503	20969.79
546.867	20978.37
547.231	21245.49
547.595	21304.47
547.959	21280.97
548.324	21294.98
548.688	21409.32
549.052	21391.92
549.416	21456.1
549.779	21524.35
550.143	21596.89
550.507	21666.49
550.871	21790.11
551.235	21807.05
551.599	22061.96
551.962	21951.91
552.326	22089.98
552.689	22095.18
553.053	22109.42
553.417	22207.95
553.78	22496.53
554.143	22562.06
554.507	22625.11
554.87	22640.03
555.234	22760.47
555.597	22721.15
555.96	22821.94
556.323	23050.18
556.686	22964.54
557.05	23154.59
557.413	23302.38
557.776	23322.27
558.139	23492.21
558.502	23577.63
558.865	23596.84
559.228	23748.25
559.59	23873.89
559.953	23832.76
560.316	24088.12
560.679	24163.38
561.041	24373.99
561.404	24404.05
561.767	24525.63
562.129	24533.08
562.492	24737.15
562.854	24891.94
563.217	24913.41
563.579	24927.65
563.941	25184.82
564.304	25404.25
564.666	25428.88
565.028	25582.32
565.39	25619.83
565.753	25953.16
566.115	25918.58
566.477	26104.79
566.839	26192.7
567.201	26293.94
567.563	26489.64
567.925	26643.54
568.287	26694.16
568.648	26810.99
569.01	26979.12
569.372	27368.49
569.734	27301.37
570.095	27506.79
570.457	27767.12
570.819	27741.13
571.18	27814.35
571.542	28150.16
571.903	28188.35
572.265	28347.9
572.626	28502.47
572.987	28578.18
573.349	28754.67
573.71	28668.34
574.071	29051.61
574.432	29362.11
574.794	29537.92
575.155	29481.2
575.516	29494.31
575.877	29807.07
576.238	29834.19
576.599	30047.74
576.96	30163.67
577.32	30251.13
577.681	30393.95
578.042	30685.24
578.403	30672.81
578.763	30798.91
579.124	30956.42
579.485	31153.02
579.845	31386.69
580.206	31537.65
580.566	31569.73
580.927	31779.45
581.287	31905.32
581.648	31997.52
582.008	32356.15
582.368	32514.12
582.728	32633.44
583.089	32724.51
583.449	33087.89
583.809	33259.18
584.169	33552.73
584.529	33659.62
584.889	33937.36
585.249	34060.06
585.609	34175.09
585.969	34759.03
586.329	34811.46
586.688	35138.68
587.048	35507.03
587.408	35747.7
587.768	36131.42
588.127	36410.06
588.487	36714.68
588.846	37295.46
589.206	37306.99
589.565	37793.75
589.925	38271.71
590.284	38564.58
590.643	38976.77
591.003	39386.7
591.362	39875.51
591.721	40129.51
592.08	40608.59
592.44	41244.28
592.799	41565.4
593.158	42008.33
593.517	42406.51
593.876	42961.3
594.235	43155.42
594.593	43783.88
594.952	44233.13
595.311	44573.69
595.67	45106.1
596.029	45753.99
596.387	46197.15
596.746	46705.61
597.104	46803.23
597.463	47162.09
597.822	47946.93
598.18	48034.84
598.538	48514.37
598.897	49039.78
599.255	49195.03
599.613	49962.92
599.972	50041.11
600.33	50498.05
600.688	50809.23
601.046	51180.74
601.404	51688.53
601.762	51921.29
602.12	52251.45
602.478	52601.05
602.836	52844.43
603.194	52825.45
603.552	53347.69
603.91	53511.08
604.268	53836.95
604.625	54094.57
604.983	54516.48
605.341	54502.24
605.698	54982.9
606.056	55283.69
606.413	55258.38
606.771	55702.21
607.128	55887.06
607.485	55997.34
607.843	56192.82
608.2	56571.34
608.557	56737.89
608.914	56874.83
609.272	57170.19
609.629	57339
609.986	57595.04
610.343	57650.18
610.7	57992.99
611.057	58080
611.414	58181.24
611.771	58450.61
612.127	58616.48
612.484	58765.86
612.841	58892.41
613.198	58998.39
613.554	59063.7
613.911	59372.39
614.267	59521.77
614.624	59625.49
614.98	59751.82
615.337	60014.86
615.693	60076.1
616.05	60149.55
616.406	60426.38
616.762	60381.86
617.118	60522.42
617.475	60573.94
617.831	60783.88
618.187	60814.84
618.543	60931.45
618.899	61158.34
619.255	61156.98
619.611	61275.62
619.967	61453.92
620.323	61565.78
620.678	61493.02
621.034	61539.79
621.39	61638.77
621.746	61693.91
622.101	61977.75
622.457	61830.41
622.812	62027.69
623.168	62051.87
623.523	62090.74
623.879	62213.22
624.234	62122.15
624.589	62280.79
624.945	62289.15
625.3	62361.24
625.655	62384.29
626.01	62447.34
626.365	62502.48
626.72	62553.78
627.075	62551.75
627.43	62568.24
627.785	62592.87
628.14	62652.31
628.495	62694.11
628.85	62751.97
629.205	62644.62
629.559	62808.24
629.914	62742.47
630.269	62794.9
630.623	62694.79
630.978	62715.36
631.332	62863.6
631.687	62875.13
632.041	62822.25
632.396	62846.2
632.75	62780.89
633.104	62818.86
633.459	62711.74
633.813	62714.45
634.167	62790.61
634.521	62787.67
634.875	62837.39
635.229	62772.53
635.583	62715.13
635.937	62726.43
636.291	62721.01
636.645	62674.23
636.999	62696.37
637.352	62681.69
637.706	62597.85
638.06	62693.44
638.413	62625.87
638.767	62568.47
639.121	62626.32
639.474	62516.94
639.828	62546.1
640.181	62521.69
640.534	62611.18
640.888	62459.32
641.241	62401.01
641.594	62409.83
641.947	62526.21
642.301	62432.88
642.654	62375.93
643.007	62342.94
643.36	62407.34
643.713	62350.39
644.066	62455.02
644.419	62265.88
644.771	62059.78
645.124	61815.49
645.477	61782.5
645.83	61708.6
646.182	61706.8
646.535	61681.26
646.888	61726.23
647.24	61674.03
647.593	61737.53
647.945	61651.2
648.298	61651.66
648.65	61554.71
649.002	61417.76
649.355	61390.87
649.707	61297.09
650.059	61314.49
650.411	61653.24
650.763	61713.58
651.115	62035.37
651.467	61926.9
651.819	61933.46
652.171	61866.11
652.523	61786.57
652.875	61867.47
653.227	61684.2
653.578	61923.97
653.93	61831.54
654.282	61700.24
654.633	61670.86
654.985	61739.34
655.337	61716.29
655.688	61716.96
656.039	61793.12
656.391	61586.57
656.742	61589.74
657.094	61618.89
657.445	61578.66
657.796	61628.15
658.147	61560.81
658.498	61621.83
658.849	61647.81
659.2	61502.06
659.551	61496.18
659.902	61646.23
660.253	61492.11
660.604	61574.6
660.955	61380.93
661.306	61537.08
661.656	61458.67
662.007	61425.67
662.358	61477.88
662.708	61460.7
663.059	61398.56
663.409	61297.09
663.76	61395.62
664.11	61432.68
664.461	61444.66
664.811	61441.04
665.161	61469.06
665.511	61427.25
665.862	61410.31
666.212	61466.35
666.562	61432
666.912	61377.99
667.262	61373.02
667.612	61324.88
667.962	61436.29
668.312	61347.03
668.662	61438.55
669.011	61405.79
669.361	61377.76
669.711	61415.5
670.06	61319.69
670.41	61297.31
670.76	61265
671.109	61360.36
671.459	61258.22
671.808	61242.63
672.157	61248.95
672.507	61190.2
672.856	61196.07
673.205	61249.41
673.554	61241.05
673.904	61098.22
674.253	61336.64
674.602	61162.18
674.951	60901.84
675.3	60780.04
675.649	61163.76
675.998	61214.61
676.346	61198.79
676.695	61179.8
677.044	61039.92
677.393	61081.5
677.741	61129.18
678.09	61018.23
678.438	60996.53
678.787	61076.98
679.135	61072.69
679.484	60916.31
679.832	61001.28
680.181	60883.31
680.529	60946.82
680.877	60825.69
681.225	60912.24
681.573	61020.26
681.922	60879.92
682.27	60865.24
682.618	60825.46
682.966	60727.39
683.314	60807.84
683.661	60767.39
684.009	60664.56
684.357	60594.06
684.705	60623.43
685.053	60659.59
685.4	60601.97
685.748	60492.59
686.095	60508.86
686.443	60319.26
686.79	60346.83
687.138	60464.79
687.485	60438.13
687.832	60332.59
688.18	60382.54
688.527	60288.08
688.874	60261.64
689.221	60288.98
689.568	60135.09
689.915	60074.52
690.262	60175.76
690.609	60023.22
690.956	59997.24
691.303	59996.56
691.65	59866.17
691.997	59835.43
692.344	59764.7
692.69	59677.24
693.037	59707.3
693.383	59555.89
693.73	59594.76
694.077	59466.4
694.423	59480.41
694.769	59373.75
695.116	59384.82
695.462	59229.57
695.808	59180.08
696.155	59237.93
696.501	59070.71
696.847	59068.9
697.193	58878.4
697.539	59024.61
697.885	58742.81
698.231	58795.69
698.577	58669.81
698.923	58743.71
699.269	58511.85
699.614	58484.51
699.96	58334.45
700.306	58468.24
700.651	58307.56
700.997	58249.49
701.342	58229.82
701.688	58160.45
702.033	58083.61
702.379	58122.48
702.724	57946.44
703.069	58054.69
703.415	57709.61
703.76	57706.22
704.105	57819.89
704.45	57611.31
704.795	57510.3
705.14	57454.03
705.485	57482.73
705.83	57285.89
706.175	57388.94
706.52	57286.8
706.865	57201.38
707.209	57213.13
707.554	57075.96
707.899	57129.74
708.243	57000.48
708.588	56950.54
708.932	56748.73
709.277	56838.67
709.621	56663.54
709.966	56602.75
710.31	56668.74
710.654	56386.03
710.998	56468.06
711.342	56541.28
711.687	56362.3
712.031	56310.33
712.375	56149.88
712.719	56179.26
713.063	56124.12
713.407	56230.78
713.75	56071.46
714.094	56082.08
714.438	55913.28
714.782	55845.48
715.125	55735.88
715.469	56005.7
715.812	55656.79
716.156	55647.29
716.499	55666.95
716.843	55642.55
717.186	55475.77
717.53	55698.59
717.873	55670.12
718.216	55497.02
718.559	55464.93
718.902	55213.63
719.246	55255.44
719.589	55233.97
719.932	55140.87
720.275	55162.11
720.617	55125.05
720.96	54962.34
721.303	55051.15
721.646	55088.89
721.989	54948.56
722.331	54970.93
722.674	54863.81
723.016	54839.18
723.359	54720.76
723.701	54737.26
724.044	54652.52
724.386	54555.35
724.729	54589.24
725.071	54513.54
725.413	54594.89
725.755	54453.88
726.097	54425.86
726.439	54241.91
726.782	54295.47
727.124	54354.9
727.465	54319.19
727.807	54129.59
728.149	54222.92
728.491	54088.69
728.833	54224.05
729.175	54075.58
729.516	54001.69
729.858	53989.03
730.199	53991.97
730.541	54018.64
730.882	53895.02
731.224	53877.62
731.565	53801.69
731.906	53779.55
732.248	53784.74
732.589	53584.07
732.93	53548.37
733.271	53676.72
733.612	53540.46
733.953	53591.98
734.294	53504.07
734.635	53472.21
734.976	53578.87
735.317	53345.66
735.658	53366.9
735.999	53293.68
736.339	53219.56
736.68	53193.8
737.021	53114.03
737.361	53054.14
737.702	53271.99
738.042	53151.09
738.383	53078.55
738.723	53168.94
739.063	52938.89
739.404	53030.41
739.744	52980.25
740.084	52853.7
740.424	52876.75
740.764	52809.63
741.104	52939.12
741.444	52643.98
741.784	52548.84
742.124	52714.72
742.464	52592.68
742.804	52592.91
743.143	52498.22
743.483	52507.26
743.823	52373.03
744.162	52325.57
744.502	52436.53
744.841	52248.29
745.181	52383.42
745.52	52179.14
745.86	52118.57
746.199	52098.69
746.538	52111.57
746.877	52113.38
747.216	52173.94
747.556	51986.37
747.895	51978.01
748.234	51964.23
748.573	51810.78
748.911	51778.7
749.25	51743.44
749.589	51552.49
749.928	51679.49
750.267	51667.74
750.605	51475.88
750.944	51508.42
751.283	51464.8
751.621	51581.19
751.96	51287.18
752.298	51398.59
752.636	51329.44
752.975	51168.77
753.313	50992.28
753.651	51328.09
753.989	50871.37
754.327	51019.17
754.666	50791.83
755.004	50833.64
