Data from 17-1564_FLMS001491_006.txt Node
Date: Thu Apr 19 16:31:34 BST 2018
User: hsy
Spectrometer: FLMS00149
Trigger mode: 0
Integration Time (sec): 1.000000E-2
Scans to average: 10
Electric dark correction enabled: true
Nonlinearity correction enabled: false
Boxcar width: 0
XAxis mode: Wavelengths
Number of Pixels in Spectrum: 2048
>>>>>Begin Spectral Data<<<<<
341.393	-21.52
341.776	-21.52
342.16	-21.52
342.543	-64.91
342.927	-78.7
343.31	-89.09
343.693	-64.01
344.077	-78.47
344.46	-47.96
344.843	-57.46
345.226	-49.09
345.61	-25.14
345.993	-16.55
346.376	-13.39
346.759	0.17
347.142	24.12
347.525	52.6
347.908	56.44
348.291	92.14
348.674	100.96
349.057	114.74
349.44	114.74
349.823	146.61
350.206	168.3
350.588	246.72
350.971	258.92
351.354	260.05
351.737	283.55
352.119	278.35
352.502	307.05
352.884	306.38
353.267	323.32
353.65	344.79
354.032	342.76
354.414	349.99
354.797	359.26
355.179	365.13
355.562	362.42
355.944	368.3
356.326	361.74
356.709	368.07
357.091	369.65
357.473	377.79
357.855	387.73
358.238	385.92
358.62	400.61
359.002	395.87
359.384	364.45
359.766	400.84
360.148	398.8
360.53	409.88
360.912	388.18
361.294	375.3
361.676	378.92
362.057	391.12
362.439	412.81
362.821	379.59
363.203	369.2
363.584	370.78
363.966	385.24
364.348	389.99
364.729	357.67
365.111	368.07
365.493	366.94
365.874	380.27
366.256	366.26
366.637	378.69
367.019	375.75
367.4	363.32
367.781	381.63
368.163	382.53
368.544	387.5
368.925	364.91
369.306	371.91
369.688	398.58
370.069	363.55
370.45	364.45
370.831	378.24
371.212	370.78
371.593	397.45
371.974	379.59
372.355	399.71
372.736	360.61
373.117	401.29
373.498	387.28
373.879	374.62
374.26	381.85
374.641	396.32
375.021	388.18
375.402	407.62
375.783	395.19
376.163	425.02
376.544	408.52
376.925	420.5
377.305	399.48
377.686	394.28
378.066	437.22
378.447	411.68
378.827	426.82
379.208	416.66
379.588	425.24
379.968	420.72
380.349	430.21
380.729	424.34
381.109	429.54
381.489	437.9
381.87	427.28
382.25	463.66
382.63	452.36
383.01	463.21
383.39	449.65
383.77	446.03
384.15	425.92
384.53	454.85
384.91	460.04
385.29	457.78
385.67	447.62
386.049	450.33
386.429	454.62
386.809	455.07
387.189	474.06
387.568	470.21
387.948	476.77
388.328	492.36
388.707	479.03
389.087	484.9
389.466	509.99
389.846	501.63
390.225	504.56
390.605	504.11
390.984	500.72
391.363	492.81
391.743	517.9
392.122	521.96
392.501	514.96
392.881	541.17
393.26	519.25
393.639	525.81
394.018	524.22
394.397	539.36
394.776	547.27
395.155	522.19
395.534	543.88
395.913	532.13
396.292	541.85
396.671	566.03
397.05	565.13
397.429	563.54
397.808	567.16
398.186	568.97
398.565	569.19
398.944	576.65
399.323	568.52
399.701	557.67
400.08	559.7
400.458	576.2
400.837	600.61
401.215	582.3
401.594	592.02
401.972	585.24
402.351	594.05
402.729	605.35
403.107	609.42
403.486	615.29
403.864	612.81
404.242	618.01
404.62	614.84
404.999	639.02
405.377	627.72
405.755	644.45
406.133	662.3
406.511	646.48
406.889	668.17
407.267	676.54
407.645	667.04
408.023	660.49
408.401	679.47
408.779	696.87
409.156	695.97
409.534	693.71
409.912	697.33
410.29	720.38
410.667	719.92
411.045	742.3
411.422	741.39
411.8	725.8
412.178	766.25
412.555	771.9
412.933	787.27
413.31	780.94
413.687	781.17
414.065	792.01
414.442	805.57
414.819	806.93
415.197	824.1
415.574	858.9
415.951	842.18
416.328	839.24
416.705	846.25
417.082	855.51
417.46	833.59
417.837	881.05
418.214	877.21
418.591	886.7
418.967	907.94
419.344	904.1
419.721	886.47
420.098	893.03
420.475	899.35
420.852	905.46
421.228	908.85
421.605	939.81
421.982	951.56
422.358	938.45
422.735	945.23
423.111	979.8
423.488	939.13
423.864	984.32
424.241	976.64
424.617	1021.16
424.994	994.27
425.37	1012.57
425.746	1046.92
426.123	1023.19
426.499	1034.94
426.875	1032.01
427.251	1065
427.627	1075.4
428.003	1063.64
428.379	1104.1
428.756	1091.67
429.132	1113.13
429.507	1135.28
429.883	1140.93
430.259	1156.98
430.635	1169.4
431.011	1164.21
431.387	1196.07
431.763	1206.92
432.138	1194.26
432.514	1234.71
432.89	1228.16
433.265	1254.6
433.641	1278.33
434.016	1254.6
434.392	1310.19
434.767	1314.03
435.143	1312.45
435.518	1322.17
435.894	1318.1
436.269	1352.22
436.644	1384.99
437.02	1392.45
437.395	1380.47
437.77	1387.93
438.145	1408.72
438.52	1432.22
438.895	1439.23
439.271	1459.57
439.646	1460.47
440.021	1462.5
440.395	1473.58
440.77	1498.89
441.145	1521.26
441.52	1526.01
441.895	1502.5
442.27	1533.24
442.645	1529.85
443.019	1556.51
443.394	1586.34
443.769	1598.77
444.143	1568.26
444.518	1594.03
444.892	1580.01
445.267	1595.16
445.641	1614.59
446.016	1621.82
446.39	1615.72
446.764	1622.27
447.139	1623.63
447.513	1671.99
447.887	1682.84
448.262	1676.06
448.636	1696.62
449.01	1719.67
449.384	1737.3
449.758	1702.05
450.132	1729.16
450.506	1737.07
450.88	1775.49
451.254	1783.63
451.628	1838.31
452.002	1826.11
452.376	1837.64
452.75	1864.3
453.123	1859.56
453.497	1912.44
453.871	1914.7
454.244	1933.68
454.618	1967.58
454.992	1965.99
455.365	1963.28
455.739	2014.58
456.112	2045.54
456.486	2054.58
456.859	2081.47
457.232	2140.68
457.606	2157.4
457.979	2148.14
458.352	2191.98
458.725	2183.61
459.099	2247.79
459.472	2251.86
459.845	2295.48
460.218	2297.28
460.591	2313.78
460.964	2385.19
461.337	2393.55
461.71	2441.24
462.083	2450.27
462.456	2419.31
462.829	2473.55
463.201	2513.1
463.574	2500.89
463.947	2526.43
464.32	2593.32
464.692	2603.72
465.065	2623.6
465.438	2669.93
465.81	2683.94
466.183	2726.43
466.555	2748.57
466.928	2854.56
467.3	2782.47
467.672	2794.67
468.045	2872.86
468.417	2870.6
468.789	2854.56
469.161	2955.57
469.534	2984.27
469.906	3033.54
470.278	3041.22
470.65	3081.9
471.022	3140.43
471.394	3151.5
471.766	3238.5
472.138	3259.52
472.51	3325.28
472.882	3373.19
473.253	3359.4
473.625	3426.52
473.997	3495.22
474.369	3505.61
474.74	3520.3
475.112	3613.63
475.484	3635.55
475.855	3757.58
476.227	3765.49
476.598	3844.36
476.97	3902.89
477.341	3977.69
477.713	4044.81
478.084	4094.3
478.455	4206.16
478.827	4203.22
479.198	4275.76
479.569	4301.75
479.94	4375.2
480.311	4522.54
480.682	4557.79
481.053	4637.11
481.424	4690.89
481.795	4816.54
482.166	4849.99
482.537	4972.24
482.908	5034.61
483.279	5113.48
483.65	5122.29
484.021	5287.04
484.391	5352.12
484.762	5372.46
485.133	5479.8
485.503	5564.77
485.874	5663.75
486.244	5764.54
486.615	5863.52
486.985	5906.91
487.356	6056.06
487.726	6108.03
488.097	6261.25
488.467	6282.26
488.837	6455.14
489.207	6479.55
489.578	6626.44
489.948	6737.17
490.318	6831.85
490.688	6829.82
491.058	6950.04
491.428	7066.42
491.798	7103.94
492.168	7307.55
492.538	7291.5
492.908	7530.82
493.278	7605.39
493.648	7608.11
494.017	7699.4
494.387	7818.04
494.757	7964.03
495.126	8026.4
495.496	8010.58
495.866	8128.54
496.235	8226.17
496.605	8368.31
496.974	8392.04
497.344	8481.98
497.713	8616.89
498.082	8596.78
498.452	8693.27
498.821	8785.7
499.19	8855.3
499.559	8961.06
499.928	9006.03
500.298	9042.42
500.667	9149.99
501.036	9154.73
501.405	9306.37
501.774	9252.81
502.143	9423.42
502.512	9501.84
502.88	9599.01
503.249	9622.06
503.618	9682.4
503.987	9760.14
504.356	9817.54
504.724	9869.29
505.093	9976.63
505.462	9998.32
505.83	10121.26
506.199	10168.26
506.567	10288.71
506.936	10238.54
507.304	10368.94
507.672	10409.84
508.041	10484.87
508.409	10571.87
508.777	10746.33
509.145	10689.83
509.514	10728.7
509.882	10827
510.25	10868.13
510.618	10979.77
510.986	10983.61
511.354	11112.65
511.722	11210.72
512.09	11358.51
512.458	11329.59
512.826	11382.92
513.193	11459.98
513.561	11606.42
513.929	11592.63
514.297	11750.59
514.664	11785.17
515.032	11817.71
515.4	11944.04
515.767	11984.71
516.135	12136.12
516.502	12049.34
516.869	12215.89
517.237	12295.44
517.604	12287.98
517.972	12523.23
518.339	12563.91
518.706	12653.85
519.073	12741.98
519.44	12788.76
519.808	12912.15
520.175	12975.65
520.542	13172.93
520.909	13182.87
521.276	13280.27
521.643	13508.06
522.009	13511
522.376	13684.56
522.743	13625.12
523.11	13976.53
523.477	13910.09
523.843	14117.31
524.21	14241.6
524.577	14354.82
524.943	14373.58
525.31	14535.38
525.676	14789.16
526.043	14776.05
526.409	14901.7
526.776	15033.9
527.142	15162.03
527.508	15238.64
527.874	15384.17
528.241	15486.54
528.607	15548.91
528.973	15723.82
529.339	15812.86
529.705	15946.42
530.071	16004.95
530.437	16161.1
530.803	16321.77
531.169	16366.97
531.535	16421.66
531.901	16513.41
532.267	16669.56
532.632	16744.81
532.998	16903
533.364	17029.1
533.73	17036.78
534.095	17221.86
534.461	17161.75
534.826	17386.38
535.192	17377.57
535.557	17580.27
535.923	17508.64
536.288	17583.66
536.653	17766.48
537.019	17802.19
537.384	17893.71
537.749	17941.39
538.114	18037.44
538.479	18047.15
538.845	18071.11
539.21	18160.82
539.575	18330.53
539.94	18403.08
540.305	18483.75
540.67	18497.08
541.034	18590.19
541.399	18639.23
541.764	18680.58
542.129	18765.33
542.494	18948.82
542.858	18967.81
543.223	18974.59
543.587	19016.39
543.952	19117.86
544.316	19141.59
544.681	19102.72
545.045	19342.03
545.41	19406.44
545.774	19452.54
546.138	19415.7
546.503	19447.34
546.867	19550.62
547.231	19692.53
547.595	19735.47
547.959	19809.37
548.324	19829.7
548.688	19841
549.052	20035.57
549.416	19923.49
549.779	20059.53
550.143	20138.4
550.507	20269.69
550.871	20279.86
551.235	20403.93
551.599	20455.68
551.962	20583.81
552.326	20644.6
552.689	20664.26
553.053	20664.71
553.417	20743.8
553.78	21034.42
554.143	20978.83
554.507	21097.02
554.87	21135.66
555.234	21340.63
555.597	21197.35
555.96	21347.4
556.323	21544.01
556.686	21473.96
557.05	21828.3
557.413	21735.19
557.776	21787.62
558.139	21876.66
558.502	21990.78
558.865	21972.02
559.228	22193.03
559.59	22357.1
559.953	22443.87
560.316	22636.41
560.679	22629.18
561.041	22826.91
561.404	22945.1
561.767	23034.82
562.129	23060.58
562.492	23265.09
562.854	23348.93
563.217	23428.25
563.579	23484.52
563.941	23751.86
564.304	23811.75
564.666	24056.71
565.028	24095.58
565.39	24109.14
565.753	24386.19
566.115	24427.78
566.477	24472.29
566.839	24727.88
567.201	24939.4
567.563	24956.35
567.925	25207.42
568.287	25273.86
568.648	25408.54
569.01	25535.32
569.372	25773.73
569.734	25761.75
570.095	26100.5
570.457	26105.92
570.819	26249.65
571.18	26236.32
571.542	26638.11
571.903	26635.85
572.265	26725.79
572.626	27015.73
572.987	27015.05
573.349	27204.65
573.71	27356.96
574.071	27531.87
574.432	27688.03
574.794	27966.67
575.155	27974.8
575.516	27920.57
575.877	28177.73
576.238	28200.33
576.599	28446.43
576.96	28657.04
577.32	28708.34
577.681	28810.26
578.042	29000.08
578.403	29044.6
578.763	29087.31
579.124	29289.79
579.485	29670.8
579.845	29807.75
580.206	29776.34
580.566	29965.03
580.927	30226.04
581.287	30347.85
581.648	30296.55
582.008	30731.56
582.368	30666.93
582.728	30933.82
583.089	31130.42
583.449	31265.79
583.809	31461.26
584.169	31691.31
584.529	31801.37
584.889	32171.98
585.249	32236.84
585.609	32381.01
585.969	32805.41
586.329	32952.3
586.688	33436.8
587.048	33595.44
587.408	33870.01
587.768	34147.75
588.127	34452.6
588.487	34782.76
588.846	35456.41
589.206	35394.95
589.565	35792.22
589.925	36457.52
590.284	36591.07
590.643	37146.09
591.003	37494.78
591.362	38148.09
591.721	38466.28
592.08	38807.06
592.44	39296.09
592.799	39542.18
593.158	40002.96
593.517	40426.23
593.876	40955.02
594.235	41417.61
594.593	41713.2
594.952	42331.94
595.311	42686.96
595.67	43084.91
596.029	43829.07
596.387	44220.93
596.746	44765.55
597.104	44934.81
597.463	45369.37
597.822	46057.94
598.18	46285.96
598.538	46722.1
598.897	47442.31
599.255	47587.84
599.613	48339.01
599.972	48412.46
600.33	48824.87
600.688	49205.66
601.046	49722.48
601.404	50239.3
601.762	50429.8
602.12	50891.71
602.478	51122.89
602.836	51459.16
603.194	51576.21
603.552	52027.95
603.91	52153.83
604.268	52547.26
604.625	52851.66
604.983	53175.27
605.341	53375.72
605.698	53723.05
606.056	54067.9
606.413	54223.6
606.771	54509.7
607.128	54768.9
607.485	54863.81
607.843	55006.63
608.2	55365.72
608.557	55712.6
608.914	55800.28
609.272	56064.23
609.629	56353.94
609.986	56577.89
610.343	56626.25
610.7	56985.79
611.057	57047.71
611.414	57095.62
611.771	57490.86
612.127	57614.47
612.484	57715.26
612.841	57955.93
613.198	57992.09
613.554	58092.43
613.911	58346.43
614.267	58478.86
614.624	58599.76
614.98	58731.96
615.337	59027.32
615.693	59082.91
616.05	59168.33
616.406	59365.61
616.762	59468.66
617.118	59493.29
617.475	59616
617.831	59768.54
618.187	59870.23
618.543	59970.34
618.899	60113.39
619.255	60225.93
619.611	60262.09
619.967	60411.46
620.323	60509.99
620.678	60496.88
621.034	60583.44
621.39	60593.38
621.746	60726.48
622.101	61027.49
622.457	60793.15
622.812	61021.16
623.168	61014.16
623.523	61098.45
623.879	61226.13
624.234	61114.04
624.589	61288.5
624.945	61293.7
625.3	61370.08
625.655	61394.71
626.01	61389.06
626.365	61485.78
626.72	61510.64
627.075	61522.85
627.43	61584.54
627.785	61631.09
628.14	61609.4
628.495	61646.91
628.85	61711.99
629.205	61693.46
629.559	61782.73
629.914	61715.16
630.269	61753.35
630.623	61714.48
630.978	61683.52
631.332	61861.14
631.687	61828.15
632.041	61827.92
632.396	61810.97
632.75	61804.65
633.104	61898.65
633.459	61799.45
633.813	61792.67
634.167	61781.37
634.521	61789.73
634.875	61827.02
635.229	61765.33
635.583	61695.27
635.937	61729.17
636.291	61768.71
636.645	61769.62
636.999	61667.47
637.352	61727.81
637.706	61634.03
638.06	61787.02
638.413	61666.57
638.767	61570.3
639.121	61626.57
639.474	61538.89
639.828	61568.27
640.181	61519.68
640.534	61595.61
640.888	61463.41
641.241	61407.37
641.594	61394.26
641.947	61563.75
642.301	61401.04
642.654	61470.87
643.007	61433.13
643.36	61452.34
643.713	61407.37
644.066	61547.93
644.419	61306.13
644.771	61090.99
645.124	60878.57
645.477	60832.24
645.83	60775.07
646.182	60799.47
646.535	60735.52
646.888	60746.37
647.24	60667.95
647.593	60834.73
647.945	60702.3
648.298	60616.88
648.65	60563.77
649.002	60454.63
649.355	60431.57
649.707	60301.18
650.059	60287.17
650.411	60628.18
650.763	60755.41
651.115	61077.89
651.467	61012.35
651.819	60992.69
652.171	60907.49
652.523	60856.65
652.875	60861.62
653.227	60796.31
653.578	60929.41
653.93	60822.75
654.282	60707.5
654.633	60772.36
654.985	60782.07
655.337	60739.36
655.688	60741.17
656.039	60843.09
656.391	60626.37
656.742	60652.36
657.094	60629.31
657.445	60654.17
657.796	60685.13
658.147	60649.65
658.498	60615.75
658.849	60733.04
659.2	60594.06
659.551	60551.57
659.902	60742.75
660.253	60545.47
660.604	60611.68
660.955	60493.72
661.306	60609.42
661.656	60503.66
662.007	60563.55
662.358	60545.02
662.708	60617.11
663.059	60487.62
663.409	60342.76
663.76	60526.71
664.11	60507.28
664.461	60554.51
664.811	60615.75
665.161	60490.33
665.511	60503.89
665.862	60477.9
666.212	60525.81
666.562	60521.29
666.912	60462.53
667.262	60412.82
667.612	60385.47
667.962	60439.71
668.312	60415.98
668.662	60499.6
669.011	60438.81
669.361	60378.92
669.711	60434.74
670.06	60353.84
670.41	60257.34
670.76	60265.03
671.109	60391.35
671.459	60338.7
671.808	60304.12
672.157	60383.21
672.507	60190.9
672.856	60262.09
673.205	60365.81
673.554	60362.2
673.904	60201.07
674.253	60445.13
674.602	60217.12
674.951	59968.54
675.3	59840.86
675.649	60203.78
675.998	60192.71
676.346	60219.15
676.695	60277.23
677.044	60095.99
677.393	60188.42
677.741	60222.09
678.09	60145.25
678.438	60126.05
678.787	60168.76
679.135	60128.98
679.484	60034.3
679.832	60094.63
680.181	60011.92
680.529	60013.73
680.877	59955.66
681.225	59935.09
681.573	60106.84
681.922	59994.98
682.27	59921.08
682.618	59857.58
682.966	59781.42
683.314	59848.54
683.661	59775.55
684.009	59755.66
684.357	59745.49
684.705	59659.84
685.053	59719.96
685.4	59587.98
685.748	59542.78
686.095	59490.36
686.443	59398.61
686.79	59442.45
687.138	59456.91
687.485	59399.51
687.832	59407.2
688.18	59392.05
688.527	59310.25
688.874	59247.2
689.221	59239.52
689.568	59110.71
689.915	59051.5
690.262	59108.67
690.609	59031.39
690.956	58895.8
691.303	58922.91
691.65	58829.13
691.997	58772.64
692.344	58773.99
692.69	58651.51
693.037	58715.01
693.383	58507.33
693.73	58553.88
694.077	58382.59
694.423	58444.51
694.769	58341.91
695.116	58298.07
695.462	58195.93
695.808	58173.1
696.155	58159.54
696.501	57935.6
696.847	58034.35
697.193	57876.16
697.539	58034.12
697.885	57698.54
698.231	57686.79
698.577	57658.77
698.923	57564.53
699.269	57474.36
699.614	57470.3
699.96	57337.42
700.306	57390.98
700.651	57220.81
700.997	57177.65
701.342	57095.39
701.688	57074.83
702.033	56973.81
702.379	56941.27
702.724	56793.93
703.069	56897.43
703.415	56558.68
703.76	56651.34
704.105	56611.34
704.45	56581.05
704.795	56423.77
705.14	56285.02
705.485	56293.15
705.83	56160.73
706.175	56297.45
706.52	56066.94
706.865	56038.24
707.209	56005.25
707.554	56022.2
707.899	55900.62
708.243	55814.07
708.588	55732.94
708.932	55574.98
709.277	55581.31
709.621	55576.34
709.966	55412.72
710.31	55419.28
710.654	55347.19
710.998	55299.05
711.342	55307.64
711.687	55212.05
712.031	55101.09
712.375	55003.47
712.719	54935
713.063	54832.85
713.407	54949.46
713.75	54830.82
714.094	54828.56
714.438	54730.71
714.782	54659.52
715.125	54600.09
715.469	54665.4
715.812	54425.18
716.156	54455.46
716.499	54463.37
716.843	54400.32
717.186	54240.55
717.53	54353.32
717.873	54346.31
718.216	54223.15
718.559	54138.41
718.902	53948.36
719.246	53972.31
719.589	53940.22
719.932	53883.72
720.275	53859.32
720.617	53868.13
720.96	53749.72
721.303	53842.82
721.646	53811.18
721.989	53670.85
722.331	53679.44
722.674	53617.29
723.016	53564.41
723.359	53474.02
723.701	53508.59
724.044	53365.77
724.386	53244.19
724.729	53358.31
725.071	53383.62
725.413	53249.39
725.755	53189.73
726.097	53170.3
726.439	53047.81
726.782	52998.78
727.124	53177.98
727.465	53067.47
727.807	52897.08
728.149	52956.52
728.491	52835.39
728.833	52862.96
729.175	52876.75
729.516	52740.48
729.858	52674.94
730.199	52774.6
730.541	52810.53
730.882	52630.65
731.224	52672.68
731.565	52579.58
731.906	52508.17
732.248	52538
732.589	52379.81
732.93	52307.49
733.271	52422.97
733.612	52391.33
733.953	52505.68
734.294	52325.12
734.635	52253.03
734.976	52402.86
735.317	52276.54
735.658	52227.72
735.999	52074.28
736.339	52100.49
736.68	52149.76
737.021	52003.55
737.361	51939.37
737.702	52079.93
738.042	51871.12
738.383	51942.08
738.723	52090.55
739.063	51924.45
739.404	51999.03
739.744	51895.08
740.084	51833.16
740.424	51878.81
740.764	51737.11
741.104	51972.59
741.444	51715.87
741.784	51713.16
742.124	51763.55
742.464	51654.4
742.804	51655.76
743.143	51566.05
743.483	51651.47
743.823	51507.52
744.162	51474.97
744.502	51476.78
744.841	51362.89
745.181	51547.29
745.52	51343.68
745.86	51434.52
746.199	51362.43
746.538	51349.55
746.877	51609.89
747.216	51357.01
747.556	51254.19
747.895	51301.19
748.234	51284.7
748.573	51244.92
748.911	51188.88
749.25	51105.49
749.589	51013.97
749.928	51063.91
750.267	51049.45
750.605	51119.96
750.944	51023.91
751.283	51058.49
751.621	51058.26
751.96	50881.54
752.298	50860.08
752.636	50916.57
752.975	50734.65
753.313	50693.98
753.651	50900.75
753.989	50666.63
754.327	50745.73
754.666	50404.95
755.004	50602.91
