Data from 17-1564_FLMS001491_002.txt Node
Date: Thu Apr 19 16:31:23 BST 2018
User: hsy
Spectrometer: FLMS00149
Trigger mode: 0
Integration Time (sec): 1.000000E-2
Scans to average: 10
Electric dark correction enabled: true
Nonlinearity correction enabled: false
Boxcar width: 0
XAxis mode: Wavelengths
Number of Pixels in Spectrum: 2048
>>>>>Begin Spectral Data<<<<<
341.393	-4
341.776	-4
342.16	-4
342.543	-59.36
342.927	-44.22
343.31	-70.44
343.693	-58.46
344.077	-55.52
344.46	-54.62
344.843	-56.88
345.226	-39.93
345.61	-27.5
345.993	-31.34
346.376	-4.68
346.759	8.88
347.142	37.13
347.525	53.4
347.908	50.92
348.291	67.64
348.674	57.7
349.057	123.68
349.44	114.64
349.823	136.56
350.206	167.75
350.588	238.26
350.971	252.49
351.354	265.37
351.737	259.5
352.119	287.07
352.502	282.1
352.884	317.8
353.267	336.11
353.65	338.82
354.032	358.48
354.414	351.47
354.797	340.85
355.179	373.62
355.562	355.54
355.944	353.28
356.326	367.07
356.709	368.2
357.091	380.4
357.473	378.82
357.855	381.98
358.238	377.69
358.62	393.05
359.002	392.15
359.384	373.17
359.766	391.92
360.148	367.52
360.53	388.08
360.912	385.6
361.294	384.24
361.676	390.79
362.057	400.29
362.439	385.6
362.821	373.85
363.203	383.56
363.584	381.3
363.966	393.28
364.348	391.25
364.729	404.81
365.111	355.77
365.493	402.32
365.874	396.44
366.256	367.74
366.637	374.75
367.019	365.03
367.4	373.17
367.781	367.97
368.163	368.65
368.544	376.33
368.925	367.52
369.306	384.24
369.688	391.47
370.069	365.71
370.45	391.7
370.831	381.98
371.212	377.24
371.593	381.53
371.974	393.05
372.355	386.05
372.736	390.12
373.117	405.48
373.498	386.5
373.879	377.24
374.26	368.2
374.641	388.53
375.021	391.02
375.402	379.95
375.783	423.56
376.163	418.59
376.544	396.44
376.925	401.87
377.305	432.6
377.686	393.96
378.066	407.52
378.447	410.46
378.827	407.52
379.208	423.56
379.588	423.79
379.968	421.08
380.349	411.13
380.729	440.06
381.109	427.63
381.489	432.83
381.87	448.87
382.25	403.9
382.63	417.46
383.01	439.61
383.39	437.35
383.77	428.08
384.15	453.62
384.53	445.71
384.91	435.09
385.29	450.68
385.67	462.88
386.049	466.27
386.429	470.79
386.809	471.02
387.189	464.24
387.568	464.92
387.948	485.71
388.328	480.06
388.707	487.52
389.087	481.87
389.466	507.85
389.846	475.99
390.225	509.21
390.605	520.96
390.984	511.24
391.363	514.18
391.743	521.64
392.122	527.29
392.501	501.3
392.881	526.84
393.26	524.12
393.639	510.11
394.018	528.87
394.397	522.09
394.776	543.56
395.155	533.84
395.534	527.74
395.913	523.9
396.292	560.28
396.671	565.03
397.05	555.99
397.429	553.05
397.808	565.25
398.186	567.51
398.565	552.15
398.944	573.16
399.323	592.15
399.701	573.61
400.08	583.78
400.458	582.88
400.837	581.07
401.215	584.24
401.594	594.41
401.972	610.45
402.351	613.16
402.729	608.64
403.107	606.61
403.486	601.18
403.864	617.23
404.242	615.42
404.62	629.43
404.999	613.61
405.377	632.37
405.755	618.36
406.133	641.64
406.511	653.39
406.889	689.77
407.267	674.18
407.645	663.78
408.023	701.75
408.401	709.88
408.779	697.68
409.156	718.92
409.534	715.08
409.912	711.24
410.29	741.75
410.667	735.87
411.045	748.3
411.422	778.58
411.8	753.72
412.178	761.63
412.555	768.64
412.933	781.29
413.31	796.43
413.687	789.43
414.065	792.59
414.442	794.63
414.819	819.26
415.197	813.61
415.574	838.01
415.951	819.48
416.328	839.14
416.705	844.34
417.082	863.78
417.46	861.06
417.837	869.43
418.214	870.56
418.591	890.67
418.967	899.93
419.344	909.88
419.721	881.63
420.098	919.14
420.475	931.35
420.852	911.23
421.228	921.18
421.605	947.39
421.982	931.57
422.358	969.99
422.735	963.21
423.111	971.34
423.488	963.89
423.864	993.94
424.241	986.49
424.617	978.35
424.994	996.2
425.37	1005.24
425.746	1015.86
426.123	1017.67
426.499	1029.2
426.875	1049.31
427.251	1058.35
427.627	1074.39
428.003	1084.34
428.379	1103.09
428.756	1087.73
429.132	1118.01
429.507	1136.99
429.883	1152.36
430.259	1171.11
430.635	1182.86
431.011	1188.74
431.387	1223.54
431.763	1219.25
432.138	1227.61
432.514	1206.14
432.89	1245.24
433.265	1288.62
433.641	1272.13
434.016	1312.58
434.392	1318.23
434.767	1349.64
435.143	1331.11
435.518	1343.76
435.894	1380.37
436.269	1383.76
436.644	1381.28
437.02	1396.42
437.395	1384.67
437.77	1423.76
438.145	1442.74
438.52	1461.5
438.895	1494.95
439.271	1453.82
439.646	1488.39
440.021	1506.25
440.395	1496.53
440.77	1498.56
441.145	1517.54
441.52	1539.92
441.895	1515.51
442.27	1554.83
442.645	1570.88
443.019	1585.34
443.394	1564.78
443.769	1615.17
444.143	1596.41
444.518	1626.92
444.892	1584.66
445.267	1605.68
445.641	1636.64
446.016	1619.01
446.39	1645.9
446.764	1651.1
447.139	1639.58
447.513	1667.15
447.887	1662.17
448.262	1687.26
448.636	1682.51
449.01	1715.05
449.384	1741.49
449.758	1748.73
450.132	1795.5
450.506	1766.13
450.88	1789.63
451.254	1783.3
451.628	1837.31
452.002	1830.53
452.376	1858.33
452.75	1870.98
453.123	1887.7
453.497	1902.62
453.871	1932.9
454.244	1973.8
454.618	1956.63
454.992	2009.96
455.365	2009.28
455.739	2015.38
456.112	2041.37
456.486	2084.76
456.859	2121.14
457.232	2160.47
457.606	2143.29
457.979	2185.55
458.352	2232.78
458.725	2228.49
459.099	2267.81
459.472	2260.35
459.845	2319.78
460.218	2345.09
460.591	2331.76
460.964	2409.72
461.337	2378.54
461.71	2414.47
462.083	2460.12
462.456	2484.3
462.829	2487.91
463.201	2566.1
463.574	2559.78
463.947	2568.59
464.32	2614.92
464.692	2601.13
465.065	2676.16
465.438	2703.5
465.81	2719.77
466.183	2692.2
466.555	2767
466.928	2783.95
467.3	2803.61
467.672	2836.15
468.045	2909.37
468.417	2873.67
468.789	2928.36
469.161	2974.46
469.534	2959.54
469.906	3062.14
470.278	3067.33
470.65	3142.59
471.022	3150.95
471.394	3197.05
471.766	3241.57
472.138	3244.96
472.51	3322.02
472.882	3400.89
473.253	3367.67
473.625	3439.98
473.997	3494.44
474.369	3569.02
474.74	3591.16
475.112	3610.82
475.484	3691.95
475.855	3738.73
476.227	3802.68
476.598	3917.26
476.97	3884.71
477.341	4007.65
477.713	4079.51
478.084	4047.87
478.455	4213.07
478.827	4278.83
479.198	4285.38
479.569	4352.95
479.94	4472.72
480.311	4500.29
480.682	4588.65
481.053	4721.98
481.424	4798.81
481.795	4859.15
482.166	4879.04
482.537	4996.32
482.908	5043.78
483.279	5169.43
483.65	5247.39
484.021	5354.73
484.391	5440.61
484.762	5457.78
485.133	5500.49
485.503	5644.89
485.874	5762.18
486.244	5779.35
486.615	5925.11
486.985	5969.63
487.356	6129.4
487.726	6182.73
488.097	6342.5
488.467	6346.34
488.837	6515.38
489.207	6543.85
489.578	6698.88
489.948	6784.3
490.318	6879.66
490.688	6904.3
491.058	7001.69
491.428	7130.96
491.798	7262.48
492.168	7340.89
492.538	7468.35
492.908	7454.56
493.278	7703.14
493.648	7719.64
494.017	7811.62
494.387	7894.55
494.757	7923.48
495.126	8064.94
495.496	8170.93
495.866	8287.76
496.235	8307.65
496.605	8415.67
496.974	8487.53
497.344	8556
497.713	8624.02
498.082	8718.03
498.452	8842.32
498.821	8882.77
499.19	8970.68
499.559	9032.15
499.928	9107.4
500.298	9169.32
500.667	9248.42
501.036	9272.14
501.405	9430.56
501.774	9401.86
502.143	9530.67
502.512	9561.63
502.88	9689.76
503.249	9676.43
503.618	9717.1
503.987	9818.57
504.356	9879.13
504.724	9930.88
505.093	10049.52
505.462	10106.7
505.83	10133.59
506.199	10218.11
506.567	10396.86
506.936	10400.02
507.304	10510.53
507.672	10592.79
508.041	10612.22
508.409	10701.03
508.777	10806.79
509.145	10852.89
509.514	10831.88
509.882	10972.21
510.25	10960.23
510.618	11102.15
510.986	11102.6
511.354	11245.2
511.722	11325.42
512.09	11371.52
512.458	11462.14
512.826	11496.72
513.193	11556.83
513.561	11604.06
513.929	11691.29
514.297	11835.69
514.664	11928.8
515.032	11981.9
515.4	12062.13
515.767	12134.67
516.135	12202.01
516.502	12169.47
516.869	12322.68
517.237	12485.84
517.604	12450.59
517.972	12621.66
518.339	12613.75
518.706	12732.84
519.073	12857.36
519.44	12959.05
519.808	13073.17
520.175	13045.15
520.542	13290.12
520.909	13250.8
521.276	13347.52
521.643	13488.08
522.009	13605.81
522.376	13792.25
522.743	13779.37
523.11	13926.03
523.477	14112.69
523.843	14117.89
524.21	14313.82
524.577	14405.34
524.943	14480.59
525.31	14566.92
525.676	14816.86
526.043	14895.72
526.409	14951.99
526.776	15148.82
527.142	15208.94
527.508	15275.15
527.874	15511.08
528.241	15636.95
528.607	15652.31
528.973	15811.18
529.339	15836.49
529.705	16085.52
530.071	16181.11
530.437	16272.64
530.803	16460.43
531.169	16520.54
531.535	16521.22
531.901	16556.92
532.267	16736.81
532.632	16881.21
532.998	16892.96
533.364	17103.35
533.73	17155.55
534.095	17366.62
534.461	17333.4
534.826	17554.64
535.192	17500.18
535.557	17624.47
535.923	17694.75
536.288	17875.76
536.653	17943.78
537.019	17888.87
537.384	17986.26
537.749	18143.1
538.114	18204.11
538.479	18153.27
538.845	18300.83
539.21	18258.57
539.575	18464.22
539.94	18549.41
540.305	18514.61
540.67	18584.67
541.034	18627.15
541.399	18692.01
541.764	18825.34
542.129	18858.33
542.494	18875.51
542.858	19040.02
543.223	19033.47
543.587	19176.06
543.952	19073.92
544.316	19158.89
544.681	19187.59
545.045	19337.64
545.41	19466.45
545.774	19407.92
546.138	19555.49
546.503	19630.51
546.867	19553.45
547.231	19827.12
547.595	19832.32
547.959	19855.82
548.324	19962.26
548.688	20061.24
549.052	19984.63
549.416	20027.34
549.779	20054.01
550.143	20114.57
550.507	20282.93
550.871	20359.31
551.235	20346.43
551.599	20589.36
551.962	20510.27
552.326	20532.64
552.689	20694.44
553.053	20593.65
553.417	20796.13
553.78	20907.77
554.143	20940.08
554.507	21119.52
554.87	21151.6
555.234	21420.07
555.597	21163.13
555.96	21350.47
556.323	21462.11
556.686	21540.52
557.05	21615.77
557.413	21729.67
557.776	21754.98
558.139	22016.89
558.502	21968.98
558.865	22033.62
559.228	22271.58
559.59	22222.31
559.953	22392.7
560.316	22580.72
560.679	22713.82
561.041	22808.74
561.404	22929.64
561.767	23163.3
562.129	22938
562.492	23166.24
562.854	23324.43
563.217	23327.37
563.579	23403.52
563.941	23622.95
564.304	23819.11
564.666	23902.72
565.028	24069.49
565.39	24082.6
565.753	24310.17
566.115	24355.36
566.477	24549.71
566.839	24548.8
567.201	24900.88
567.563	24979.53
567.925	25093.42
568.287	25229.24
568.648	25332.51
569.01	25490.25
569.372	25673.52
569.734	25651.6
570.095	25996.22
570.457	26166.84
570.819	26151.47
571.18	26285.26
571.542	26537.23
571.903	26646.83
572.265	26769.99
572.626	26837.56
572.987	26967.05
573.349	27188.51
573.71	27308.96
574.071	27418.33
574.432	27594.15
574.794	27872.78
575.155	27781.94
575.516	27903.97
575.877	28120.91
576.238	28187.13
576.599	28382.6
576.96	28414.69
577.32	28631.63
577.681	28708.47
578.042	29054.45
578.403	29001.57
578.763	29144.62
579.124	29341.45
579.485	29583.7
579.845	29655.79
580.206	29714.32
580.566	29829.12
580.927	29876.57
581.287	30101.43
581.648	30195.43
582.008	30557.69
582.368	30713.16
582.728	30808.98
583.089	30939.6
583.449	31193.15
583.809	31387.27
584.169	31684.44
584.529	31580.71
584.889	32119.45
585.249	32120.58
585.609	32154.71
585.969	32848.7
586.329	32725.76
586.688	33056.38
587.048	33387.67
587.408	33651.62
587.768	33928.67
588.127	34057.93
588.487	34494.98
588.846	35114.4
589.206	35231.46
589.565	35539.25
589.925	36019.46
590.284	36284.99
590.643	36773.57
591.003	37195.48
591.362	37704.39
591.721	38038.62
592.08	38346.63
592.44	39008.08
592.799	39270.9
593.158	39661.85
593.517	40024.78
593.876	40575.05
594.235	40861.37
594.593	41251.87
594.952	41769.59
595.311	42153.31
595.67	42624.49
596.029	43381.53
596.387	43716.44
596.746	44242.75
597.104	44453.37
597.463	44901.71
597.822	45514.13
598.18	45967.68
598.538	46229.36
598.897	47009.46
599.255	47082.9
599.613	47939.6
599.972	48139.82
600.33	48535.52
600.688	48873.59
601.046	49248.04
601.404	49876.95
601.762	50035.59
602.12	50530.27
602.478	50857.94
602.836	51162.12
603.194	51344.94
603.552	51766.85
603.91	51858.82
604.268	52314.4
604.625	52573.38
604.983	52975.17
605.341	53066.47
605.698	53537.65
606.056	53870.52
606.413	53922.49
606.771	54374.01
607.128	54486.1
607.485	54654.45
607.843	54879.98
608.2	55171.05
608.557	55508.44
608.914	55583.69
609.272	55828.21
609.629	56129.67
609.986	56398.14
610.343	56414.18
610.7	56844.9
611.057	56915.86
611.414	56966.71
611.771	57252.12
612.127	57487.37
612.484	57590.19
612.841	57748.61
613.198	57866.57
613.554	57992.44
613.911	58250.29
614.267	58336.16
614.624	58450.74
614.98	58675.59
615.337	58904.06
615.693	58943.83
616.05	59023.83
616.406	59224.05
616.762	59232.86
617.118	59379.3
617.475	59410.71
617.831	59643.7
618.187	59703.13
618.543	59881.66
618.899	60011.37
619.255	60056.12
619.611	60146.29
619.967	60308.77
620.323	60366.62
620.678	60331.37
621.034	60391.25
621.39	60500.63
621.746	60540.85
622.101	60811.13
622.457	60699.94
622.812	60929.09
623.168	60987.62
623.523	60934.97
623.879	61129.99
624.234	61011.35
624.589	61153.04
624.945	61207.73
625.3	61318.23
625.655	61299.25
626.01	61345.12
626.365	61461.51
626.72	61405.24
627.075	61390.09
627.43	61462.18
627.785	61483.65
628.14	61546.47
628.495	61590.54
628.85	61594.61
629.205	61595.06
629.559	61656.53
629.914	61639.13
630.269	61744.89
630.623	61579.47
630.978	61598.22
631.332	61771.1
631.687	61746.92
632.041	61678.22
632.396	61737.88
632.75	61713.25
633.104	61819.91
633.459	61658.79
633.813	61670.77
634.167	61629.64
634.521	61737.88
634.875	61730.2
635.229	61708.05
635.583	61673.25
635.937	61657.21
636.291	61619.24
636.645	61638
636.999	61565.23
637.352	61648.17
637.706	61497.44
638.06	61612.69
638.413	61525.91
638.767	61476.65
639.121	61512.13
639.474	61453.6
639.828	61479.58
640.181	61441.84
640.534	61487.04
640.888	61415.18
641.241	61301.51
641.594	61423.99
641.947	61486.36
642.301	61362.52
642.654	61390.77
643.007	61318.91
643.36	61387.38
643.713	61289.53
644.066	61376.76
644.419	61225.13
644.771	61012.48
645.124	60725.71
645.477	60807.51
645.83	60658.81
646.182	60640.96
646.535	60585.14
646.888	60704.69
647.24	60579.27
647.593	60678.93
647.945	60642.32
648.298	60526.39
648.65	60447.52
649.002	60386.96
649.355	60316.9
649.707	60246.85
650.059	60249.33
650.411	60567.74
650.763	60657.23
651.115	60999.6
651.467	60883.44
651.819	60897.45
652.171	60835.08
652.523	60760.51
652.875	60771.13
653.227	60711.69
653.578	60853.84
653.93	60800.05
654.282	60680.06
654.633	60636.44
654.985	60620.17
655.337	60700.17
655.688	60647.97
656.039	60758.25
656.391	60451.81
656.742	60591.02
657.094	60543.79
657.445	60641.19
657.796	60588.08
658.147	60527.74
658.498	60520.51
658.849	60560.74
659.2	60528.42
659.551	60441.19
659.902	60595.09
660.253	60425.6
660.604	60514.86
660.955	60432.83
661.306	60526.61
661.656	60413.85
662.007	60444.13
662.358	60483.45
662.708	60492.49
663.059	60452.49
663.409	60373.85
663.76	60410.91
664.11	60417.24
664.461	60478.93
664.811	60411.82
665.161	60393.06
665.511	60396
665.862	60382.44
666.212	60362.33
666.562	60453.85
666.912	60370.23
667.262	60308.32
667.612	60307.19
667.962	60284.81
668.312	60229
668.662	60431.02
669.011	60391.93
669.361	60304.25
669.711	60283.23
670.06	60309.22
670.41	60210.92
670.76	60247.3
671.109	60325.04
671.459	60234.65
671.808	60207.3
672.157	60282.55
672.507	60147.64
672.856	60129.79
673.205	60188.09
673.554	60278.26
673.904	60101.54
674.253	60333.85
674.602	60202.33
674.951	59871.72
675.3	59752.4
675.649	60191.93
675.998	60173.63
676.346	60209.56
676.695	60177.47
677.044	60026.74
677.393	60058.15
677.741	60166.62
678.09	60045.72
678.438	59967.53
678.787	60050.02
679.135	59983.8
679.484	59881.21
679.832	60026.97
680.181	59879.4
680.529	59991.04
680.877	59894.99
681.225	59834.88
681.573	60028.1
681.922	59859.06
682.27	59843.92
682.618	59799.85
682.966	59739.74
683.314	59836.24
683.661	59747.65
684.009	59654.32
684.357	59603.93
684.705	59593.53
685.053	59586.3
685.4	59464.72
685.748	59477.38
686.095	59448.68
686.443	59376.59
686.79	59352.63
687.138	59452.52
687.485	59400.99
687.832	59250.94
688.18	59260.89
688.527	59170.94
688.874	59137.72
689.221	59096.82
689.568	59036.48
689.915	59018.63
690.262	59048.46
690.609	58977.95
690.956	58816.6
691.303	58851.63
691.65	58709.49
691.997	58690.96
692.344	58558.08
692.69	58510.4
693.037	58500.23
693.383	58398.54
693.73	58447.57
694.077	58248.03
694.423	58362.38
694.769	58260.01
695.116	58175.72
695.462	58090.29
695.808	57995.83
696.155	58046.45
696.501	57862.28
696.847	57920.81
697.193	57763.3
697.539	57787.25
697.885	57574.6
698.231	57551.78
698.577	57571.44
698.923	57458.67
699.269	57302.07
699.614	57263.65
699.96	57253.93
700.306	57246.7
700.651	57108.17
700.997	56949.99
701.342	57092.35
701.688	56913.83
702.033	56850.1
702.379	56815.3
702.724	56701.86
703.069	56759.71
703.415	56408.76
703.76	56473.61
704.105	56408.3
704.45	56301.87
704.795	56288.53
705.14	56168.54
705.485	56258.03
705.83	55915.44
706.175	56077.92
706.52	55916.11
706.865	55899.39
707.209	55807.42
707.554	55721.09
707.899	55781.88
708.243	55644.71
708.588	55563.13
708.932	55319.97
709.277	55454.88
709.621	55327.88
709.966	55124.04
710.31	55200.43
710.654	54995.69
710.998	55087.66
711.342	55078.4
711.687	54984.61
712.031	54832.75
712.375	54757.73
712.719	54708.01
713.063	54689.71
713.407	54830.49
713.75	54602.7
714.094	54564.29
714.438	54449.49
714.782	54555.7
715.125	54352.77
715.469	54426.21
715.812	54288.81
716.156	54252.43
716.499	54162.26
716.843	54232.77
717.186	53992.1
717.53	54132.66
717.873	54127.91
718.216	53947.13
718.559	53911.2
718.902	53646.12
719.246	53781.03
719.589	53658.77
719.932	53545.56
720.275	53694.03
720.617	53625.55
720.96	53547.59
721.303	53546.23
721.646	53633.24
721.989	53374.94
722.331	53405.22
722.674	53300.82
723.016	53323.64
723.359	53189.41
723.701	53267.82
724.044	53104.21
724.386	53034.16
724.729	53064.89
725.071	53129.3
725.413	52984.44
725.755	52870.77
726.097	52888.17
726.439	52756.2
726.782	52683.21
727.124	52875.29
727.465	52732.47
727.807	52647.5
728.149	52648.86
728.491	52592.36
728.833	52728.18
729.175	52571.8
729.516	52466.49
729.858	52432.14
730.199	52510.1
730.541	52406.6
730.882	52445.47
731.224	52377.9
731.565	52229.88
731.906	52255.65
732.248	52181.3
732.589	51955.99
732.93	51971.59
733.271	52006.61
733.612	52045.93
733.953	52121.19
734.294	51965.26
734.635	51920.29
734.976	52025.14
735.317	51951.7
735.658	51820.63
735.999	51756
736.339	51804.13
736.68	51802.32
737.021	51753.96
737.361	51561.2
737.702	51838.93
738.042	51636
738.383	51672.61
738.723	51817.69
739.063	51623.12
739.404	51678.26
739.744	51696.79
740.084	51592.84
740.424	51543.8
740.764	51448.44
741.104	51543.12
741.444	51396.69
741.784	51392.39
742.124	51445.05
742.464	51369.79
742.804	51283.24
743.143	51317.82
743.483	51345.39
743.823	51213.41
744.162	51176.8
744.502	51209.8
744.841	50998.28
745.181	51178.84
745.52	51105.17
745.86	51066.52
746.199	51026.53
746.538	51047.54
746.877	51151.49
747.216	51075.56
747.556	51049.58
747.895	51089.12
748.234	51021.78
748.573	51038.73
748.911	50839.64
749.25	50850.71
749.589	50816.36
749.928	50841.9
750.267	50903.82
750.605	50676.03
750.944	50738.62
751.283	50617.72
751.621	50735.01
751.96	50483.71
752.298	50560.55
752.636	50486.65
752.975	50459.99
753.313	50346.77
753.651	50582.24
753.989	50217.73
754.327	50356.26
754.666	50109.26
755.004	50273.78
755.342	50416.82
