Data from 17-1436_FLMS001491_003.txt Node
Date: Thu Apr 19 16:29:00 BST 2018
User: hsy
Spectrometer: FLMS00149
Trigger mode: 0
Integration Time (sec): 1.000000E-2
Scans to average: 10
Electric dark correction enabled: true
Nonlinearity correction enabled: false
Boxcar width: 0
XAxis mode: Wavelengths
Number of Pixels in Spectrum: 2048
>>>>>Begin Spectral Data<<<<<
341.393	-2.27
341.776	-2.27
342.16	-2.27
342.543	-56.06
342.927	-48.37
343.31	-66.45
343.693	-70.29
344.077	-80.46
344.46	-76.4
344.843	-72.55
345.226	-47.24
345.61	-20.13
345.993	4.28
346.376	-4.08
346.759	18.06
347.142	25.75
347.525	56.03
347.908	51.06
348.291	92.41
348.674	89.7
349.057	100.32
349.44	127.67
349.823	144.61
350.206	155.69
350.588	226.19
350.971	237.27
351.354	272.07
351.737	266.42
352.119	280.43
352.502	282.46
352.884	319.53
353.267	332.63
353.65	326.53
354.032	310.26
354.414	341.67
354.797	350.94
355.179	369.02
355.562	367.21
355.944	351.62
356.326	374.67
356.709	369.02
357.091	376.25
357.473	384.61
357.855	379.18
358.238	372.18
358.62	369.47
359.002	351.62
359.384	380.09
359.766	362.69
360.148	368.79
360.53	383.93
360.912	368.34
361.294	393.42
361.676	372.18
362.057	362.69
362.439	377.6
362.821	383.25
363.203	374.67
363.584	377.38
363.966	372.63
364.348	365.85
364.729	364.04
365.111	360.65
365.493	378.06
365.874	353.42
366.256	357.72
366.637	351.62
367.019	340.09
367.4	366.98
367.781	369.47
368.163	360.2
368.544	371.05
368.925	360.88
369.306	379.41
369.688	357.72
370.069	361.11
370.45	364.04
370.831	365.63
371.212	360.88
371.593	355.91
371.974	363.59
372.355	391.16
372.736	360.43
373.117	387.55
373.498	375.8
373.879	376.93
374.26	372.18
374.641	364.95
375.021	388.9
375.402	386.64
375.783	403.37
376.163	385.29
376.544	401.56
376.925	385.96
377.305	391.84
377.686	379.86
378.066	406.98
378.447	402.01
378.827	402.69
379.208	403.37
379.588	392.97
379.968	411.73
380.349	421.44
380.729	392.74
381.109	415.79
381.489	402.69
381.87	418.05
382.25	416.02
382.63	446.98
383.01	411.27
383.39	429.13
383.77	439.75
384.15	419.86
384.53	432.06
384.91	461.89
385.29	427.77
385.67	442.69
386.049	439.3
386.429	458.96
386.809	437.71
387.189	459.41
387.568	456.47
387.948	453.31
388.328	432.52
388.707	462.35
389.087	484.72
389.466	470.93
389.846	478.84
390.225	501.67
390.605	454.89
390.984	485.4
391.363	470.48
391.743	489.01
392.122	474.1
392.501	502.12
392.881	492.85
393.26	487.66
393.639	486.53
394.018	497.37
394.397	509.8
394.776	509.8
395.155	507.54
395.534	523.59
395.913	534.89
396.292	529.92
396.671	525.4
397.05	535.57
397.429	510.03
397.808	529.24
398.186	536.69
398.565	562
398.944	541.21
399.323	543.93
399.701	567.2
400.08	556.58
400.458	562.68
400.837	564.94
401.215	596.81
401.594	565.85
401.972	588.22
402.351	571.72
402.729	601.1
403.107	606.75
403.486	618.95
403.864	594.09
404.242	613.53
404.62	634.32
404.999	618.73
405.377	632.96
405.755	602.46
406.133	623.02
406.511	625.28
406.889	646.3
407.267	651.95
407.645	664.38
408.023	663.7
408.401	685.17
408.779	685.39
409.156	688.33
409.534	685.62
409.912	693.75
410.29	699.85
410.667	714.77
411.045	737.14
411.422	729.91
411.8	770.81
412.178	748.21
412.555	727.2
412.933	771.49
413.31	765.39
413.687	779.63
414.065	774.88
414.442	795.22
414.819	779.17
415.197	795.9
415.574	828.44
415.951	835.9
416.328	819.17
416.705	843.13
417.082	856.69
417.46	863.01
417.837	851.04
418.214	867.99
418.591	854.88
418.967	885.61
419.344	892.17
419.721	900.08
420.098	876.8
420.475	924.48
420.852	911.15
421.228	897.36
421.605	922.9
421.982	962.67
422.358	914.54
422.735	958.6
423.111	950.47
423.488	972.39
423.864	964.25
424.241	986.85
424.617	984.14
424.994	974.65
425.37	1009.22
425.746	996.12
426.123	1010.35
426.499	1041.77
426.875	1019.62
427.251	1018.49
427.627	1073.63
428.003	1072.5
428.379	1089
428.756	1087.19
429.132	1109.34
429.507	1138.71
429.883	1121.99
430.259	1124.93
430.635	1174.19
431.011	1147.53
431.387	1194.53
431.763	1215.77
432.138	1226.39
432.514	1224.13
432.89	1207.19
433.265	1283.57
433.641	1287.41
434.016	1254.42
434.392	1308.88
434.767	1312.95
435.143	1325.15
435.518	1333.74
435.894	1350.23
436.269	1365.83
436.644	1372.15
437.02	1398.37
437.395	1398.14
437.77	1414.19
438.145	1432.72
438.52	1449.21
438.895	1476.78
439.271	1465.48
439.646	1457.57
440.021	1489.66
440.395	1471.81
440.77	1488.53
441.145	1513.62
441.52	1535.99
441.895	1552.94
442.27	1549.1
442.645	1539.83
443.019	1592.03
443.394	1544.58
443.769	1571.92
444.143	1555.88
444.518	1589.1
444.892	1590.9
445.267	1576.67
445.641	1602.43
446.016	1638.36
446.39	1659.15
446.764	1637
447.139	1657.12
447.513	1626.84
447.887	1648.53
448.262	1679.26
448.636	1697.57
449.01	1693.27
449.384	1722.43
449.758	1761.3
450.132	1729.43
450.506	1766.49
450.88	1775.98
451.254	1787.28
451.628	1824.12
452.002	1827.73
452.376	1831.35
452.75	1855.98
453.123	1866.15
453.497	1871.58
453.871	1909.77
454.244	1952.02
454.618	1956.77
454.992	1998.8
455.365	1998.35
455.739	2020.5
456.112	2044.9
456.486	2077.67
456.859	2077.45
457.232	2159.03
457.606	2140.27
457.979	2129.2
458.352	2213.71
458.725	2242.86
459.099	2250.55
459.472	2279.25
459.845	2322.41
460.218	2311.11
460.591	2313.37
460.964	2350.88
461.337	2415.74
461.71	2428.4
462.083	2478.56
462.456	2480.37
462.829	2495.97
463.201	2565.34
463.574	2495.06
463.947	2582.97
464.32	2612.8
464.692	2640.14
465.065	2643.98
465.438	2675.85
465.81	2712.91
466.183	2700.71
466.555	2763.76
466.928	2813.02
467.3	2804.66
467.672	2821.61
468.045	2887.59
468.417	2868.61
468.789	2914.94
469.161	2975.27
469.534	3022.51
469.906	3050.08
470.278	3087.59
470.65	3104.09
471.022	3178.43
471.394	3191.31
471.766	3231.77
472.138	3264.76
472.51	3320.12
472.882	3389.73
473.253	3397.86
473.625	3434.7
473.997	3534.36
474.369	3511.98
474.74	3581.59
475.112	3634.92
475.484	3669.49
475.855	3744.52
476.227	3799.21
476.598	3882.14
476.97	3923.72
477.341	3959.66
477.713	3998.75
478.084	4042.82
478.455	4198.07
478.827	4217.95
479.198	4364.62
479.569	4337.27
479.94	4461.11
480.311	4501.56
480.682	4611.84
481.053	4717.83
481.424	4761.67
481.795	4832.18
482.166	4931.38
482.537	4968.22
482.908	5090.02
483.279	5121.89
483.65	5274.65
484.021	5312.16
484.391	5431.48
484.762	5458.15
485.133	5514.64
485.503	5622.89
485.874	5696.56
486.244	5799.38
486.615	5876.67
486.985	5978.59
487.356	6104.23
487.726	6142.2
488.097	6347.84
488.467	6336.54
488.837	6486.37
489.207	6618.57
489.578	6676.65
489.948	6735.4
490.318	6858.34
490.688	6900.14
491.058	7045
491.428	7166.58
491.798	7228.72
492.168	7351.88
492.538	7470.07
492.908	7495.83
493.278	7648.15
493.648	7682.72
494.017	7808.82
494.387	7931.08
494.757	8034.8
495.126	8105.99
495.496	8162.71
495.866	8291.07
496.235	8361.35
496.605	8520.89
496.974	8517.05
497.344	8626.2
497.713	8694.22
498.082	8794.33
498.452	8874.55
498.821	8972.18
499.19	9042.46
499.559	9169.01
499.928	9161.78
500.298	9211.5
500.667	9361.32
501.036	9429.79
501.405	9529.9
501.774	9542.56
502.143	9701.65
502.512	9736.23
502.88	9899.84
503.249	9876.11
503.618	9939.84
503.987	9968.54
504.356	10136.67
504.724	10183.9
505.093	10257.8
505.462	10384.8
505.83	10360.62
506.199	10496.21
506.567	10663.89
506.936	10616.2
507.304	10794.28
507.672	10887.16
508.041	10912.02
508.409	11051.45
508.777	11184.55
509.145	11250.31
509.514	11222.06
509.882	11362.85
510.25	11410.53
510.618	11544.77
510.986	11544.77
511.354	11690.07
511.722	11797.87
512.09	11878.09
512.458	11942.04
512.826	12097.75
513.193	12100.01
513.561	12177.29
513.929	12222.94
514.297	12457.29
514.664	12530.05
515.032	12567.11
515.4	12664.74
515.767	12783.38
516.135	12799.42
516.502	12816.37
516.869	12965.07
517.237	13090.49
517.604	13096.82
517.972	13333.19
518.339	13323.7
518.706	13402.12
519.073	13515.34
519.44	13606.63
519.808	13765.05
520.175	13794.65
520.542	14021.09
520.909	14108.32
521.276	14168.65
521.643	14299.95
522.009	14409.1
522.376	14554.86
522.743	14619.49
523.11	14807.05
523.477	14970.89
523.843	14996.43
524.21	15237.1
524.577	15373.82
524.943	15398
525.31	15595.06
525.676	15721.83
526.043	15805.45
526.409	16017.64
526.776	16096.96
527.142	16210.18
527.508	16351.19
527.874	16536.05
528.241	16668.93
528.607	16607.01
528.973	16937.17
529.339	16918.19
529.705	17185.07
530.071	17313.2
530.437	17299.64
530.803	17464.84
531.169	17678.84
531.535	17606.08
531.901	17755.45
532.267	17901.66
532.632	17944.6
532.998	18105.95
533.364	18246.29
533.73	18221.88
534.095	18484.7
534.461	18364.25
534.826	18617.8
535.192	18690.79
535.557	18908.42
535.923	18859.38
536.288	19003.78
536.653	19185.02
537.019	19130.56
537.384	19174.85
537.749	19308.86
538.114	19376.65
538.479	19338.23
538.845	19545.69
539.21	19454.39
539.575	19616.19
539.94	19648.73
540.305	19770.31
540.67	19910.87
541.034	20009.63
541.399	19940.48
541.764	20047.59
542.129	20077.65
542.494	20143.19
542.858	20334.37
543.223	20265.22
543.587	20452.78
543.952	20436.28
544.316	20394.25
544.681	20569.39
545.045	20769.61
545.41	20652.78
545.774	20770.97
546.138	20810.06
546.503	20952.43
546.867	20879.44
547.231	21076.49
547.595	21095.02
547.959	21278.97
548.324	21237.39
548.688	21233.33
549.052	21474.9
549.416	21422.93
549.779	21517.84
550.143	21480.78
550.507	21706.31
550.871	21762.8
551.235	21730.04
551.599	21957.37
551.962	21887.09
552.326	22000.54
552.689	22073.98
553.053	22024.94
553.417	22164.37
553.78	22419.28
554.143	22485.95
554.507	22511.03
554.87	22566.62
555.234	22728.65
555.597	22752.16
555.96	22813.4
556.323	22909.67
556.686	22975.2
557.05	23238.92
557.413	23231.69
557.776	23286.38
558.139	23469.2
558.502	23566.82
558.865	23623.77
559.228	23885.69
559.59	23846.36
559.953	23936.08
560.316	24238.22
560.679	24230.31
561.041	24355.5
561.404	24600.24
561.767	24684.08
562.129	24665.55
562.492	24983.74
562.854	24967.01
563.217	25086.33
563.579	25184.63
563.941	25385.08
564.304	25516.38
564.666	25647.9
565.028	25703.94
565.39	25838.18
565.753	26093.99
566.115	26071.84
566.477	26281.1
566.839	26282.91
567.201	26669.34
567.563	26704.14
567.925	26926.74
568.287	27023.46
568.648	27077.47
569.01	27294.64
569.372	27519.71
569.734	27569.88
570.095	27752.48
570.457	27996.31
570.819	27972.13
571.18	28067.5
571.542	28429.29
571.903	28382.06
572.265	28633.58
572.626	28829.06
572.987	28891.66
573.349	29110.18
573.71	29277.86
574.071	29402.15
574.432	29606.44
574.794	29699.09
575.155	29770.05
575.516	29830.16
575.877	30023.83
576.238	30129.14
576.599	30267.66
576.96	30444.38
577.32	30687.54
577.681	30639.41
578.042	30965.5
578.403	30962.56
578.763	31068.1
579.124	31282.78
579.485	31489.33
579.845	31588.76
580.206	31654.07
580.566	31734.52
580.927	31797.34
581.287	32046.83
581.648	32122.53
582.008	32259.7
582.368	32480.94
582.728	32682.06
583.089	32686.13
583.449	32775.62
583.809	32899.69
584.169	33232.33
584.529	33199.11
584.889	33697.86
585.249	33498.99
585.609	33456.06
585.969	33922.71
586.329	33945.53
586.688	34297.16
587.048	34294.68
587.408	34527.21
587.768	34620.54
588.127	34880.2
588.487	34993.64
588.846	35441.99
589.206	35353.63
589.565	35568.54
589.925	36014.41
590.284	36019.15
590.643	36347.96
591.003	36595.41
591.362	37010.99
591.721	37163.53
592.08	37305.9
592.44	37566.91
592.799	37607.58
593.158	37940.23
593.517	38068.82
593.876	38426.77
594.235	38586.99
594.593	38828.34
594.952	39118.05
595.311	39349.91
595.67	39544.93
596.029	39906.06
596.387	40112.83
596.746	40555.98
597.104	40447.96
597.463	40720.27
597.822	41127.72
598.18	41199.13
598.538	41308.05
598.897	41845.44
599.255	41687.7
599.613	42337.18
599.972	42388.48
600.33	42652.42
600.688	42758.41
601.046	43060.77
601.404	43401.56
601.762	43572.85
602.12	43835.67
602.478	44002.22
602.836	44317.24
603.194	44218.48
603.552	44573.5
603.91	44780.96
604.268	44943.89
604.625	45138.69
604.983	45557.66
605.341	45403.09
605.698	45785.9
606.056	46178.66
606.413	46093.92
606.771	46474.24
607.128	46514.02
607.485	46656.39
607.843	46729.38
608.2	47059.77
608.557	47351.51
608.914	47335.92
609.272	47713.31
609.629	47984.71
609.986	48113.75
610.343	48042.11
610.7	48410.92
611.057	48406.85
611.414	48486.39
611.771	48753.05
612.127	48833.05
612.484	49081.41
612.841	49229.65
613.198	49331.12
613.554	49300.84
613.911	49653.37
614.267	49720.94
614.624	49730.2
614.98	49788.51
615.337	50236.63
615.693	50343.75
616.05	50171.1
616.406	50517.98
616.762	50528.83
617.118	50595.27
617.475	50573.57
617.831	50811.31
618.187	50886.11
618.543	50972.2
618.899	51208.36
619.255	51172.43
619.611	51136.72
619.967	51327.9
620.323	51504.39
620.678	51392.31
621.034	51392.53
621.39	51426.66
621.746	51580.32
622.101	51812.18
622.457	51490.61
622.812	51673.66
623.168	51870.71
623.523	51874.1
623.879	51947.77
624.234	51833.88
624.589	51950.03
624.945	51979.86
625.3	52088.56
625.655	52029.35
626.01	52074.32
626.365	52006.75
626.72	52083.81
627.075	52108.67
627.43	52126.52
627.785	52088.33
628.14	52078.39
628.495	52148.9
628.85	52241.32
629.205	52170.82
629.559	52183.47
629.914	52114.55
630.269	52184.15
630.623	52043.59
630.978	51978.96
631.332	52147.09
631.687	52266.41
632.041	52144.38
632.396	52072.74
632.75	52065.51
633.104	52045.85
633.459	51907.1
633.813	52009.92
634.167	51935.8
634.521	51886.31
634.875	51909.13
635.229	51889.24
635.583	51796.14
635.937	51722.47
636.291	51731.73
636.645	51766.99
636.999	51600.66
637.352	51769.7
637.706	51550.04
638.06	51618.74
638.413	51590.27
638.767	51438.18
639.121	51510.5
639.474	51431.4
639.828	51484.28
640.181	51342.14
640.534	51496.71
640.888	51289.03
641.241	51172.2
641.594	51245.19
641.947	51307.34
642.301	51182.37
642.654	51248.36
643.007	51146.66
643.36	51150.05
643.713	51030.51
644.066	51265.76
644.419	50985.99
644.771	50643.85
645.124	50356.63
645.477	50221.94
645.83	50194.82
646.182	50068.73
646.535	49878.67
646.888	50029.63
647.24	49959.12
647.593	50086.8
647.945	49939.24
648.298	49873.7
648.65	49699.02
649.002	49483.88
649.355	49419.03
649.707	49330.44
650.059	49462.41
650.411	49896.98
650.763	49964.55
651.115	50428.26
651.467	50250.87
651.819	50288.61
652.171	50211.55
652.523	50142.17
652.875	50137.65
653.227	49968.62
653.578	50227.59
653.93	49999.12
654.282	49930.65
654.633	50018.33
654.985	49991.67
655.337	49943.31
655.688	49849.07
656.039	50079.57
656.391	49630.32
656.742	49697.44
657.094	49826.92
657.445	49752.12
657.796	49810.88
658.147	49776.53
658.498	49798.45
658.849	49873.02
659.2	49789.41
659.551	49553.03
659.902	49804.1
660.253	49607.5
660.604	49761.39
660.955	49567.72
661.306	49763.65
661.656	49491.34
662.007	49642.97
662.358	49556.2
662.708	49635.97
663.059	49545.8
663.409	49217
663.76	49643.2
664.11	49572.69
664.461	49687.49
664.811	49668.28
665.161	49475.97
665.511	49409.31
665.862	49490.89
666.212	49597.55
666.562	49565.46
666.912	49484.56
667.262	49294.96
667.612	49352.59
667.962	49414.05
668.312	49240.27
668.662	49516.88
669.011	49385.58
669.361	49259.93
669.711	49357.11
670.06	49259.71
670.41	49273.27
670.76	49223.1
671.109	49346.71
671.459	49346.94
671.808	49345.81
672.157	49385.81
672.507	49101.29
672.856	49107.4
673.205	49191.23
673.554	49305.58
673.904	48963.22
674.253	49402.75
674.602	49198.24
674.951	48839.15
675.3	48451.14
675.649	49207.28
675.998	49021.07
676.346	49092.71
676.695	49220.39
677.044	48920.96
677.393	48979.71
677.741	49108.07
678.09	49022.65
678.438	48884.8
678.787	49051.58
679.135	48927.96
679.484	48591.93
679.832	48869.89
680.181	48784.92
680.529	48786.27
680.877	48666.5
681.225	48601.65
681.573	48860.17
681.922	48588.54
682.27	48546.73
682.618	48413.4
682.966	48380.86
683.314	48487.75
683.661	48334.31
684.009	48317.13
684.357	48226.06
684.705	48025.62
685.053	48039.4
685.4	47960.53
685.748	47826.07
686.095	47801.67
686.443	47671.5
686.79	47584.05
687.138	47622.69
687.485	47576.14
687.832	47504.5
688.18	47512.86
688.527	47430.15
688.874	47374.33
689.221	47363.03
689.568	47087.34
689.915	47051.63
690.262	47008.24
690.609	47016.38
690.956	46747.01
691.303	46858.87
691.65	46575.03
691.997	46541.14
692.344	46379.78
692.69	46197.42
693.037	46334.36
693.383	46078.55
693.73	46244.65
694.077	45953.35
694.423	45848.05
694.769	45802.17
695.116	45580.26
695.462	45549.52
695.808	45490.32
696.155	45517.89
696.501	45163.54
696.847	45186.82
697.193	45101.85
697.539	45109.31
697.885	44627.96
698.231	44734.63
698.577	44665.93
698.923	44629.55
699.269	44287.41
699.614	44395.88
699.96	44177.81
700.306	44195.21
700.651	44032.05
700.997	43830.02
701.342	43775.78
701.688	43590.25
702.033	43469.58
702.379	43649.01
702.724	43403.82
703.069	43431.84
703.415	42964.73
703.76	43061.45
704.105	43036.14
704.45	42868.24
704.795	42804.96
705.14	42584.18
705.485	42721.35
705.83	42313.68
706.175	42585.08
706.52	42453.78
706.865	42198.42
707.209	42042.04
707.554	41977.87
707.899	42026.45
708.243	41726.35
708.588	41746.46
708.932	41504.43
709.277	41697.19
709.621	41308.05
709.966	41329.29
710.31	41291.33
710.654	40955.52
710.998	40949.87
711.342	41209.98
711.687	40899.02
712.031	40861.51
712.375	40755.3
712.719	40617.22
713.063	40476.21
713.407	40652.48
713.75	40436.89
714.094	40400.28
714.438	40249.78
714.782	40207.06
715.125	40069.89
715.469	40178.59
715.812	39652.05
716.156	39858.37
716.499	39730.01
716.843	39903.34
717.186	39640.98
717.53	39619.96
717.873	39769.34
718.216	39622.9
718.559	39544.48
718.902	39240.54
719.246	39295.68
719.589	39073.08
719.932	39090.48
720.275	39070.82
720.617	39051.84
720.96	38866.53
721.303	38794.45
721.646	38937.72
721.989	38674.22
722.331	38715.13
722.674	38556.26
723.016	38662.7
723.359	38366.43
723.701	38487.56
724.044	38443.49
724.386	38210.05
724.729	38369.15
725.071	38387.45
725.413	38328.7
725.755	38100.68
726.097	37983.17
726.439	37857.52
726.782	37800.12
727.124	38029.27
727.465	37843.06
727.807	37675.61
728.149	37833.12
728.491	37655.27
728.833	37740.69
729.175	37583.86
729.516	37448.72
729.858	37363.75
730.199	37567.81
730.541	37423.86
730.882	37234.49
731.224	37274.94
731.565	37090.08
731.906	37114.04
732.248	37205.34
732.589	37066.58
732.93	36949.75
733.271	37007.37
733.612	36956.53
733.953	37013.93
734.294	36838.79
734.635	36795.4
734.976	36872.69
735.317	36679.47
735.658	36777.32
735.999	36703.88
736.339	36689.64
736.68	36526.26
737.021	36568.52
737.361	36372.81
737.702	36668.17
738.042	36459.14
738.383	36387.28
738.723	36446.94
739.063	36234.29
739.404	36407.39
739.744	36240.84
740.084	36051.47
740.424	36183.22
740.764	35983.67
741.104	36217.11
741.444	35867.52
741.784	35921.3
742.124	35965.82
742.464	35843.34
742.804	35763.34
743.143	35795.65
743.483	35756.11
743.823	35527.87
744.162	35654.87
744.502	35774.64
744.841	35570.58
745.181	35680.86
745.52	35671.82
745.86	35519.5
746.199	35504.82
746.538	35526.96
746.877	35501.65
747.216	35439.51
747.556	35253.97
747.895	35417.36
748.234	35239.74
748.573	35199.29
748.911	35064.15
749.25	35083.36
749.589	34763.82
749.928	34946.64
750.267	34834.1
750.605	34759.52
750.944	34731.28
751.283	34681.11
751.621	34816.02
751.96	34631.39
752.298	34475.24
752.636	34413.32
752.975	34364.96
753.313	34348.91
753.651	34519.98
753.989	34298.07
754.327	34376.26
754.666	34093.33
755.004	34077.73
