Data from 17-1436_FLMS001491_004.txt Node
Date: Thu Apr 19 16:29:02 BST 2018
User: hsy
Spectrometer: FLMS00149
Trigger mode: 0
Integration Time (sec): 1.000000E-2
Scans to average: 10
Electric dark correction enabled: true
Nonlinearity correction enabled: false
Boxcar width: 0
XAxis mode: Wavelengths
Number of Pixels in Spectrum: 2048
>>>>>Begin Spectral Data<<<<<
341.393	5.4
341.776	5.4
342.16	5.4
342.543	-59.46
342.927	-75.96
343.31	-61.95
343.693	-65.34
344.077	-71.66
344.46	-75.05
344.843	-61.04
345.226	-44.77
345.61	-46.13
345.993	-33.7
346.376	-13.81
346.759	32.29
347.142	27.77
347.525	52.17
347.908	55.34
348.291	72.06
348.674	123.58
349.057	110.25
349.44	124.04
349.823	133.75
350.206	167.65
350.588	227.76
350.971	254.88
351.354	255.78
351.737	261.89
352.119	302.56
352.502	294.2
352.884	312.96
353.267	311.38
353.65	316.8
354.032	339.62
354.414	331.26
354.797	355.22
355.179	368.32
355.562	357.25
355.944	373.07
356.326	393.86
356.709	370.81
357.091	377.59
357.473	380.07
357.855	375.33
358.238	380.53
358.62	390.7
359.002	360.64
359.384	375.33
359.766	386.18
360.148	386.4
360.53	361.54
360.912	366.29
361.294	384.82
361.676	360.64
362.057	385.27
362.439	364.93
362.821	365.39
363.203	371.71
363.584	368.32
363.966	375.56
364.348	338.49
364.729	357.93
365.111	365.39
365.493	360.41
365.874	355.67
366.256	351.37
366.637	376.01
367.019	356.57
367.4	366.97
367.781	371.94
368.163	359.96
368.544	355.89
368.925	357.48
369.306	392.96
369.688	362.9
370.069	366.74
370.45	358.15
370.831	371.71
371.212	359.74
371.593	362.22
371.974	378.27
372.355	355.22
372.736	353.41
373.117	371.26
373.498	394.09
373.879	361.54
374.26	372.17
374.641	363.58
375.021	390.47
375.402	392.5
375.783	368.78
376.163	389.34
376.544	397.25
376.925	391.37
377.305	402
377.686	381.2
378.066	410.81
378.447	414.42
378.827	414.2
379.208	419.4
379.588	408.1
379.968	414.65
380.349	393.63
380.729	417.36
381.109	406.74
381.489	399.06
381.87	435.44
382.25	416.91
382.63	417.81
383.01	417.59
383.39	434.08
383.77	441.77
384.15	430.24
384.53	425.27
384.91	440.19
385.29	428.66
385.67	426.4
386.049	453.29
386.429	450.81
386.809	472.73
387.189	432.73
387.568	466.63
387.948	449.9
388.328	452.62
388.707	466.17
389.087	474.99
389.466	482.22
389.846	469.79
390.225	451.71
390.605	485.38
390.984	484.03
391.363	491.71
391.743	470.24
392.122	481.99
392.501	489.68
392.881	493.07
393.26	514.31
393.639	523.35
394.018	499.85
394.397	499.62
394.776	529
395.155	511.14
395.534	513.4
395.913	519.96
396.292	517.47
396.671	531.26
397.05	538.49
397.429	521.09
397.808	527.87
398.186	532.16
398.565	553.18
398.944	544.82
399.323	541.88
399.701	550.01
400.08	555.89
400.458	561.76
400.837	571.71
401.215	576.23
401.594	579.84
401.972	588.43
402.351	571.93
402.729	582.1
403.107	587.53
403.486	594.98
403.864	624.59
404.242	610.35
404.62	598.6
404.999	620.52
405.377	622.55
405.755	609
406.133	656.23
406.511	632.5
406.889	644.25
407.267	609.67
407.645	661.65
408.023	677.24
408.401	671.14
408.779	686.73
409.156	685.38
409.534	677.24
409.912	692.16
410.29	696.22
410.667	705.04
411.045	736.9
411.422	739.16
411.8	732.83
412.178	749.56
412.555	757.47
412.933	769.44
413.31	785.71
413.687	787.97
414.065	768.09
414.442	762.66
414.819	801.53
415.197	805.15
415.574	827.29
415.951	813.96
416.328	829.55
416.705	809.67
417.082	837.01
417.46	839.5
417.837	853.73
418.214	875.65
418.591	862.55
418.967	886.73
419.344	882.89
419.721	894.19
420.098	860.51
420.475	910
420.852	921.53
421.228	923.11
421.605	920.85
421.982	925.15
422.358	945.71
422.735	949.33
423.111	981.41
423.488	974.64
423.864	986.39
424.241	984.35
424.617	990.91
424.994	999.04
425.37	999.04
425.746	1013.05
426.123	992.94
426.499	1038.59
426.875	1011.24
427.251	1050.57
427.627	1066.38
428.003	1078.14
428.379	1094.41
428.756	1089.43
429.132	1104.12
429.507	1120.85
429.883	1102.54
430.259	1135.99
430.635	1145.93
431.011	1150
431.387	1174.63
431.763	1194.74
432.138	1204.69
432.514	1232.03
432.89	1201.07
433.265	1256.66
433.641	1251.46
434.016	1272.03
434.392	1305.7
434.767	1325.59
435.143	1301.86
435.518	1306.15
435.894	1345.47
436.269	1374.17
436.644	1391.8
437.02	1373.72
437.395	1391.12
437.77	1420.5
438.145	1410.33
438.52	1439.93
438.895	1446.71
439.271	1457.79
439.646	1491.46
440.021	1451.46
440.395	1471.8
440.77	1492.14
441.145	1507.05
441.52	1573.04
441.895	1525.13
442.27	1540.04
442.645	1554.73
443.019	1566.71
443.394	1576.65
443.769	1576.65
444.143	1550.44
444.518	1573.49
444.892	1561.06
445.267	1638.8
445.641	1618.91
446.016	1616.2
446.39	1620.49
446.764	1630.89
447.139	1663.88
447.513	1660.27
447.887	1664.79
448.262	1661.85
448.636	1657.1
449.01	1726.48
449.384	1706.82
449.758	1747.5
450.132	1748.85
450.506	1768.29
450.88	1787.5
451.254	1774.61
451.628	1807.61
452.002	1815.97
452.376	1847.83
452.75	1879.92
453.123	1896.42
453.497	1884.67
453.871	1892.8
454.244	1950.88
454.618	1952.01
454.992	1953.82
455.365	1981.84
455.739	2031.78
456.112	2060.71
456.486	2085.34
456.859	2076.08
457.232	2153.14
457.606	2149.97
457.979	2143.87
458.352	2210.08
458.725	2221.61
459.099	2228.61
459.472	2250.99
459.845	2307.48
460.218	2287.14
460.591	2353.13
460.964	2343.64
461.337	2369.85
461.71	2411.21
462.083	2444.2
462.456	2457.76
462.829	2457.99
463.201	2521.71
463.574	2549.06
463.947	2576.63
464.32	2593.35
464.692	2606.68
465.065	2603.52
465.438	2655.72
465.81	2706.12
466.183	2708.38
466.555	2766.68
466.928	2769.16
467.3	2795.83
467.672	2833.34
468.045	2871.08
468.417	2918.31
468.789	2942.49
469.161	3015.26
469.534	3012.55
469.906	3035.82
470.278	3040.34
470.65	3077.4
471.022	3160.57
471.394	3241.47
471.766	3249.38
472.138	3278.08
472.51	3320.56
472.882	3388.36
473.253	3395.14
473.625	3409.83
473.997	3549.48
474.369	3564.85
474.74	3579.54
475.112	3648.24
475.484	3677.62
475.855	3738.18
476.227	3817.72
476.598	3917.83
476.97	3899.53
477.341	3981.11
477.713	4067.21
478.084	4092.97
478.455	4219.97
478.827	4211.84
479.198	4341.78
479.569	4379.29
479.94	4440.53
480.311	4523.47
480.682	4629.23
481.053	4695.44
481.424	4806.4
481.795	4859.96
482.166	4885.27
482.537	4989.22
482.908	5087.75
483.279	5130.68
483.65	5282.09
484.021	5362.32
484.391	5422.43
484.762	5485.48
485.133	5523.67
485.503	5626.94
485.874	5755.3
486.244	5832.81
486.615	5927.5
486.985	5975.63
487.356	6134.05
487.726	6210.43
488.097	6353.93
488.467	6422.18
488.837	6531.55
489.207	6643.19
489.578	6752.56
489.948	6816.06
490.318	6847.48
490.688	6958.43
491.058	7099.67
491.428	7156.17
491.798	7236.17
492.168	7426.67
492.538	7492.66
492.908	7557.97
493.278	7726.55
493.648	7726.77
494.017	7863.04
494.387	7950.27
494.757	7998.63
495.126	8167.89
495.496	8190.94
495.866	8344.39
496.235	8389.13
496.605	8460.77
496.974	8599.07
497.344	8632.74
497.713	8719.52
498.082	8826.41
498.452	8886.74
498.821	8986.4
499.19	9074.99
499.559	9155.66
499.928	9281.99
500.298	9274.76
500.667	9423
501.036	9474.3
501.405	9572.6
501.774	9648.31
502.143	9708.42
502.512	9828.19
502.88	9865.93
503.249	9931.91
503.618	10009.2
503.987	10032.02
504.356	10113.15
504.724	10201.96
505.093	10341.39
505.462	10427.49
505.83	10395.18
506.199	10601.95
506.567	10740.25
506.936	10697.54
507.304	10925.56
507.672	10951.32
508.041	10997.42
508.409	11115.84
508.777	11263.86
509.145	11255.27
509.514	11308.37
509.882	11415.72
510.25	11483.29
510.618	11641.7
510.986	11662.04
511.354	11751.53
511.722	11853.22
512.09	12009.15
512.458	11979.09
512.826	12184.96
513.193	12207.56
513.561	12239.65
513.929	12354.9
514.297	12398.29
514.664	12504.28
515.032	12609.58
515.4	12809.8
515.767	12865.85
516.135	12925.28
516.502	12933.64
516.869	13056.35
517.237	13253.86
517.604	13214.77
517.972	13377.02
518.339	13421.09
518.706	13593.74
519.073	13640.52
519.44	13704.02
519.808	13870.12
520.175	13957.8
520.542	14165.47
520.909	14232.59
521.276	14328.86
521.643	14491.34
522.009	14493.38
522.376	14655.63
522.743	14746.7
523.11	14997.54
523.477	15055.4
523.843	15207.93
524.21	15427.36
524.577	15538.77
524.943	15578.32
525.31	15646.79
525.676	15898.99
526.043	16051.08
526.409	16128.59
526.776	16267.57
527.142	16350.95
527.508	16440.9
527.874	16679.31
528.241	16805.18
528.607	16841.79
528.973	17119.75
529.339	17117.94
529.705	17213.3
530.071	17381.89
530.437	17484.03
530.803	17687.87
531.169	17721.54
531.535	17866.17
531.901	17918.6
532.267	18024.13
532.632	18093.51
532.998	18295.99
533.364	18357
533.73	18496.43
534.095	18594.96
534.461	18779.36
534.826	18865.92
535.192	18820.72
535.557	19055.97
535.923	19025.69
536.288	19258
536.653	19363.3
537.019	19299.8
537.384	19491.21
537.749	19516.52
538.114	19604.2
538.479	19550.42
538.845	19646.23
539.21	19696.63
539.575	19866.57
539.94	19971.88
540.305	20002.16
540.67	20070.18
541.034	20157.86
541.399	20215.03
541.764	20273.34
542.129	20449.15
542.494	20466.33
542.858	20537.28
543.223	20572.09
543.587	20633.78
543.952	20642.59
544.316	20805.3
544.681	20834.45
545.045	20911.06
545.41	21057.27
545.774	21087.55
546.138	21085.97
546.503	21166.65
546.867	21186.53
547.231	21328.68
547.595	21303.37
547.959	21617.48
548.324	21592.4
548.688	21680.31
549.052	21760.76
549.416	21703.58
549.779	21805.5
550.143	21956.46
550.507	22066.96
550.871	22168.2
551.235	22162.78
551.599	22393.96
551.962	22371.13
552.326	22395.09
552.689	22555.54
553.053	22373.85
553.417	22550.79
553.78	22819.94
554.143	22855.64
554.507	22903.1
554.87	22961.4
555.234	23266.48
555.597	23053.38
555.96	23245.01
556.323	23364.33
556.686	23417.89
557.05	23627.6
557.413	23650.65
557.776	23656.98
558.139	23911.43
558.502	23943.07
558.865	24039.11
559.228	24167.92
559.59	24363.17
559.953	24393.23
560.316	24667.57
560.679	24690.4
561.041	24904.4
561.404	25043.83
561.767	25182.36
562.129	25222.59
562.492	25309.59
562.854	25408.34
563.217	25637.04
563.579	25648.11
563.941	25904.38
564.304	25920.65
564.666	26256
565.028	26163.8
565.39	26340.07
565.753	26574.41
566.115	26727.63
566.477	26935.53
566.839	27140.5
567.201	27275.64
567.563	27303.66
567.925	27512.02
568.287	27611.9
568.648	27718.79
569.01	27937.99
569.372	28160.59
569.734	28248.72
570.095	28533.23
570.457	28595.15
570.819	28680.57
571.18	28824.3
571.542	29064.29
571.903	29241.24
572.265	29384.51
572.626	29597.16
572.987	29656.37
573.349	29937.94
573.71	30005.96
574.071	30196.69
574.432	30456.12
574.794	30733.17
575.155	30645.49
575.516	30686.62
575.877	31025.37
576.238	31023.56
576.599	31241.64
576.96	31341.97
577.32	31459.71
577.681	31685.47
578.042	31819.02
578.403	31953.93
578.763	32033.48
579.124	32096.08
579.485	32348.27
579.845	32431.66
580.206	32516.18
580.566	32705.33
580.927	32747.13
581.287	32903.97
581.648	33000.69
582.008	33309.83
582.368	33439.54
582.728	33589.82
583.089	33571.74
583.449	33771.97
583.809	33736.94
584.169	34065.52
584.529	33903.49
584.889	34355.23
585.249	34269.58
585.609	34344.15
585.969	34683.81
586.329	34659.85
586.688	35093.06
587.048	35081.31
587.408	35347.29
587.768	35286.5
588.127	35573.73
588.487	35669.77
588.846	36071.57
589.206	35964.9
589.565	36143.65
589.925	36537.54
590.284	36519.92
590.643	36756.52
591.003	36912.45
591.362	37353.57
591.721	37549.72
592.08	37574.58
592.44	37924.62
592.799	37970.27
593.158	38180.66
593.517	38259.98
593.876	38621.56
594.235	38798.95
594.593	38932.06
594.952	39330.46
595.311	39439.16
595.67	39714.86
596.029	40004.34
596.387	40263.77
596.746	40540.6
597.104	40347.84
597.463	40771.78
597.822	41097.42
598.18	41116.86
598.538	41319.34
598.897	41732.66
599.255	41787.8
599.613	42407.22
599.972	42181.24
600.33	42474.79
600.688	42580.1
601.046	42809.92
601.404	43265.5
601.762	43279.96
602.12	43630.24
602.478	43753.17
602.836	43975.76
603.194	43921.08
603.552	44399.93
603.91	44382.31
604.268	44557.9
604.625	44757.89
604.983	45123.98
605.341	45006.92
605.698	45501.37
606.056	45778.2
606.413	45641.26
606.771	46070.17
607.128	45956.73
607.485	46095.26
607.843	46212.54
608.2	46549.93
608.557	46802.81
608.914	46801.23
609.272	47230.82
609.629	47454.09
609.986	47574.09
610.343	47589.91
610.7	47942.67
611.057	47898.83
611.414	47964.59
611.771	48270.34
612.127	48389.43
612.484	48531.8
612.841	48675.98
613.198	48607.06
613.554	48761.4
613.911	49056.76
614.267	49078.46
614.624	49194.61
614.98	49335.4
615.337	49745.56
615.693	49491.33
616.05	49670.53
616.406	49952.1
616.762	49957.98
617.118	50005.44
617.475	49974.48
617.831	50259.67
618.187	50291.98
618.543	50249.27
618.899	50561.81
619.255	50636.15
619.611	50554.35
619.967	50808.13
620.323	50872.08
620.678	50810.84
621.034	50819.43
621.39	50952.08
621.746	50931.51
622.101	51219.64
622.457	51012.87
622.812	51204.5
623.168	51258.06
623.523	51188.68
623.879	51418.73
624.234	51206.99
624.589	51380.32
624.945	51465.96
625.3	51496.47
625.655	51530.37
626.01	51518.39
626.365	51651.27
626.72	51514.1
627.075	51496.02
627.43	51547.32
627.785	51559.07
628.14	51663.92
628.495	51627.99
628.85	51620.99
629.205	51522.91
629.559	51768.33
629.914	51655.11
630.269	51609.01
630.623	51484.04
630.978	51346.64
631.332	51605.17
631.687	51560.42
632.041	51636.35
632.396	51540.99
632.75	51487.88
633.104	51564.72
633.459	51364.72
633.813	51465.96
634.167	51389.35
634.521	51408.11
634.875	51508.67
635.229	51371.05
635.583	51241.56
635.937	51184.16
636.291	51188.68
636.645	51192.07
636.999	51004.51
637.352	51128.12
637.706	50936.03
638.06	51066.65
638.413	50930.38
638.767	50923.83
639.121	50886.32
639.474	50723.84
639.828	50789.82
640.181	50719.77
640.534	50765.19
640.888	50653.1
641.241	50499.66
641.594	50601.13
641.947	50617.17
642.301	50438.65
642.654	50531.07
643.007	50419.89
643.36	50476.38
643.713	50424.18
644.066	50545.08
644.419	50178.54
644.771	49938.09
645.124	49551.89
645.477	49561.61
645.83	49396.19
646.182	49366.81
646.535	49306.47
646.888	49474.6
647.24	49249.52
647.593	49560.7
647.945	49350.99
648.298	49164.78
648.65	49092.01
649.002	48830.1
649.355	48644.79
649.707	48544.68
650.059	48589.2
650.411	49122.52
650.763	49346.47
651.115	49906.91
651.467	49689.96
651.819	49721.83
652.171	49620.14
652.523	49452.68
652.875	49475.73
653.227	49241.84
653.578	49676.63
653.93	49544.88
654.282	49228.51
654.633	49208.62
654.985	49388.5
655.337	49369.07
655.688	49257.89
656.039	49359.58
656.391	49003.2
656.742	49133.6
657.094	49171.11
657.445	49179.47
657.796	49042.07
658.147	49062.41
658.498	49162.75
658.849	49179.24
659.2	49125.01
659.551	48974.96
659.902	49190.54
660.253	48927.27
660.604	49095.18
660.955	48893.83
661.306	49045.01
661.656	48959.81
662.007	48897.67
662.358	48919.82
662.708	48993.26
663.059	48772.7
663.409	48725.7
663.76	48858.12
664.11	48898.57
664.461	48835.52
664.811	48824.22
665.161	48877.56
665.511	48807.28
665.862	48896.77
666.212	48798.46
666.562	48751.68
666.912	48783.77
667.262	48690.22
667.612	48666.94
667.962	48747.62
668.312	48647.96
668.662	48827.61
669.011	48602.54
669.361	48621.97
669.711	48647.73
670.06	48482.09
670.41	48566.6
670.76	48560.5
671.109	48691.12
671.459	48575.19
671.808	48594.4
672.157	48664.23
672.507	48439.15
672.856	48420.39
673.205	48479.15
673.554	48564.12
673.904	48455.42
674.253	48691.8
674.602	48521.86
674.951	47878.03
675.3	47796.23
675.649	48366.38
675.998	48393.28
676.346	48287.97
676.695	48436.44
677.044	48242.77
677.393	48356.44
677.741	48419.04
678.09	48334.52
678.438	48134.98
678.787	48243.22
679.135	48332.49
679.484	48007.52
679.832	48198.48
680.181	47918.03
680.529	47993.96
680.877	47944.02
681.225	48001.87
681.573	48192.6
681.922	47934.53
682.27	47853.18
682.618	47942.21
682.966	47845.95
683.314	47808.66
683.661	47705.61
684.009	47582.68
684.357	47471.94
684.705	47437.14
685.053	47455.45
685.4	47247.99
685.748	47245.96
686.095	47140.65
686.443	47006.42
686.79	47049.58
687.138	47180.43
687.485	47104.04
687.832	46833.77
688.18	46935.46
688.527	46755.13
688.874	46758.97
689.221	46697.95
689.568	46516.94
689.915	46505.19
690.262	46604.17
690.609	46424.74
690.956	46082.83
691.303	46182.71
691.65	46140.23
691.997	46003.96
692.344	45723.74
692.69	45762.38
693.037	45836.96
693.383	45428.16
693.73	45649.39
694.077	45311.32
694.423	45414.37
694.769	45166.47
695.116	45115.85
695.462	44906.81
695.808	44743.43
696.155	44987.04
696.501	44561.96
696.847	44683.54
697.193	44326.72
697.539	44509.54
697.885	44133.5
698.231	44020.28
698.577	44034.52
698.923	44015.09
699.269	43783.23
699.614	43621.42
699.96	43535.55
700.306	43550.69
700.651	43315.44
700.997	43333.3
701.342	43148.44
701.688	43013.3
702.033	42849.47
702.379	43009.46
702.724	42649.25
703.069	42806.76
703.415	42249.03
703.76	42317.28
704.105	42398.18
704.45	42301.23
704.795	42158.19
705.14	41892.88
705.485	42192.99
705.83	41698.08
706.175	41940.34
706.52	41797.06
706.865	41686.56
707.209	41430.97
707.554	41334.7
707.899	41475.94
708.243	41204.09
708.588	41279.34
708.932	40863.3
709.277	41041.6
709.621	40766.36
709.966	40624.44
710.31	40614.95
710.654	40433.26
710.998	40440.49
711.342	40532.69
711.687	40226.48
712.031	40274.62
712.375	40114.4
712.719	40034.85
713.063	39909.88
713.407	40055.19
713.75	39862.2
714.094	39717.12
714.438	39672.15
714.782	39688.65
715.125	39534.07
715.469	39789.43
715.812	39468.99
716.156	39294.31
716.499	39231.93
716.843	39335.43
717.186	39110.58
717.53	39149.22
717.873	39214.99
718.216	39037.36
718.559	38985.84
718.902	38579.07
719.246	38783.13
719.589	38625.62
719.932	38423.82
720.275	38511.28
720.617	38458.85
720.96	38361.22
721.303	38416.36
721.646	38373.2
721.989	38206.42
722.331	38244.16
722.674	38026.32
723.016	38122.36
723.359	37992.42
723.701	37999.88
724.044	37920.78
724.386	37784.29
724.729	37942.02
725.071	37731.18
725.413	37787
725.755	37624.52
726.097	37476.05
726.439	37539.1
726.782	37351.76
727.124	37469.04
727.465	37385.2
727.807	37182.27
728.149	37368.71
728.491	37246
728.833	37294.13
729.175	37100.01
729.516	37143.85
729.858	37112.44
730.199	37162.84
730.541	37020.24
730.882	36802.39
731.224	36960.36
731.565	36755.39
731.906	36796.29
732.248	36757.2
732.589	36597.43
732.93	36493.25
733.271	36461.39
733.612	36568.5
733.953	36603.3
734.294	36433.36
734.635	36329.41
734.976	36449.18
735.317	36090.55
735.658	36185.46
735.999	35993.38
736.339	36040.61
736.68	36142.75
737.021	36103.66
737.361	35990.66
737.702	36086.93
738.042	35981.85
738.383	35999.7
738.723	35911.12
739.063	35857.79
739.404	35992.25
739.744	35711.58
740.084	35585.93
740.424	35834.06
740.764	35688.07
741.104	35672.93
741.444	35572.37
741.784	35324.01
742.124	35531.47
742.464	35409.89
742.804	35387.97
743.143	35206.73
743.483	35305.26
743.823	35187.3
744.162	35248.76
744.502	35194.3
744.841	35010.12
745.181	35192.72
745.52	35032.27
745.86	35060.52
746.199	34930.35
746.538	35008.77
746.877	35028.66
747.216	35117.24
747.556	34836.12
747.895	34871.15
748.234	34754.09
748.573	34596.12
748.911	34632.96
749.25	34567.2
749.589	34552.96
749.928	34527.88
750.267	34397.71
750.605	34431.16
750.944	34306.41
751.283	34295.79
751.621	34271.84
751.96	34076.82
752.298	34015.57
752.636	34035.91
752.975	33808.8
753.313	33869.82
753.651	34075.01
753.989	33780.1
754.327	33769.03
754.666	33496.49
755.004	33699.2
755.342	33656.49
