Data from 17-1436_FLMS001491_006.txt Node
Date: Thu Apr 19 16:29:07 BST 2018
User: hsy
Spectrometer: FLMS00149
Trigger mode: 0
Integration Time (sec): 1.000000E-2
Scans to average: 10
Electric dark correction enabled: true
Nonlinearity correction enabled: false
Boxcar width: 0
XAxis mode: Wavelengths
Number of Pixels in Spectrum: 2048
>>>>>Begin Spectral Data<<<<<
341.393	-10.85
341.776	-10.85
342.16	-10.85
342.543	-50.85
342.927	-65.76
343.31	-73.22
343.693	-74.35
344.077	-68.25
344.46	-73.22
344.843	-43.39
345.226	-37.29
345.61	-16.5
345.993	-25.08
346.376	-15.37
346.759	17.85
347.142	37.06
347.525	54.01
347.908	72.99
348.291	71.41
348.674	68.7
349.057	104.63
349.44	135.59
349.823	126.32
350.206	146.66
350.588	230.73
350.971	237.96
351.354	248.58
351.737	299.2
352.119	296.04
352.502	303.49
352.884	301.46
353.267	321.12
353.65	354.11
354.032	355.92
354.414	334.68
354.797	337.39
355.179	351.18
355.562	344.62
355.944	376.26
356.326	367.45
356.709	378.3
357.091	369.93
357.473	371.52
357.855	374.68
358.238	385.75
358.62	378.75
359.002	385.75
359.384	386.88
359.766	396.6
360.148	389.37
360.53	376.71
360.912	384.85
361.294	369.26
361.676	368.13
362.057	350.27
362.439	392.08
362.821	379.2
363.203	372.42
363.584	369.93
363.966	372.42
364.348	367.45
364.729	369.71
365.111	374
365.493	376.04
365.874	370.16
366.256	366.09
366.637	356.6
367.019	364.28
367.4	373.55
367.781	377.17
368.163	375.81
368.544	375.58
368.925	387.11
369.306	366.54
369.688	371.29
370.069	378.3
370.45	374.45
370.831	358.63
371.212	353.66
371.593	393.21
371.974	366.54
372.355	391.85
372.736	368.8
373.117	374.91
373.498	393.44
373.879	402.25
374.26	379.2
374.641	380.33
375.021	352.08
375.402	382.81
375.783	375.36
376.163	429.14
376.544	395.24
376.925	405.19
377.305	390.5
377.686	400.67
378.066	397.96
378.447	418.75
378.827	398.41
379.208	400.89
379.588	400.22
379.968	403.38
380.349	432.31
380.729	404.74
381.109	421.23
381.489	420.1
381.87	441.34
382.25	415.81
382.63	443.6
383.01	436.15
383.39	443.83
383.77	446.99
384.15	455.13
384.53	434.11
384.91	422.36
385.29	437.5
385.67	454.9
386.049	452.42
386.429	479.54
386.809	475.24
387.189	466.43
387.568	466.2
387.948	475.47
388.328	483.6
388.707	473.43
389.087	442.93
389.466	497.84
389.846	482.7
390.225	494
390.605	511.62
390.984	499.42
391.363	505.07
391.743	502.13
392.122	512.75
392.501	522.92
392.881	509.14
393.26	543.94
393.639	517.05
394.018	538.74
394.397	530.38
394.776	511.17
395.155	525.18
395.534	529.7
395.913	526.77
396.292	540.78
396.671	547.33
397.05	529.25
397.429	569.48
397.808	552.98
398.186	579.19
398.565	591.62
398.944	589.14
399.323	574
399.701	608.12
400.08	607.89
400.458	581.45
400.837	589.14
401.215	590.49
401.594	611.51
401.972	620.1
402.351	608.57
402.729	588.91
403.107	598.85
403.486	611.96
403.864	606.31
404.242	619.87
404.62	641.57
404.999	631.4
405.377	639.31
405.755	650.6
406.133	632.98
406.511	641.57
406.889	677.04
407.267	667.55
407.645	676.37
408.023	678.17
408.401	689.47
408.779	708.46
409.156	682.47
409.534	703.03
409.912	737.38
410.29	730.6
410.667	730.83
411.045	758.4
411.422	751.17
411.8	771.73
412.178	772.64
412.555	785.74
412.933	764.05
413.31	785.74
413.687	810.83
414.065	796.36
414.442	820.54
414.819	819.41
415.197	818.28
415.574	882.01
415.951	849.24
416.328	863.48
416.705	840.43
417.082	851.5
417.46	872.52
417.837	905.74
418.214	894.89
418.591	896.93
418.967	934.89
419.344	949.81
419.721	932.18
420.098	930.82
420.475	941.67
420.852	957.04
421.228	963.14
421.605	972.18
421.982	976.92
422.358	993.19
422.735	972.63
423.111	977.15
423.488	988.22
423.864	1012.4
424.241	1020.09
424.617	1015.57
424.994	1025.96
425.37	1043.59
425.746	1053.08
426.123	1069.12
426.499	1065.73
426.875	1077.03
427.251	1086.75
427.627	1105.73
428.003	1146.64
428.379	1129.01
428.756	1166.52
429.132	1175.11
429.507	1173.08
429.883	1175.79
430.259	1196.35
430.635	1216.01
431.011	1200.42
431.387	1243.13
431.763	1269.57
432.138	1242.91
432.514	1286.75
432.89	1296.46
433.265	1308.89
433.641	1330.13
434.016	1329.23
434.392	1344.37
434.767	1381.66
435.143	1357.7
435.518	1371.26
435.894	1394.99
436.269	1430.47
436.644	1453.3
437.02	1473.18
437.395	1458.04
437.77	1483.58
438.145	1479.96
438.52	1498.72
438.895	1527.64
439.271	1523.35
439.646	1546.85
440.021	1556.34
440.395	1557.47
440.77	1550.47
441.145	1575.78
441.52	1599.51
441.895	1603.57
442.27	1635.44
442.645	1631.82
443.019	1653.74
443.394	1669.56
443.769	1663.91
444.143	1636.79
444.518	1695.32
444.892	1658.49
445.267	1677.24
445.641	1684.02
446.016	1680.41
446.39	1743.23
446.764	1716.57
447.139	1742.55
447.513	1729.67
447.887	1745.26
448.262	1760.18
448.636	1791.82
449.01	1816.45
449.384	1821.87
449.758	1830.46
450.132	1815.77
450.506	1878.82
450.88	1869.56
451.254	1859.84
451.628	1909.78
452.002	1926.28
452.376	1944.58
452.75	1947.97
453.123	1962.43
453.497	1993.39
453.871	2032.49
454.244	2021.87
454.618	2089.44
454.992	2118.81
455.365	2113.16
455.739	2169.89
456.112	2150.68
456.486	2183.45
456.859	2182.32
457.232	2283.1
457.606	2232.03
457.979	2270
458.352	2322.88
458.725	2345.7
459.099	2353.61
459.472	2418.24
459.845	2417.79
460.218	2423.21
460.591	2476.09
460.964	2507.28
461.337	2513.83
461.71	2557.67
462.083	2600.16
462.456	2616.65
462.829	2627.05
463.201	2651.68
463.574	2691.45
463.947	2706.82
464.32	2764.9
464.692	2783.88
465.065	2817.78
465.438	2860.49
465.81	2824.56
466.183	2866.37
466.555	2950.43
466.928	2987.27
467.3	2955.4
467.672	2990.2
468.045	3068.62
468.417	3060.71
468.789	3100.94
469.161	3114.95
469.534	3159.92
469.906	3256.64
470.278	3269.74
470.65	3305.9
471.022	3363.3
471.394	3401.49
471.766	3440.14
472.138	3433.36
472.51	3535.5
472.882	3596.52
473.253	3589.28
473.625	3671.54
473.997	3749.05
474.369	3742.05
474.74	3744.53
475.112	3849.39
475.484	3909.05
475.855	3980.46
476.227	4061.36
476.598	4099.78
476.97	4159.44
477.341	4280.34
477.713	4324.63
478.084	4367.57
478.455	4442.14
478.827	4516.94
479.198	4595.13
479.569	4606.66
479.94	4768.24
480.311	4828.35
480.682	4894.56
481.053	5008.23
481.424	5080.09
481.795	5126.64
482.166	5186.53
482.537	5269.01
482.908	5399.41
483.279	5446.64
483.65	5525.05
484.021	5688.44
484.391	5781.54
484.762	5825.38
485.133	5815.89
485.503	5974.31
485.874	6096.34
486.244	6169.1
486.615	6283.22
486.985	6352.6
487.356	6486.84
487.726	6507.4
488.097	6708.07
488.467	6717.11
488.837	6901.06
489.207	7016.31
489.578	7075.07
489.948	7185.57
490.318	7361.84
490.688	7356.19
491.058	7527.71
491.428	7579.24
491.798	7680.93
492.168	7855.39
492.538	7982.61
492.908	8020.35
493.278	8202.72
493.648	8212.44
494.017	8327.24
494.387	8432.55
494.757	8524.75
495.126	8559.77
495.496	8656.04
495.866	8729.26
496.235	8883.16
496.605	9017.84
496.974	9063.72
497.344	9147.33
497.713	9187.56
498.082	9356.36
498.452	9392.07
498.821	9536.47
499.19	9541.9
499.559	9657.15
499.928	9665.96
500.298	9833.41
500.667	10046.97
501.036	10044.48
501.405	10109.79
501.774	10184.36
502.143	10302.1
502.512	10296.9
502.88	10468.88
503.249	10453.74
503.618	10531.02
503.987	10561.3
504.356	10685.14
504.724	10820.28
505.093	10836.33
505.462	10919.71
505.83	11031.35
506.199	11052.59
506.567	11211.23
506.936	11286.93
507.304	11439.47
507.672	11482.86
508.041	11554.72
508.409	11714.49
508.777	11694.83
509.145	11869.29
509.514	11897.31
509.882	11952.68
510.25	12085.11
510.618	12233.8
510.986	12234.48
511.354	12429.28
511.722	12452.1
512.09	12596.05
512.458	12589.95
512.826	12731.42
513.193	12817.52
513.561	12906.33
513.929	13020.22
514.297	13128.02
514.664	13291.85
515.032	13366.65
515.4	13469.93
515.767	13550.38
516.135	13603.94
516.502	13583.6
516.869	13904.27
517.237	13918.28
517.604	13824.5
517.972	14105.62
518.339	14214.09
518.706	14309.45
519.073	14353.29
519.44	14397.14
519.808	14677.13
520.175	14671.25
520.542	14930
520.909	14998.02
521.276	14986.72
521.643	15230.33
522.009	15311.69
522.376	15472.59
522.743	15463.55
523.11	15767.5
523.477	15860.15
523.843	15848.17
524.21	16133.81
524.577	16289.06
524.943	16416.29
525.31	16417.42
525.676	16703.29
526.043	16896.96
526.409	16948.03
526.776	17065.77
527.142	17204.52
527.508	17320.67
527.874	17598.86
528.241	17621.91
528.607	17764.96
528.973	17905.52
529.339	17921.34
529.705	18195.45
530.071	18387.31
530.437	18391.83
530.803	18659.4
531.169	18669.11
531.535	18721.99
531.901	18845.61
532.267	18886.06
532.632	19155.65
532.998	19199.5
533.364	19394.07
533.73	19338.93
534.095	19672.93
534.461	19668.64
534.826	19815.52
535.192	19867.27
535.557	20049.87
535.923	20100.49
536.288	20160.15
536.653	20255.29
537.019	20254.61
537.384	20416.41
537.749	20523.53
538.114	20588.39
538.479	20564.88
538.845	20654.15
539.21	20745.44
539.575	20881.48
539.94	20929.62
540.305	21017.75
540.67	21131.42
541.034	21062.5
541.399	21140.69
541.764	21264.3
542.129	21419.78
542.494	21470.85
542.858	21588.36
543.223	21522.6
543.587	21816.15
543.952	21623.61
544.316	21847.11
544.681	21830.61
545.045	21956.48
545.41	22006.65
545.774	22012.3
546.138	22128.46
546.503	22269.47
546.867	22230.83
547.231	22445.74
547.595	22519.86
547.959	22579.52
548.324	22630.59
548.688	22727.54
549.052	22818.84
549.416	22783.58
549.779	22902.9
550.143	23008.89
550.507	23040.07
550.871	23238.26
551.235	23173.4
551.599	23563.22
551.962	23540.17
552.326	23494.07
552.689	23586.72
553.053	23547.63
553.417	23665.82
553.78	23963.21
554.143	23894.74
554.507	24053.83
554.87	24098.58
555.234	24338.34
555.597	24284.11
555.96	24360.26
556.323	24542.63
556.686	24493.14
557.05	24785.11
557.413	24774.72
557.776	24897.42
558.139	25024.2
558.502	25179.22
558.865	25164.08
559.228	25395.04
559.59	25381.25
559.953	25682.04
560.316	25810.62
560.679	25940.56
561.041	25912.76
561.404	26149.37
561.767	26298.07
562.129	26350.04
562.492	26601.56
562.854	26672.07
563.217	26705.96
563.579	26934.21
563.941	27044.71
564.304	27214.65
564.666	27376.68
565.028	27443.8
565.39	27513.63
565.753	27887.85
566.115	27887.18
566.477	28072.48
566.839	28119.94
567.201	28626.82
567.563	28404.68
567.925	28712.47
568.287	28804.89
568.648	29020.03
569.01	29088.27
569.372	29475.16
569.734	29434.71
570.095	29672.21
570.457	30007.12
570.819	29875.15
571.18	30038.76
571.542	30196.27
571.903	30359.65
572.265	30437.39
572.626	30697.95
572.987	30767.1
573.349	31091.39
573.71	31214.09
574.071	31328.44
574.432	31616.12
574.794	31875.09
575.155	31869.67
575.516	31991.48
575.877	32216.55
576.238	32289.77
576.599	32417
576.96	32597.33
577.32	32718.24
577.681	32841.85
578.042	33093.37
578.403	33079.81
578.763	33134.27
579.124	33298.56
579.485	33621.94
579.845	33777.19
580.206	33779.45
580.566	33893.35
580.927	33914.36
581.287	34301.02
581.648	34166.33
582.008	34334.92
582.368	34610.16
582.728	34636.6
583.089	34688.58
583.449	34963.83
583.809	35088.57
584.169	35305.96
584.529	35215.12
584.889	35694.65
585.249	35528.56
585.609	35528.56
585.969	35961.77
586.329	35838.15
586.688	36130.12
587.048	36338.48
587.408	36402.88
587.768	36525.82
588.127	36833.38
588.487	36817.34
588.846	37230.43
589.206	37142.98
589.565	37358.11
589.925	37788.61
590.284	37731.89
590.643	38009.62
591.003	38248.26
591.362	38665.42
591.721	38715.82
592.08	38960.78
592.44	39200.33
592.799	39397.83
593.158	39461.34
593.517	39688.67
593.876	39953.3
594.235	40046.86
594.593	40322.56
594.952	40474.19
595.311	40658.59
595.67	40850.23
596.029	41207.96
596.387	41453.83
596.746	41878.67
597.104	41807.26
597.463	41927.71
597.822	42324.76
598.18	42477.08
598.538	42639.1
598.897	42965.65
599.255	42888.14
599.613	43548.01
599.972	43367.22
600.33	43717.49
600.688	43879.07
601.046	44052.4
601.404	44569
601.762	44679.05
602.12	44812.16
602.478	45023.67
602.836	45246.49
603.194	45166.5
603.552	45523.55
603.91	45619.82
604.268	45789.3
604.625	45920.83
604.983	46174.61
605.341	46157.66
605.698	46420.93
606.056	46922.16
606.413	46783.4
606.771	47129.61
607.128	47246.44
607.485	47357.85
607.843	47418.19
608.2	47801.68
608.557	47883.26
608.914	47983.37
609.272	48222.91
609.629	48503.58
609.986	48655.9
610.343	48622
610.7	48941.31
611.057	48976.79
611.414	49035.55
611.771	49282.32
612.127	49456.78
612.484	49555.76
612.841	49576.32
613.198	49550.34
613.554	49778.8
613.911	49920.95
614.267	50004.33
614.624	50035.29
614.98	50219.92
615.337	50602.51
615.693	50554.38
616.05	50702.62
616.406	50822.39
616.762	50741.04
617.118	50861.04
617.475	50803.86
617.831	51066.68
618.187	51185.09
618.543	51241.36
618.899	51407.46
619.255	51381.7
619.611	51375.6
619.967	51618.98
620.323	51736.49
620.678	51686.55
621.034	51637.51
621.39	51767.9
621.746	51696.49
622.101	52147.56
622.457	51781.01
622.812	51992.08
623.168	52069.37
623.523	52025.98
623.879	52151.4
624.234	51994.79
624.589	52229.14
624.945	52141.68
625.3	52258.96
625.655	52314.78
626.01	52269.36
626.365	52442.91
626.72	52346.65
627.075	52265.74
627.43	52229.14
627.785	52355.69
628.14	52377.38
628.495	52358.85
628.85	52442.91
629.205	52360.43
629.559	52501.67
629.914	52335.57
630.269	52509.35
630.623	52225.97
630.978	52242.24
631.332	52443.82
631.687	52474.33
632.041	52320.88
632.396	52397.49
632.75	52323.82
633.104	52383.93
633.459	52263.71
633.813	52186.42
634.167	52188.01
634.521	52171.51
634.875	52186.2
635.229	52107.56
635.583	51971.06
635.937	51985.98
636.291	52018.52
636.645	51948.46
636.999	51882.7
637.352	51891.06
637.706	51785.53
638.06	51865.53
638.413	51874.34
638.767	51758.41
639.121	51654.69
639.474	51685.19
639.828	51708.47
640.181	51486.78
640.534	51678.64
640.888	51557.29
641.241	51374.92
641.594	51427.8
641.947	51586.21
642.301	51411.08
642.654	51358.88
643.007	51256.96
643.36	51312.32
643.713	51305.32
644.066	51324.3
644.419	51016.06
644.771	50864.43
645.124	50428.05
645.477	50488.39
645.83	50365.23
646.182	50393.25
646.535	50349.41
646.888	50370.88
647.24	50255.18
647.593	50397.09
647.945	50148.51
648.298	50029.64
648.65	49879.14
649.002	49653.16
649.355	49718.92
649.707	49489.32
650.059	49438.25
650.411	50016.09
650.763	50152.13
651.115	50736.97
651.467	50580.14
651.819	50532
652.171	50453.14
652.523	50298.56
652.875	50427.6
653.227	50141.73
653.578	50555.73
653.93	50309.64
654.282	50196.87
654.633	50166.59
654.985	50303.54
655.337	50167.95
655.688	50157.33
656.039	50200.71
656.391	49878.91
656.742	49987.84
657.094	50042.3
657.445	49974.96
657.796	50025.58
658.147	49895.41
658.498	49899.03
658.849	49891.8
659.2	49836.88
659.551	49803.66
659.902	49963.88
660.253	49786.26
660.604	49982.87
660.955	49800.72
661.306	49809.31
661.656	49764.12
662.007	49728.41
662.358	49748.75
662.708	49772.02
663.059	49694.06
663.409	49534.74
663.76	49758.47
664.11	49737.68
664.461	49786.71
664.811	49721.86
665.161	49787.39
665.511	49531.13
665.862	49613.61
666.212	49722.08
666.562	49742.42
666.912	49641.41
667.262	49575.65
667.612	49664.91
667.962	49608.64
668.312	49500.39
668.662	49735.64
669.011	49608.64
669.361	49570.67
669.711	49485.7
670.06	49437.8
670.41	49507.17
670.76	49464.46
671.109	49633.27
671.459	49464.91
671.808	49462.88
672.157	49540.17
672.507	49312.6
672.856	49261.98
673.205	49301.53
673.554	49485.48
673.904	49268.08
674.253	49633.72
674.602	49235.54
674.951	48938.83
675.3	48689.57
675.649	49202.55
675.998	49304.69
676.346	49364.8
676.695	49374.07
677.044	49239.61
677.393	49140.85
677.741	49355.09
678.09	49194.86
678.438	49128.65
678.787	49160.97
679.135	49158.26
679.484	48989.22
679.832	49247.07
680.181	49051.37
680.529	49062.44
680.877	49022.89
681.225	48933.18
681.573	49071.93
681.922	48880.97
682.27	48826.74
682.618	48748.32
682.966	48634.2
683.314	48631.49
683.661	48608.21
684.009	48591.72
684.357	48433.3
684.705	48421.33
685.053	48410.7
685.4	48328.22
685.748	48217.49
686.095	48212.07
686.443	47931.62
686.79	48042.13
687.138	48146.3
687.485	47942.47
687.832	47897.27
688.18	47977.5
688.527	47708.58
688.874	47699.31
689.221	47622.7
689.568	47599.2
689.915	47450.28
690.262	47530.05
690.609	47316.27
690.956	47279.21
691.303	47281.47
691.65	47056.39
691.997	46902.95
692.344	46744.76
692.69	46745.66
693.037	46780.92
693.383	46510.42
693.73	46490.75
694.077	46226.36
694.423	46340.48
694.769	46220.48
695.116	46132.57
695.462	45821.39
695.808	45811.45
696.155	45939.81
696.501	45570.78
696.847	45682.87
697.193	45443.32
697.539	45538.24
697.885	45101.64
698.231	45120.17
698.577	45146.61
698.923	45159.49
699.269	44814.64
699.614	44733.97
699.96	44609.67
700.306	44698.71
700.651	44473.86
700.997	44298.27
701.342	44156.13
701.688	44084.26
702.033	43819.41
702.379	43913.42
702.724	43772.63
703.069	43902.8
703.415	43427.56
703.76	43359.09
704.105	43447.67
704.45	43247.45
704.795	43059.88
705.14	42968.81
705.485	42856.73
705.83	42774.02
706.175	42857.86
706.52	42720.23
706.865	42450.41
707.209	42527.24
707.554	42400.02
707.899	42430.3
708.243	42150.98
708.588	41971.78
708.932	41889.29
709.277	41894.49
709.621	41766.81
709.966	41505.35
710.31	41548.06
710.654	41334.28
710.998	41485.01
711.342	41401.4
711.687	41234.17
712.031	41153.04
712.375	41038.47
712.719	40934.29
713.063	40878.7
713.407	40963.67
713.75	40670.34
714.094	40635.77
714.438	40515.09
714.782	40482.78
715.125	40175.44
715.469	40532.95
715.812	40155.55
716.156	40088.66
716.499	40219.06
716.843	40117.59
717.186	39852.74
717.53	40065.61
717.873	40110.81
718.216	39823.13
718.559	39626.98
718.902	39451.84
719.246	39475.35
719.589	39447.78
719.932	39484.61
720.275	39389.02
720.617	39413.65
720.96	39076.26
721.303	39349.02
721.646	39214.11
721.989	38975.47
722.331	39015.02
722.674	38940.67
723.016	38929.82
723.359	38756.5
723.701	38697.74
724.044	38603.96
724.386	38491.19
724.729	38607.35
725.071	38556.05
725.413	38587.46
725.755	38382.49
726.097	38385.21
726.439	38262.04
726.782	38161.93
727.124	38311.54
727.465	38132.56
727.807	38024.31
728.149	37910.19
728.491	37934.14
728.833	37906.57
729.175	37897.53
729.516	37790.64
729.858	37728.73
730.199	37878.78
730.541	37708.84
730.882	37626.13
731.224	37690.08
731.565	37453.03
731.906	37499.13
732.248	37520.82
732.589	37439.02
732.93	37225.24
733.271	37308.17
733.612	37244.22
733.953	37283.09
734.294	37260.04
734.635	36995.19
734.976	37320.37
735.317	37031.12
735.658	36918.8
735.999	36978.91
736.339	37004.45
736.68	36994.28
737.021	37076.31
737.361	36753.16
737.702	36984.56
738.042	36727.62
738.383	36956.77
738.723	36892.82
739.063	36619.6
739.404	36634.97
739.744	36560.62
740.084	36454.18
740.424	36681.52
740.764	36487.85
741.104	36539.15
741.444	36288.31
741.784	36286.28
742.124	36436.56
742.464	36312.94
742.804	36179.61
743.143	36139.61
743.483	36099.16
743.823	36132.84
744.162	36048.77
744.502	36094.19
744.841	35969.68
745.181	36030.92
745.52	35842.9
745.86	35918.38
746.199	35798.83
746.538	35679.97
746.877	35917.25
747.216	35780.3
747.556	35612.62
747.895	35657.82
748.234	35524.49
748.573	35336.92
748.911	35388
749.25	35322.01
749.589	35140.77
749.928	35289.24
750.267	35265.51
750.605	35126.31
750.944	35106.42
751.283	35072.3
751.621	35024.62
751.96	34798.63
752.298	34795.92
752.636	34754.57
752.975	34633.21
753.313	34568.81
753.651	34636.6
753.989	34607.68
754.327	34649.26
754.666	34258.53
