Data from 17-1436_FLMS001491_002.txt Node
Date: Thu Apr 19 16:28:58 BST 2018
User: hsy
Spectrometer: FLMS00149
Trigger mode: 0
Integration Time (sec): 1.000000E-2
Scans to average: 10
Electric dark correction enabled: true
Nonlinearity correction enabled: false
Boxcar width: 0
XAxis mode: Wavelengths
Number of Pixels in Spectrum: 2048
>>>>>Begin Spectral Data<<<<<
341.393	-12.02
341.776	-12.02
342.16	-12.02
342.543	-65.58
342.927	-62.41
343.31	-72.13
343.693	-77.33
344.077	-57.44
344.46	-50.21
344.843	-62.19
345.226	-39.59
345.61	-21.96
345.993	-16.77
346.376	-1.62
346.759	-4.34
347.142	34.98
347.525	49.22
347.908	53.06
348.291	75.44
348.674	90.35
349.057	100.52
349.44	133.51
349.823	129.9
350.206	180.97
350.588	231.82
350.971	236.34
351.354	258.71
351.737	263.23
352.119	288.99
352.502	312.94
352.884	293.28
353.267	323.11
353.65	325.37
354.032	339.38
354.414	357.01
354.797	345.49
355.179	358.14
355.562	376.9
355.944	361.53
356.326	359.04
356.709	385.03
357.091	374.41
357.473	376.22
357.855	382.77
358.238	365.6
358.62	395.2
359.002	376.44
359.384	378.25
359.766	378.48
360.148	374.64
360.53	376.9
360.912	362.21
361.294	381.87
361.676	363.79
362.057	380.96
362.439	384.81
362.821	351.36
363.203	384.13
363.584	370.57
363.966	351.81
364.348	349.33
364.729	381.64
365.111	362.21
365.493	362.89
365.874	378.93
366.256	356.33
366.637	378.7
367.019	380.74
367.4	369.44
367.781	369.89
368.163	369.44
368.544	366.28
368.925	362.66
369.306	353.17
369.688	382.55
370.069	367.18
370.45	361.98
370.831	385.48
371.212	367.86
371.593	368.54
371.974	362.43
372.355	360.4
372.736	366.73
373.117	372.83
373.498	378.48
373.879	347.29
374.26	373.96
374.641	371.25
375.021	374.41
375.402	377.57
375.783	379.83
376.163	385.48
376.544	395.2
376.925	399.72
377.305	397.01
377.686	397.91
378.066	401.98
378.447	389.33
378.827	398.59
379.208	400.85
379.588	403.11
379.968	397.24
380.349	412.83
380.729	399.5
381.109	401.08
381.489	422.32
381.87	415.09
382.25	407.86
382.63	425.26
383.01	419.61
383.39	409.66
383.77	419.16
384.15	425.48
384.53	425.71
384.91	444.47
385.29	425.94
385.67	438.36
386.049	435.43
386.429	415.09
386.809	479.27
387.189	475.43
387.568	440.17
387.948	458.7
388.328	456.22
388.707	450.12
389.087	464.8
389.466	485.37
389.846	472.49
390.225	485.37
390.605	488.31
390.984	479.95
391.363	467.97
391.743	504.13
392.122	479.04
392.501	503.67
392.881	500.28
393.26	491.92
393.639	492.83
394.018	514.07
394.397	504.13
394.776	514.52
395.155	505.71
395.534	496.22
395.913	505.26
396.292	524.69
396.671	522.43
397.05	518.14
397.429	538.7
397.808	559.49
398.186	547.29
398.565	554.97
398.944	541.86
399.323	531.02
399.701	533.73
400.08	574.18
400.458	552.49
400.837	571.92
401.215	552.26
401.594	569.89
401.972	586.38
402.351	588.42
402.729	588.64
403.107	610.79
403.486	597.91
403.864	611.92
404.242	615.53
404.62	608.98
404.999	607.17
405.377	633.61
405.755	600.85
406.133	647.85
406.511	633.61
406.889	634.74
407.267	639.26
407.645	662.77
408.023	654.63
408.401	658.92
408.779	656.66
409.156	696.44
409.534	696.89
409.912	678.36
410.29	698.02
410.667	698.02
411.045	705.48
411.422	717
411.8	736.89
412.178	752.48
412.555	777.34
412.933	742.09
413.31	782.31
413.687	784.8
414.065	790.22
414.442	794.74
414.819	788.41
415.197	806.94
415.574	825.92
415.951	810.33
416.328	828.64
416.705	838.35
417.082	826.6
417.46	846.49
417.837	846.72
418.214	843.55
418.591	868.18
418.967	844.23
419.344	883.78
419.721	865.7
420.098	873.83
420.475	904.57
420.852	880.84
421.228	917.9
421.605	908.63
421.982	921.97
422.358	932.81
422.735	920.16
423.111	953.83
423.488	966.03
423.864	987.73
424.241	981.63
424.617	991.8
424.994	968.07
425.37	1004.45
425.746	1008.29
426.123	1017.33
426.499	1030.44
426.875	1038.35
427.251	1060.27
427.627	1055.52
428.003	1040.83
428.379	1101.85
428.756	1101.62
429.132	1104.11
429.507	1101.85
429.883	1142.3
430.259	1126.03
430.635	1155.41
431.011	1176.42
431.387	1192.24
431.763	1201.73
432.138	1203.99
432.514	1208.06
432.89	1219.13
433.265	1247.83
433.641	1283.99
434.016	1293.03
434.392	1293.71
434.767	1333.26
435.143	1327.38
435.518	1309.98
435.894	1380.71
436.269	1354.5
436.644	1385.46
437.02	1392.24
437.395	1394.5
437.77	1421.16
438.145	1438.79
438.52	1458.45
438.895	1442.63
439.271	1457.09
439.646	1462.07
440.021	1493.25
440.395	1471.33
440.77	1467.72
441.145	1486.47
441.52	1526.02
441.895	1520.14
442.27	1519.92
442.645	1534.83
443.019	1566.7
443.394	1565.34
443.769	1548.17
444.143	1553.14
444.518	1598.79
444.892	1582.51
445.267	1604.44
445.641	1613.93
446.016	1639.01
446.39	1620.93
446.764	1649.18
447.139	1641.04
447.513	1665.9
447.887	1693.7
448.262	1664.77
448.636	1684.89
449.01	1732.79
449.384	1707.71
449.758	1705.45
450.132	1769.18
450.506	1754.26
450.88	1762.17
451.254	1771.89
451.628	1801.04
452.002	1800.14
452.376	1841.49
452.75	1842.4
453.123	1850.53
453.497	1903.18
453.871	1909.96
454.244	1932.79
454.618	1929.4
454.992	1963.97
455.365	1987.7
455.739	2036.97
456.112	2038.77
456.486	2056.85
456.859	2104.08
457.232	2115.61
457.606	2139.34
457.979	2170.3
458.352	2185.66
458.725	2205.78
459.099	2262.05
459.472	2257.3
459.845	2288.26
460.218	2305.66
460.591	2329.61
460.964	2345.66
461.337	2383.17
461.71	2423.85
462.083	2454.58
462.456	2441.7
462.829	2479.21
463.201	2538.2
463.574	2530.06
463.947	2589.04
464.32	2639.89
464.692	2625.65
465.065	2655.71
465.438	2668.14
465.81	2699.1
466.183	2718.53
466.555	2754.46
466.928	2792.88
467.3	2804.18
467.672	2843.27
468.045	2887.57
468.417	2922.82
468.789	2935.25
469.161	2957.39
469.534	3013.21
469.906	3057.05
470.278	3072.19
470.65	3087.79
471.022	3180.89
471.394	3202.36
471.766	3195.81
472.138	3278.74
472.51	3356.03
472.882	3349.47
473.253	3421.79
473.625	3442.13
473.997	3514.44
474.369	3525.97
474.74	3584.72
475.112	3609.81
475.484	3708.79
475.855	3782.46
476.227	3775.68
476.598	3887.77
476.97	3944.71
477.341	3981.32
477.713	4067.42
478.084	4072.62
478.455	4199.4
478.827	4227.42
479.198	4312.39
479.569	4358.04
479.94	4431.71
480.311	4525.49
480.682	4650
481.053	4727.74
481.424	4803
481.795	4839.15
482.166	4913.05
482.537	4999.6
482.908	5079.6
483.279	5128.64
483.65	5211.57
484.021	5382.87
484.391	5389.42
484.762	5458.57
485.133	5512.36
485.503	5623.54
485.874	5777.88
486.244	5804.32
486.615	5935.62
486.985	5990.99
487.356	6199.12
487.726	6214.71
488.097	6345.33
488.467	6348.72
488.837	6512.55
489.207	6588.94
489.578	6673.45
489.948	6791.19
490.318	6941.02
490.688	6944.18
491.058	7071.64
491.428	7181.92
491.798	7275.92
492.168	7383.49
492.538	7536.71
492.908	7635.46
493.278	7668
493.648	7755.46
494.017	7846.98
494.387	7972.86
494.757	7952.74
495.126	8090.59
495.496	8202.23
495.866	8299.4
496.235	8474.09
496.605	8489.9
496.974	8559.51
497.344	8655.32
497.713	8727.41
498.082	8827.75
498.452	8942.32
498.821	9057.57
499.19	9070
499.559	9179.6
499.928	9176.89
500.298	9342.76
500.667	9437.68
501.036	9451.01
501.405	9601.97
501.774	9566.94
502.143	9670.89
502.512	9824.78
502.88	9959.92
503.249	9964.22
503.618	10111.33
503.987	10088.96
504.356	10185.9
504.724	10295.28
505.093	10373.47
505.462	10395.84
505.83	10524.43
506.199	10646.91
506.567	10789.5
506.936	10839.45
507.304	10926.45
507.672	11004.19
508.041	11048.93
508.409	11182.49
508.777	11316.5
509.145	11385.42
509.514	11383.61
509.882	11509.03
510.25	11572.53
510.618	11719.2
510.986	11802.13
511.354	11848.01
511.722	12013.88
512.09	12094.55
512.458	12201.67
512.826	12190.15
513.193	12339.07
513.561	12425.85
513.929	12520.08
514.297	12656.12
514.664	12682.79
515.032	12749.23
515.4	12944.7
515.767	12983.35
516.135	13019.28
516.502	12960.52
516.869	13281.64
517.237	13340.17
517.604	13330.91
517.972	13545.14
518.339	13677.11
518.706	13748.3
519.073	13811.57
519.44	13907.39
519.808	14073.03
520.175	14148.51
520.542	14320.49
520.909	14392.57
521.276	14495.62
521.643	14610.42
522.009	14712.57
522.376	14861.49
522.743	14906.68
523.11	15154.14
523.477	15288.6
523.843	15334.02
524.21	15609.04
524.577	15658.98
524.943	15754.8
525.31	15849.71
525.676	16043.38
526.043	16204.05
526.409	16263.48
526.776	16414.89
527.142	16567.66
527.508	16598.84
527.874	16885.39
528.241	16864.15
528.607	17018.04
528.973	17207.87
529.339	17276.57
529.705	17537.58
530.071	17561.3
530.437	17749.55
530.803	17668.19
531.169	17946.83
531.535	17913.84
531.901	18130.1
532.267	18158.12
532.632	18305.47
532.998	18367.61
533.364	18493.03
533.73	18578
534.095	18780.25
534.461	18797.2
534.826	18942.96
535.192	19090.98
535.557	19110.64
535.923	19239.45
536.288	19298.66
536.653	19389.28
537.019	19464.76
537.384	19476.06
537.749	19615.71
538.114	19723.96
538.479	19797.86
538.845	19855.48
539.21	19846.89
539.575	19952.43
539.94	20123.5
540.305	20177.51
540.67	20165.76
541.034	20325.3
541.399	20268.58
541.764	20484.16
542.129	20569.13
542.494	20612.52
542.858	20618.17
543.223	20690.49
543.587	20775.46
543.952	20800.99
544.316	20942.68
544.681	20897.04
545.045	21009.12
545.41	21166.86
545.774	21120.08
546.138	21132.51
546.503	21289.57
546.867	21348.55
547.231	21411.6
547.595	21570.24
547.959	21651.59
548.324	21635.55
548.688	21563.91
549.052	21746.73
549.416	21831.7
549.779	21871.47
550.143	22039.6
550.507	22157.34
550.871	22232.59
551.235	22221.75
551.599	22341.07
551.962	22398.46
552.326	22570.44
552.689	22702.86
553.053	22488.41
553.417	22660.83
553.78	22907.38
554.143	22815.4
554.507	22977.88
554.87	23058.33
555.234	23247.71
555.597	23256.52
555.96	23407.25
556.323	23379.68
556.686	23517.76
557.05	23678.43
557.413	23773.12
557.776	23821.7
558.139	23938.99
558.502	24122.71
558.865	24102.6
559.228	24304.18
559.59	24419.65
559.953	24467.79
560.316	24764.05
560.679	24675.47
561.041	24816.25
561.404	25042.24
561.767	25229.12
562.129	25086.3
562.492	25424.83
562.854	25470.25
563.217	25509.34
563.579	25660.3
563.941	25823.69
564.304	26003.57
564.666	26262.09
565.028	26188.87
565.39	26294.86
565.753	26558.81
566.115	26539.37
566.477	26695.75
566.839	26937.55
567.201	27150.66
567.563	27123.54
567.925	27340.03
568.287	27350.65
568.648	27596.75
569.01	27739.57
569.372	27994.25
569.734	27988.15
570.095	28280.34
570.457	28394.69
570.819	28573.22
571.18	28598.3
571.542	28916.49
571.903	28921.91
572.265	29017.5
572.626	29208.68
572.987	29306.53
573.349	29548.11
573.71	29632.17
574.071	29938.15
574.432	30050.92
574.794	30320.29
575.155	30263.12
575.516	30340.85
575.877	30590.79
576.238	30595.76
576.599	30741.52
576.96	30888.41
577.32	31123.43
577.681	31172.25
578.042	31375.4
578.403	31303.32
578.763	31555.29
579.124	31491.11
579.485	31901.04
579.845	32008.16
580.206	32024.88
580.566	32174.48
580.927	32326.57
581.287	32529.95
581.648	32442.72
582.008	32733.56
582.368	32828.47
582.728	32988.92
583.089	33127.9
583.449	33105.53
583.809	33341.45
584.169	33416.71
584.529	33554.33
584.889	33986.86
585.249	33858.5
585.609	33854.66
585.969	34210.58
586.329	34300.3
586.688	34540.52
587.048	34669.1
587.408	34669.78
587.768	34915.42
588.127	35030.22
588.487	35069.09
588.846	35431.79
589.206	35522.64
589.565	35717.89
589.925	35989.97
590.284	36206.01
590.643	36409.85
591.003	36506.57
591.362	36987.69
591.721	37074.01
592.08	37234.01
592.44	37549.03
592.799	37575.24
593.158	37905.85
593.517	38057.71
593.876	38395.11
594.235	38400.76
594.593	38577.47
594.952	39062.89
595.311	39144.69
595.67	39293.84
596.029	39719.37
596.387	39794.17
596.746	40207.26
597.104	40155.29
597.463	40262.85
597.822	40746.23
598.18	40684.76
598.538	41069.84
598.897	41462.14
599.255	41399.1
599.613	42095.12
599.972	41969.48
600.33	42249.47
600.688	42444.72
601.046	42622.57
601.404	43023.01
601.762	43029.56
602.12	43381.64
602.478	43495.99
602.836	43839.26
603.194	43576.89
603.552	43926.71
603.91	44062.53
604.268	44469.52
604.625	44538.22
604.983	44866.12
605.341	44796.29
605.698	45242.16
606.056	45527.8
606.413	45413.9
606.771	45846.21
607.128	45902.03
607.485	45866.32
607.843	46074.23
608.2	46344.95
608.557	46754.43
608.914	46651.61
609.272	47059.96
609.629	47253.63
609.986	47386.28
610.343	47401.65
610.7	47853.16
611.057	47869.66
611.414	47998.47
611.771	48166.6
612.127	48250.67
612.484	48349.65
612.841	48623.54
613.198	48549.42
613.554	48680.71
613.911	48925.45
614.267	49044.54
614.624	49140.81
614.98	49259.45
615.337	49556.85
615.693	49605.88
616.05	49625.09
616.406	49992.99
616.762	49970.17
617.118	49924.29
617.475	50007.68
617.831	50239.99
618.187	50168.81
618.543	50331.29
618.899	50585.29
619.255	50480.44
619.611	50553.2
619.967	50806.98
620.323	50902.8
620.678	50653.32
621.034	50777.61
621.39	50851.5
621.746	50979.18
622.101	51301.21
622.457	50945.28
622.812	51164.04
623.168	51243.36
623.523	51300.53
623.879	51328.55
624.234	51345.27
624.589	51367.87
624.945	51411.26
625.3	51532.61
625.655	51573.52
626.01	51483.58
626.365	51524.7
626.72	51494.87
627.075	51571.48
627.43	51578.94
627.785	51624.36
628.14	51639.28
628.495	51526.74
628.85	51640.86
629.205	51576.91
629.559	51759.73
629.914	51479.28
630.269	51601.76
630.623	51490.81
630.978	51530.13
631.332	51680.18
631.687	51583.01
632.041	51576
632.396	51559.05
632.75	51506.63
633.104	51561.09
633.459	51423.92
633.813	51512.5
634.167	51429.11
634.521	51439.74
634.875	51412.39
635.229	51314.99
635.583	51220.31
635.937	51212.85
636.291	51258.27
636.645	51227.99
636.999	51041.55
637.352	51138.5
637.706	51002.46
638.06	51053.76
638.413	50944.38
638.767	50808.57
639.121	50954.55
639.474	50885.17
639.828	50761.56
640.181	50756.36
640.534	50782.13
640.888	50659.64
641.241	50500.1
641.594	50655.57
641.947	50690.83
642.301	50639.76
642.654	50526.99
643.007	50450.16
643.36	50517.5
643.713	50413.55
644.066	50573.09
644.419	50190.5
644.771	49910.28
645.124	49665.32
645.477	49563.17
645.83	49436.17
646.182	49496.96
646.535	49277.53
646.888	49305.33
647.24	49203.41
647.593	49477.3
647.945	49302.62
648.298	49231.88
648.65	48954.15
649.002	48840.03
649.355	48804.32
649.707	48657.89
650.059	48661.95
650.411	49174.26
650.763	49360.92
651.115	49852.21
651.467	49703.28
651.819	49626.9
652.171	49658.76
652.523	49468.49
652.875	49488.83
653.227	49389.17
653.578	49612.44
653.93	49478.43
654.282	49404.99
654.633	49254.26
654.985	49438.66
655.337	49411.77
655.688	49254.93
656.039	49446.57
656.391	49112.34
656.742	49215.39
657.094	49171.32
657.445	49099.23
657.796	49140.59
658.147	49141.72
658.498	49103.75
658.849	49206.35
659.2	49140.81
659.551	49063.53
659.902	49146.01
660.253	48914.38
660.604	49142.62
660.955	48899.01
661.306	49131.77
661.656	48970.2
662.007	48994.15
662.358	48879.12
662.708	48946.24
663.059	48871.67
663.409	48761.16
663.76	48815.85
664.11	48980.36
664.461	48894.49
664.811	48994.6
665.161	48871.67
665.511	48731.78
665.862	48952.34
666.212	48932.68
666.562	48913.93
666.912	48771.78
667.262	48706.25
667.612	48589.41
667.962	48825.57
668.312	48747.83
668.662	48899.91
669.011	48767.71
669.361	48719.13
669.711	48826.24
670.06	48746.47
670.41	48581.51
670.76	48616.31
671.109	48811.56
671.459	48680.26
671.808	48777.43
672.157	48677.32
672.507	48541.05
672.856	48446.59
673.205	48536.31
673.554	48562.75
673.904	48553.03
674.253	48752.8
674.602	48653.14
674.951	48162.99
675.3	47808.64
675.649	48454.05
675.998	48554.84
676.346	48544.44
676.695	48523.2
677.044	48305.58
677.393	48388.06
677.741	48477.55
678.09	48343.55
678.438	48396.88
678.787	48410.21
679.135	48353.04
679.484	48006.38
679.832	48153.95
680.181	48050.45
680.529	48159.82
680.877	48027.4
681.225	47945.14
681.573	48239.14
681.922	48032.82
682.27	47919.38
682.618	47906.72
682.966	47827.17
683.314	47793.96
683.661	47798.25
684.009	47651.36
684.357	47500.4
684.705	47488.43
685.053	47556.9
685.4	47268.09
685.748	47272.16
686.095	47376.79
686.443	47064.71
686.79	47020.42
687.138	47018.61
687.485	47107.65
687.832	46865.62
688.18	46951.49
688.527	46746.07
688.874	46645.74
689.221	46663.59
689.568	46520.99
689.915	46349.7
690.262	46531.16
690.609	46376.37
690.956	46248.23
691.303	46202.81
691.65	45981.8
691.997	45929.6
692.344	45666.55
692.69	45777.51
693.037	45716.5
693.383	45392.21
693.73	45575.26
694.077	45296.17
694.423	45377.07
694.769	45170.75
695.116	45120.81
695.462	44947.93
695.808	44861.15
696.155	44873.58
696.501	44649.18
696.847	44521.5
697.193	44260.71
697.539	44385.91
697.885	44120.61
698.231	43894.17
698.577	44086.48
698.923	44183.65
699.269	43723.33
699.614	43552.03
699.96	43505.71
700.306	43517.23
700.651	43489.89
700.997	43200.86
701.342	43152.27
701.688	43130.35
702.033	42905.04
702.379	42923.8
702.724	42759.74
703.069	42957.47
703.415	42450.14
703.76	42565.39
704.105	42493.98
704.45	42315.23
704.795	42233.65
705.14	41999.76
705.485	42051.51
705.83	41914.11
706.175	41940.1
706.52	41693.78
706.865	41662.82
707.209	41442.48
707.554	41303.96
707.899	41363.62
708.243	41222.38
708.588	41210.63
708.932	40921.82
709.277	40994.13
709.621	40934.93
709.966	40633.47
710.31	40606.57
710.654	40478.67
710.998	40492.23
711.342	40607.03
711.687	40374.49
712.031	40420.14
712.375	40186.25
712.719	40077.1
713.063	39962.3
713.407	40216.53
713.75	39901.51
714.094	39961.84
714.438	39722.98
714.782	39651.57
715.125	39546.49
715.469	39763.21
715.812	39455.42
716.156	39292.48
716.499	39276.21
716.843	39307.62
717.186	38874.64
717.53	39350.11
717.873	39304.23
718.216	39278.47
718.559	38798.94
718.902	38683.46
719.246	38749.67
719.589	38577.02
719.932	38553.29
720.275	38626.06
720.617	38571.82
720.96	38420.42
721.303	38396.24
721.646	38467.42
721.989	38142.91
722.331	38293.87
722.674	38171.84
723.016	38120.31
723.359	37927.77
723.701	38072.4
724.044	37909.92
724.386	37801.22
724.729	37861.11
725.071	37848.45
725.413	37758.51
725.755	37830.38
726.097	37461.57
726.439	37382.48
726.782	37343.38
727.124	37568.91
727.465	37401.23
727.807	37203.5
728.149	37240.11
728.491	37170.28
728.833	37088.25
729.175	37106.1
729.516	36916.73
729.858	36839.67
730.199	36968.7
730.541	36937.07
730.882	36681.25
731.224	36895.03
731.565	36689.16
731.906	36545.66
732.248	36722.61
732.589	36486
732.93	36384.99
733.271	36375.72
733.612	36373.92
733.953	36496.4
734.294	36275.61
734.635	36174.83
734.976	36449.17
735.317	36181.61
735.658	36039.24
735.999	36012.8
736.339	36083.75
736.68	35927.15
737.021	36023.64
737.361	35918.34
737.702	36049.86
738.042	35927.37
738.383	35934.38
738.723	35836.98
739.063	35676.76
739.404	35834.27
739.744	35583.2
740.084	35685.35
740.424	35702.52
740.764	35501.85
741.104	35643.99
741.444	35367.16
741.784	35434.96
742.124	35425.47
742.464	35323.77
742.804	35286.94
743.143	35152.25
743.483	35365.36
743.823	35151.12
744.162	35125.14
744.502	35247.62
744.841	34892.37
745.181	35170.11
745.52	34821.87
745.86	34842.43
746.199	34828.19
746.538	34907.51
746.877	34832.49
747.216	34857.35
747.556	34790.23
747.895	34826.16
748.234	34659.16
748.573	34536.9
748.911	34515.43
749.25	34604.02
749.589	34347.53
749.928	34546.62
750.267	34393.18
750.605	34343.01
750.944	34261.43
751.283	34267.98
751.621	34262.79
751.96	34077.71
752.298	34109.8
752.636	34082.23
752.975	34058.05
753.313	33794.78
753.651	34089.91
753.989	33755.91
754.327	33806.75
754.666	33554.78
755.004	33716.13
