Data from 17-1436_FLMS001491_009.txt Node
Date: Thu Apr 19 16:29:14 BST 2018
User: hsy
Spectrometer: FLMS00149
Trigger mode: 0
Integration Time (sec): 1.000000E-2
Scans to average: 10
Electric dark correction enabled: true
Nonlinearity correction enabled: false
Boxcar width: 0
XAxis mode: Wavelengths
Number of Pixels in Spectrum: 2048
>>>>>Begin Spectral Data<<<<<
341.393	-5.95
341.776	-5.95
342.16	-5.95
342.543	-66.74
342.927	-69.9
343.31	-59.05
343.693	-83.46
344.077	-69.9
344.46	-49.11
344.843	-38.94
345.226	-32.16
345.61	-56.34
345.993	1.74
346.376	7.16
346.759	5.8
347.142	8.29
347.525	49.65
347.908	57.33
348.291	66.14
348.674	90.32
349.057	102.53
349.44	113.15
349.823	166.7
350.206	175.74
350.588	212.58
350.971	209.19
351.354	260.26
351.737	255.97
352.119	301.16
352.502	279.92
352.884	321.05
353.267	324.89
353.65	330.77
354.032	340.03
354.414	336.87
354.797	352.24
355.179	359.24
355.562	373.25
355.944	386.59
356.326	370.77
356.709	363.54
357.091	379.81
357.473	369.86
357.855	370.32
358.238	353.14
358.62	382.07
359.002	388.39
359.384	383.87
359.766	372.12
360.148	389.3
360.53	383.2
360.912	368.73
361.294	371.22
361.676	369.19
362.057	383.65
362.439	379.35
362.821	372.8
363.203	381.39
363.584	379.13
363.966	329.86
364.348	362.18
364.729	371.45
365.111	384.1
365.493	363.99
365.874	373.93
366.256	386.59
366.637	336.87
367.019	377.55
367.4	366.25
367.781	365.8
368.163	378.9
368.544	358.56
368.925	348.39
369.306	370.09
369.688	366.25
370.069	345.91
370.45	379.81
370.831	395.63
371.212	372.12
371.593	375.74
371.974	365.57
372.355	357.21
372.736	378.68
373.117	383.87
373.498	398.79
373.879	374.83
374.26	375.06
374.641	367.38
375.021	367.6
375.402	363.54
375.783	387.49
376.163	400.14
376.544	390.2
376.925	383.42
377.305	405.34
377.686	376.42
378.066	406.47
378.447	401.73
378.827	414.38
379.208	404.21
379.588	402.4
379.968	435.4
380.349	390.43
380.729	407.38
381.109	403.99
381.489	422.07
381.87	411.44
382.25	422.52
382.63	408.51
383.01	430.65
383.39	424.55
383.77	416.19
384.15	422.52
384.53	422.74
384.91	439.01
385.29	438.11
385.67	427.49
386.049	438.79
386.429	447.6
386.809	463.42
387.189	455.28
387.568	462.97
387.948	457.32
388.328	467.71
388.707	470.43
389.087	470.2
389.466	452.35
389.846	457.09
390.225	470.2
390.605	472.46
390.984	487.37
391.363	500.26
391.743	481.27
392.122	490.99
392.501	521.27
392.881	481.5
393.26	507.49
393.639	514.72
394.018	524.21
394.397	515.62
394.776	515.85
395.155	512.46
395.534	525.11
395.913	532.12
396.292	520.59
396.671	515.17
397.05	530.99
397.429	543.19
397.808	535.73
398.186	552.68
398.565	535.73
398.944	545.9
399.323	532.12
399.701	566.69
400.08	538.22
400.458	558.78
400.837	574.38
401.215	596.98
401.594	581.61
401.972	564.43
402.351	580.25
402.729	566.47
403.107	590.65
403.486	598.11
403.864	598.56
404.242	589.97
404.62	618.9
404.999	634.71
405.377	629.52
405.755	630.2
406.133	648.05
406.511	643.75
406.889	621.83
407.267	660.25
407.645	634.94
408.023	668.84
408.401	650.08
408.779	667.26
409.156	685.34
409.534	665.9
409.912	693.7
410.29	726.01
410.667	711.1
411.045	723.53
411.422	729.18
411.8	716.75
412.178	729.63
412.555	747.48
412.933	737.76
413.31	778.89
413.687	768.72
414.065	799.23
414.442	785.9
414.819	785.9
415.197	790.42
415.574	796.52
415.951	820.25
416.328	825.9
416.705	821.6
417.082	850.53
417.46	843.3
417.837	851.66
418.214	876.74
418.591	867.93
418.967	885.1
419.344	888.72
419.721	869.29
420.098	884.88
420.475	902.05
420.852	906.57
421.228	918.78
421.605	890.98
421.982	914.93
422.358	947.93
422.735	932.79
423.111	920.81
423.488	950.41
423.864	969.4
424.241	974.14
424.617	960.81
424.994	988.83
425.37	999.45
425.746	1000.58
426.123	1009.17
426.499	1017.53
426.875	1018.66
427.251	1050.52
427.627	1054.36
428.003	1060.47
428.379	1052.11
428.756	1081.48
429.132	1080.58
429.507	1122.39
429.883	1144.76
430.259	1136.17
430.635	1115.38
431.011	1134.36
431.387	1178.43
431.763	1194.47
432.138	1169.39
432.514	1238.99
432.89	1217.75
433.265	1255.72
433.641	1261.59
434.016	1280.57
434.392	1283.29
434.767	1322.15
435.143	1306.34
435.518	1322.38
435.894	1339.56
436.269	1353.57
436.644	1402.83
437.02	1369.61
437.395	1358.99
437.77	1413.68
438.145	1430.17
438.52	1403.96
438.895	1427.24
439.271	1446.45
439.646	1450.74
440.021	1488.93
440.395	1473.79
440.77	1460.91
441.145	1505.43
441.52	1506.56
441.895	1516.05
442.27	1543.62
442.645	1513.34
443.019	1546.78
443.394	1560.34
443.769	1558.76
444.143	1561.47
444.518	1588.59
444.892	1562.6
445.267	1580.9
445.641	1620.45
446.016	1614.58
446.39	1636.72
446.764	1603.05
447.139	1648.47
447.513	1661.58
447.887	1655.48
448.262	1642.82
448.636	1682.6
449.01	1723.73
449.384	1723.73
449.758	1702.03
450.132	1728.92
450.506	1754.01
450.88	1774.12
451.254	1771.86
451.628	1785.87
452.002	1770.28
452.376	1822.25
452.75	1829.49
453.123	1842.59
453.497	1884.4
453.871	1891.86
454.244	1946.32
454.618	1918.07
454.992	1955.13
455.365	2002.36
455.739	2004.62
456.112	2029.48
456.486	2016.15
456.859	2058.18
457.232	2082.81
457.606	2106.77
457.979	2120.78
458.352	2174.34
458.725	2154.67
459.099	2188.8
459.472	2250.04
459.845	2289.59
460.218	2287.78
460.591	2297.27
460.964	2313.09
461.337	2351.73
461.71	2418.4
462.083	2484.16
462.456	2448.68
462.829	2404.39
463.201	2501.33
463.574	2491.39
463.947	2575.23
464.32	2567.09
464.692	2602.35
465.065	2611.39
465.438	2652.29
465.81	2677.37
466.183	2654.77
466.555	2725.73
466.928	2748.56
467.3	2775.45
467.672	2853.64
468.045	2850.02
468.417	2871.49
468.789	2873.98
469.161	2916.24
469.534	2933.19
469.906	2962.34
470.278	3038.49
470.65	3051.15
471.022	3052.73
471.394	3140.86
471.766	3208.43
472.138	3236.68
472.51	3277.58
472.882	3330.01
473.253	3332.05
473.625	3405.94
473.997	3470.35
474.369	3466.73
474.74	3567.75
475.112	3594.41
475.484	3635.77
475.855	3694.52
476.227	3754.41
476.598	3820.85
476.97	3871.24
477.341	3926.61
477.713	3997.11
478.084	3999.37
478.455	4153.49
478.827	4174.96
479.198	4283.88
479.569	4287.73
479.94	4385.58
480.311	4455.18
480.682	4527.27
481.053	4678
481.424	4683.42
481.795	4758
482.166	4845
482.537	4908.05
482.908	4964.09
483.279	5061.49
483.65	5215.39
484.021	5277.53
484.391	5298.1
484.762	5400.47
485.133	5425.1
485.503	5469.39
485.874	5675.94
486.244	5706.45
486.615	5836.39
486.985	5880.9
487.356	5983.5
487.726	6010.84
488.097	6186.21
488.467	6235.92
488.837	6405.41
489.207	6489.02
489.578	6569.93
489.948	6680.88
490.318	6736.48
490.688	6815.8
491.058	6978.05
491.428	7057.14
491.798	7095.56
492.168	7192.06
492.538	7355.22
492.908	7381.88
493.278	7493.52
493.648	7557.02
494.017	7703.68
494.387	7815.77
494.757	7897.35
495.126	7977.57
495.496	7997.69
495.866	8171.24
496.235	8198.13
496.605	8240.62
496.974	8367.39
497.344	8472.7
497.713	8636.31
498.082	8571.46
498.452	8686.71
498.821	8766.03
499.19	8777.1
499.559	9008.51
499.928	9066.13
500.298	9080.37
500.667	9173.47
501.036	9251.66
501.405	9295.73
501.774	9407.14
502.143	9442.62
502.512	9602.16
502.88	9631.09
503.249	9693.46
503.618	9748.83
503.987	9821.37
504.356	9888.71
504.724	10038.08
505.093	10078.99
505.462	10125.31
505.83	10214.8
506.199	10263.61
506.567	10415.02
506.936	10443.27
507.304	10613.66
507.672	10676.03
508.041	10718.07
508.409	10788.12
508.777	10871.28
509.145	10998.51
509.514	11031.96
509.882	11102.24
510.25	11150.37
510.618	11223.36
510.986	11363.7
511.354	11397.37
511.722	11564.37
512.09	11689.79
512.458	11617.48
512.826	11753.52
513.193	11876
513.561	11903.8
513.929	12006.17
514.297	12184.47
514.664	12254.3
515.032	12299.72
515.4	12359.38
515.767	12521.63
516.135	12555.76
516.502	12511.92
516.869	12782.64
517.237	12832.13
517.604	12785.58
517.972	13041.62
518.339	13095.86
518.706	13204.1
519.073	13256.08
519.44	13407.49
519.808	13546.24
520.175	13596.86
520.542	13696.52
520.909	13816.06
521.276	13913.91
521.643	14105.77
522.009	14206.79
522.376	14271.64
522.743	14402.26
523.11	14571.75
523.477	14665.53
523.843	14819.43
524.21	14974.45
524.577	14994.34
524.943	15179.64
525.31	15229.36
525.676	15417.38
526.043	15494.89
526.409	15575.57
526.776	15786.86
527.142	15919.51
527.508	15919.96
527.874	16141.2
528.241	16336.45
528.607	16322.21
528.973	16550.23
529.339	16487.63
529.705	16736.66
530.071	16841.97
530.437	16981.18
530.803	17186.6
531.169	17262.75
531.535	17330.55
531.901	17440.6
532.267	17507.94
532.632	17716.53
532.998	17733.93
533.364	17857.76
533.73	17955.39
534.095	18126.01
534.461	18074.26
534.826	18243.97
535.192	18417.07
535.557	18535.26
535.923	18487.8
536.288	18598.76
536.653	18786.1
537.019	18728.7
537.384	18899.77
537.749	18983.61
538.114	19001.46
538.479	19120.1
538.845	19208.92
539.21	19288.69
539.575	19261.12
539.94	19297.28
540.305	19496.82
540.67	19567.1
541.034	19591.96
541.399	19654.33
541.764	19736.81
542.129	19778.39
542.494	19867.66
542.858	19982.68
543.223	19982.91
543.587	20160.98
543.952	20083.47
544.316	20212.96
544.681	20267.65
545.045	20419.51
545.41	20389.22
545.774	20402.78
546.138	20368.66
546.503	20429.22
546.867	20532.27
547.231	20770
547.595	20763.45
547.959	20801.19
548.324	20948.53
548.688	21006.16
549.052	21041.41
549.416	21017.23
549.779	21114.85
550.143	21183.1
550.507	21380.84
550.871	21377.67
551.235	21371.12
551.599	21561.62
551.962	21594.62
552.326	21802.52
552.689	21793.93
553.053	21772.46
553.417	21793.48
553.78	22037.54
554.143	22056.3
554.507	22163.87
554.87	22232.11
555.234	22408.15
555.597	22339.68
555.96	22494.48
556.323	22668.49
556.686	22650.41
557.05	22762.72
557.413	22829.84
557.776	22983.73
558.139	23117.06
558.502	23291.97
558.865	23255.36
559.228	23479.31
559.59	23514.57
559.953	23548.01
560.316	23884.05
560.679	23898.74
561.041	23991.61
561.404	24096.24
561.767	24341.66
562.129	24376.01
562.492	24599.06
562.854	24554.31
563.217	24719.28
563.579	24756.11
563.941	24937.13
564.304	25071.59
564.666	25390.45
565.028	25303.67
565.39	25454.85
565.753	25624.57
566.115	25892.81
566.477	25883.54
566.839	26008.51
567.201	26285.34
567.563	26392.91
567.925	26449.4
568.287	26683.07
568.648	26681.04
569.01	26974.14
569.372	27107.92
569.734	27130.74
570.095	27384.97
570.457	27516.49
570.819	27701.8
571.18	27808.01
571.542	28051.17
571.903	28061.34
572.265	28240.09
572.626	28457.94
572.987	28617.71
573.349	28691.83
573.71	28864.03
574.071	29064.02
574.432	29144.93
574.794	29348.76
575.155	29503.79
575.516	29394.18
575.877	29712.59
576.238	29844.34
576.599	29981.97
576.96	30076.2
577.32	30149.87
577.681	30303.54
578.042	30671.44
578.403	30600.93
578.763	30706.92
579.124	30827.37
579.485	31016.74
579.845	31190.07
580.206	31237.3
580.566	31390.06
580.927	31495.37
581.287	31712.54
581.648	31655.59
582.008	31954.8
582.368	31972.42
582.728	32120.67
583.089	32216.71
583.449	32401.34
583.809	32461.22
584.169	32724.49
584.529	32743.93
584.889	33050.81
585.249	32933.07
585.609	33034.54
585.969	33426.17
586.329	33313.18
586.688	33649.21
587.048	33621.87
587.408	33804.92
587.768	33943.22
588.127	33962.2
588.487	34223.44
588.846	34634.5
589.206	34428.85
589.565	34608.74
589.925	35066.58
590.284	35100.25
590.643	35209.17
591.003	35501.82
591.362	35915.6
591.721	35978.64
592.08	36100.68
592.44	36594.45
592.799	36608.68
593.158	36664.28
593.517	36783.82
593.876	37178.61
594.235	37380.87
594.593	37484.82
594.952	37590.13
595.311	37796.22
595.67	38052.71
596.029	38446.15
596.387	38643.66
596.746	38909.19
597.104	38868.51
597.463	39211.55
597.822	39472.11
598.18	39470.98
598.538	39711.88
598.897	40034.81
599.255	40116.61
599.613	40796.6
599.972	40616.49
600.33	40935.12
600.688	40952.75
601.046	41272.29
601.404	41656.01
601.762	41813.29
602.12	42193.17
602.478	42247.63
602.836	42456.21
603.194	42309.1
603.552	42665.47
603.91	42748.86
604.268	43020.49
604.625	43017.33
604.983	43482.63
605.341	43360.6
605.698	43841.49
606.056	43998.55
606.413	43995.83
606.771	44290.52
607.128	44495.93
607.485	44475.82
607.843	44651.64
608.2	44875.81
608.557	45370.49
608.914	45338.17
609.272	45519.41
609.629	45770.7
609.986	45943.13
610.343	45968.21
610.7	46397.35
611.057	46382.44
611.414	46431.25
611.771	46664.92
612.127	46810.22
612.484	46894.97
612.841	47040.05
613.198	47196.88
613.554	47217.67
613.911	47581.5
614.267	47571.56
614.624	47691.78
614.98	47901.04
615.337	48144.43
615.693	48144.88
616.05	48221.94
616.406	48541.93
616.762	48407.02
617.118	48568.37
617.475	48522.95
617.831	48897.63
618.187	48784.86
618.543	49029.15
618.899	49143.72
619.255	49170.16
619.611	49178.98
619.967	49385.3
620.323	49446.54
620.678	49451.96
621.034	49395.24
621.39	49492.64
621.746	49505.29
622.101	49907.09
622.457	49507.1
622.812	49816.7
623.168	49925.4
623.523	49822.8
623.879	50018.73
624.234	49823.7
624.589	50020.99
624.945	50187.99
625.3	50243.81
625.655	50307.31
626.01	50253.75
626.365	50192.73
626.72	50232.28
627.075	50197.48
627.43	50263.92
627.785	50317.7
628.14	50230.47
628.495	50367.64
628.85	50397.47
629.205	50284.03
629.559	50526.28
629.914	50291.04
630.269	50430.02
630.623	50256.01
630.978	50131.49
631.332	50482.22
631.687	50397.93
632.041	50216.69
632.396	50187.99
632.75	50293.3
633.104	50209.23
633.459	50076.8
633.813	50085.39
634.167	50039.97
634.521	49946.86
634.875	50084.49
635.229	49989.12
635.583	49952.29
635.937	49796.36
636.291	49887.43
636.645	49968.79
636.999	49777.6
637.352	49934.21
637.706	49589.13
638.06	49881.33
638.413	49676.14
638.767	49583.94
639.121	49641.56
639.474	49402.7
639.828	49574.67
640.181	49592.52
640.534	49589.59
640.888	49399.76
641.241	49148.24
641.594	49380.1
641.947	49491.51
642.301	49376.26
642.654	49293.32
643.007	49158.41
643.36	49326.77
643.713	49210.84
644.066	49256.26
644.419	48959.55
644.771	48755.26
645.124	48282.95
645.477	48179.68
645.83	48026.69
646.182	48057.65
646.535	47960.25
646.888	48183.07
647.24	47994.37
647.593	48141.04
647.945	48020.36
648.298	47815.62
648.65	47694.72
649.002	47320.04
649.355	47374.5
649.707	47212.93
650.059	47278.69
650.411	47763.42
650.763	47930.65
651.115	48477.75
651.467	48383.74
651.819	48282.95
652.171	48172.67
652.523	48201.37
652.875	48201.6
653.227	47961.61
653.578	48269.62
653.93	48207.02
654.282	47887.03
654.633	47847.48
654.985	47954.6
655.337	47921.16
655.688	47897.2
656.039	48111.66
656.391	47714.83
656.742	47676.42
657.094	47790.09
657.445	47746.24
657.796	47786.24
658.147	47602.75
658.498	47719.58
658.849	47775.62
659.2	47701.27
659.551	47438.68
659.902	47728.17
660.253	47494.73
660.604	47706.47
660.955	47467.38
661.306	47706.92
661.656	47480.49
662.007	47610.65
662.358	47520.26
662.708	47468.51
663.059	47418.34
663.409	47269.87
663.76	47531.79
664.11	47525.46
664.461	47502.41
664.811	47394.84
665.161	47423.32
665.511	47336.76
665.862	47360.04
666.212	47452.92
666.562	47479.36
666.912	47399.59
667.262	47268.74
667.612	47210.21
667.962	47444.78
668.312	47257.44
668.662	47428.51
669.011	47360.04
669.361	47263.55
669.711	47431.68
670.06	47080.05
670.41	47237.11
670.76	47167.05
671.109	47327.27
671.459	47254.05
671.808	47213.38
672.157	47319.36
672.507	47099.93
672.856	47000.95
673.205	47087.96
673.554	47146.94
673.904	46990.78
674.253	47323.43
674.602	47031.91
674.951	46520.29
675.3	46396.9
675.649	47157.33
675.998	47100.84
676.346	47082.31
676.695	47049.09
677.044	46813.61
677.393	46873.05
677.741	46902.65
678.09	46809.09
678.438	46602.55
678.787	46747.85
679.135	46866.49
679.484	46548.76
679.832	46552.83
680.181	46561.64
680.529	46563
680.877	46411.14
681.225	46447.3
681.573	46716.44
681.922	46383.57
682.27	46358.48
682.618	46421.08
682.966	46282.78
683.314	46248.2
683.661	46267.19
684.009	46102.22
684.357	45968.44
684.705	45965.73
685.053	46020.64
685.4	45725.96
685.748	45711.5
686.095	45687.32
686.443	45589.69
686.79	45499.07
687.138	45465.17
687.485	45664.72
687.832	45293.2
688.18	45402.58
688.527	45201.45
688.874	45264.05
689.221	45142.7
689.568	45066.99
689.915	44950.16
690.262	45042.81
690.609	44889.82
690.956	44799.88
691.303	44688.02
691.65	44429.5
691.997	44422.94
692.344	44266.56
692.69	44264.53
693.037	44227.02
693.383	43738.89
693.73	44028.15
694.077	43923.29
694.423	43800.59
694.769	43628.16
695.116	43688.05
695.462	43479.01
695.808	43434.27
696.155	43548.84
696.501	43155.4
696.847	43186.36
697.193	42796.09
697.539	43099.36
697.885	42761.97
698.231	42628.19
698.577	42737.79
698.923	42415.31
699.269	42360.4
699.614	42243.56
699.96	42265.03
700.306	42095.77
700.651	42012.38
700.997	41821.2
701.342	41742.33
701.688	41588.67
702.033	41507.54
702.379	41557.48
702.724	41329.92
703.069	41458.73
703.415	41022.35
703.76	40930.15
704.105	40912.53
704.45	40930.38
704.795	40664.62
705.14	40680.22
705.485	40514.34
705.83	40263.73
706.175	40523.84
706.52	40186.22
706.865	40181.02
707.209	40026.9
707.554	39957.3
707.899	39981.25
708.243	39808.6
708.588	39725.66
708.932	39572.9
709.277	39548.27
709.621	39471.66
709.966	39219.46
710.31	39412.68
710.654	39090.2
710.998	39139.92
711.342	39091.33
711.687	38931.79
712.031	38801.62
712.375	38665.58
712.719	38701.51
713.063	38579.71
713.407	38600.72
713.75	38463.32
714.094	38475.98
714.438	38265.82
714.782	38287.74
715.125	37984.47
715.469	38218.81
715.812	37898.82
716.156	37830.35
716.499	37814.08
716.843	37905.15
717.186	37732.5
717.53	37841.87
717.873	37825.6
718.216	37742.89
718.559	37591.48
718.902	37156.69
719.246	37438.94
719.589	37342.68
719.932	37050.93
720.275	37173.19
720.617	37147.65
720.96	36981.56
721.303	37037.37
721.646	37003.25
721.989	36790.15
722.331	36861.79
722.674	36909.69
723.016	36848.45
723.359	36686.87
723.701	36637.84
724.044	36549.02
724.386	36282.59
724.729	36615.92
725.071	36424.28
725.413	36296.6
725.755	36186.77
726.097	36155.14
726.439	35996.05
726.782	35963.73
727.124	36172.54
727.465	36044.86
727.807	35953.56
728.149	35853.45
728.491	35788.82
728.833	35751.76
729.175	35822.26
729.516	35705.21
729.858	35673.12
730.199	35658.88
730.541	35649.84
730.882	35525.55
731.224	35590.86
731.565	35398.32
731.906	35380.69
732.248	35467.02
732.589	35263.86
732.93	35251.66
733.271	35172.79
733.612	35166.01
733.953	35301.37
734.294	34996.98
734.635	34935.96
734.976	35175.73
735.317	34789.52
735.658	35025.68
735.999	34969.86
736.339	34801.73
736.68	34658.68
737.021	34757.21
737.361	34673.59
737.702	34814.83
738.042	34490.32
738.383	34602.41
738.723	34562.18
739.063	34447.39
739.404	34597.44
739.744	34413.71
740.084	34318.12
740.424	34460.49
740.764	34235.64
741.104	34369.65
741.444	34197.67
741.784	34049.88
742.124	34208.07
742.464	34183.66
742.804	34040.84
743.143	34089.88
743.483	34011.69
743.823	33968.53
744.162	33901.18
744.502	33775.31
744.841	33713.39
745.181	33853.95
745.52	33788.87
745.86	33816.89
746.199	33691.92
746.538	33623.68
746.877	33640.4
747.216	33596.33
747.556	33451.93
747.895	33440.63
748.234	33357.47
748.573	33319.51
748.911	33369
749.25	33315.44
749.589	33086.97
749.928	33110.7
750.267	33133.3
750.605	33171.03
750.944	33112.73
751.283	33074.54
751.621	33026.86
751.96	32759.97
752.298	32828.44
752.636	32810.37
752.975	32696.7
753.313	32482.92
753.651	32721.78
753.989	32509.36
754.327	32430.72
754.666	32291.96
755.004	32366.76
755.342	32240.21
