Data from 17-1564_FLMS001491_003.txt Node
Date: Thu Apr 19 16:31:26 BST 2018
User: hsy
Spectrometer: FLMS00149
Trigger mode: 0
Integration Time (sec): 1.000000E-2
Scans to average: 10
Electric dark correction enabled: true
Nonlinearity correction enabled: false
Boxcar width: 0
XAxis mode: Wavelengths
Number of Pixels in Spectrum: 2048
>>>>>Begin Spectral Data<<<<<
341.393	-10.97
341.776	-10.97
342.16	-10.97
342.543	-45.32
342.927	-71.31
343.31	-57.53
343.693	-67.92
344.077	-72.67
344.46	-69.28
344.843	-68.6
345.226	-42.39
345.61	-32.67
345.993	-24.76
346.376	-13.23
346.759	5.97
347.142	39.65
347.525	25.18
347.908	64.96
348.291	84.39
348.674	107.67
349.057	121.23
349.44	106.76
349.823	123.71
350.206	184.05
350.588	260.43
350.971	241.45
351.354	266.31
351.737	266.08
352.119	297.94
352.502	311.96
352.884	319.19
353.267	355.12
353.65	349.47
354.032	325.97
354.414	355.8
354.797	351.5
355.179	362.8
355.562	348.79
355.944	362.12
356.326	385.85
356.709	375.23
357.091	395.34
357.473	402.12
357.855	389.47
358.238	410.71
358.62	391.5
359.002	396.92
359.384	407.09
359.766	365.74
360.148	388.11
360.53	401.44
360.912	398.28
361.294	396.7
361.676	385.4
362.057	380.2
362.439	404.61
362.821	390.37
363.203	384.95
363.584	394.44
363.966	403.93
364.348	378.62
364.729	382.01
365.111	369.13
365.493	379.98
365.874	376.59
366.256	384.95
366.637	391.05
367.019	384.04
367.4	351.95
367.781	390.15
368.163	363.93
368.544	393.53
368.925	395.79
369.306	394.21
369.688	389.24
370.069	376.36
370.45	388.79
370.831	369.58
371.212	392.86
371.593	383.14
371.974	375.91
372.355	403.25
372.736	384.72
373.117	384.5
373.498	393.76
373.879	393.31
374.26	385.17
374.641	389.24
375.021	389.47
375.402	391.73
375.783	385.63
376.163	435.34
376.544	419.3
376.925	420.43
377.305	401.67
377.686	415
378.066	437.38
378.447	405.51
378.827	410.48
379.208	428.79
379.588	415.23
379.968	438.73
380.349	440.31
380.729	432.18
381.109	459.07
381.489	438.51
381.87	419.52
382.25	432.63
382.63	436.92
383.01	434.89
383.39	450.48
383.77	450.03
384.15	463.82
384.53	460.43
384.91	460.2
385.29	462.01
385.67	488
386.049	479.86
386.429	478.05
386.809	484.83
387.189	465.62
387.568	495
387.948	513.31
388.328	489.8
388.707	496.58
389.087	504.72
389.466	504.49
389.846	501.78
390.225	502.68
390.605	494.78
390.984	516.47
391.363	511.72
391.743	519.18
392.122	547.43
392.501	529.35
392.881	548.79
393.26	532.29
393.639	533.42
394.018	555.11
394.397	531.38
394.776	530.93
395.155	525.73
395.534	554.89
395.913	546.3
396.292	546.07
396.671	541.78
397.05	570.71
397.429	562.8
397.808	570.25
398.186	593.3
398.565	573.87
398.944	580.2
399.323	590.14
399.701	589.91
400.08	609.35
400.458	602.79
400.837	603.02
401.215	615.45
401.594	599.18
401.972	620.65
402.351	631.49
402.729	644.6
403.107	627.65
403.486	634.66
403.864	648.22
404.242	626.52
404.62	639.63
404.999	649.57
405.377	652.74
405.755	669.46
406.133	675.34
406.511	672.62
406.889	689.12
407.267	671.27
407.645	701.1
408.023	713.07
408.401	710.36
408.779	713.3
409.156	742.23
409.534	713.53
409.912	746.75
410.29	771.15
410.667	748.78
411.045	797.14
411.422	762.34
411.8	776.12
412.178	814.54
412.555	793.98
412.933	809.57
413.31	821.32
413.687	826.29
414.065	835.78
414.442	830.36
414.819	840.75
415.197	854.09
415.574	856.12
415.951	866.52
416.328	867.87
416.705	858.61
417.082	868.78
417.46	889.79
417.837	926.63
418.214	916.68
418.591	915.78
418.967	924.37
419.344	921.43
419.721	918.72
420.098	951.26
420.475	947.64
420.852	955.55
421.228	953.29
421.605	963.24
421.982	966.18
422.358	992.16
422.735	1022.9
423.111	985.84
423.488	1029.9
423.864	1041.43
424.241	1043.24
424.617	1028.09
424.994	1014.99
425.37	1038.72
425.746	1062.9
426.123	1067.87
426.499	1054.99
426.875	1106.28
427.251	1115.55
427.627	1110.35
428.003	1137.47
428.379	1136.57
428.756	1159.84
429.132	1154.64
429.507	1189.45
429.883	1198.49
430.259	1207.07
430.635	1209.56
431.011	1207.3
431.387	1268.09
431.763	1259.05
432.138	1270.12
432.514	1262.89
432.89	1288.2
433.265	1329.1
433.641	1339.27
434.016	1335.21
434.392	1379.05
434.767	1384.02
435.143	1383.11
435.518	1413.17
435.894	1414.52
436.269	1407.07
436.644	1472.38
437.02	1454.75
437.395	1439.61
437.77	1508.76
438.145	1486.84
438.52	1521.41
438.895	1518.03
439.271	1519.83
439.646	1553.96
440.021	1577.23
440.395	1596.44
440.77	1538.36
441.145	1593.96
441.52	1607.97
441.895	1589.21
442.27	1622.66
442.645	1614.75
443.019	1648.87
443.394	1622.66
443.769	1642.32
444.143	1649.1
444.518	1679.6
444.892	1689.55
445.267	1718.02
445.641	1695.42
446.016	1708.75
446.39	1715.76
446.764	1723.9
447.139	1751.24
447.513	1773.61
447.887	1753.27
448.262	1774.97
448.636	1776.55
449.01	1815.42
449.384	1792.14
449.758	1836.66
450.132	1856.55
450.506	1840.28
450.88	1864.46
451.254	1870.78
451.628	1893.83
452.002	1925.92
452.376	1935.64
452.75	1956.66
453.123	1991.68
453.497	1985.36
453.871	2017.22
454.244	2001.63
454.618	2026.71
454.992	2082.3
455.365	2110.33
455.739	2143.77
456.112	2163.21
456.486	2163.43
456.859	2165.24
457.232	2214.05
457.606	2260.83
457.979	2284.33
458.352	2344.9
458.725	2357.33
459.099	2346.93
459.472	2352.81
459.845	2430.54
460.218	2402.3
460.591	2462.63
460.964	2508.06
461.337	2522.29
461.71	2556.87
462.083	2586.7
462.456	2612.46
462.829	2614.95
463.201	2690.2
463.574	2679.12
463.947	2711.89
464.32	2754.38
464.692	2758.67
465.065	2780.36
465.438	2819.69
465.81	2844.09
466.183	2854.49
466.555	2929.06
466.928	2936.74
467.3	2898.33
467.672	2969.74
468.045	3035.05
468.417	3048.83
468.789	3077.98
469.161	3094.48
469.534	3133.35
469.906	3178.55
470.278	3235.27
470.65	3236.85
471.022	3336.28
471.394	3373.12
471.766	3419.9
472.138	3444.75
472.51	3503.74
472.882	3566.11
473.253	3579.44
473.625	3611.98
473.997	3684.07
474.369	3717.06
474.74	3718.42
475.112	3852.2
475.484	3882.03
475.855	3936.72
476.227	3959.54
476.598	4072.76
476.97	4095.13
477.341	4228.01
477.713	4295.58
478.084	4289.93
478.455	4407.44
478.827	4469.59
479.198	4568.57
479.569	4586.64
479.94	4657.6
480.311	4750.71
480.682	4865.06
481.053	4952.06
481.424	5022.34
481.795	5053.3
482.166	5172.39
482.537	5186.63
482.908	5344.37
483.279	5407.87
483.65	5484.7
484.021	5648.31
484.391	5640.4
484.762	5726.95
485.133	5816.67
485.503	5877.91
485.874	6040.17
486.244	6072.71
486.615	6267.05
486.985	6317.67
487.356	6421.85
487.726	6486.03
488.097	6673.37
488.467	6711.33
488.837	6822.52
489.207	6897.77
489.578	7066.58
489.948	7144.54
490.318	7206.92
490.688	7261.15
491.058	7420.02
491.428	7534.36
491.798	7550.86
492.168	7730.29
492.538	7809.84
492.908	7882.83
493.278	8076.5
493.648	8131.64
494.017	8226.32
494.387	8305.19
494.757	8399.43
495.126	8484.4
495.496	8518.07
495.866	8636.93
496.235	8794.44
496.605	8855.23
496.974	8900.88
497.344	8990.82
497.713	9105.85
498.082	9153.98
498.452	9231.49
498.821	9345.62
499.19	9335.67
499.559	9470.36
499.928	9494.54
500.298	9572.5
500.667	9656.57
501.036	9760.97
501.405	9826.73
501.774	9804.59
502.143	9983.11
502.512	10031.93
502.88	10182.2
503.249	10166.16
503.618	10244.8
503.987	10277.57
504.356	10359.6
504.724	10501.97
505.093	10524.12
505.462	10564.11
505.83	10560.05
506.199	10714.39
506.567	10854.28
506.936	10853.37
507.304	10988.28
507.672	11067.15
508.041	11164.78
508.409	11197.54
508.777	11294.27
509.145	11374.49
509.514	11401.61
509.882	11488.84
510.25	11527.71
510.618	11613.35
510.986	11655.16
511.354	11822.61
511.722	11855.61
512.09	11921.14
512.458	11976.28
512.826	12124.53
513.193	12169.5
513.561	12233.22
513.929	12255.37
514.297	12344.63
514.664	12488.81
515.032	12562.03
515.4	12598.64
515.767	12745.53
516.135	12794.34
516.502	12732.87
516.869	12984.84
517.237	12979.19
517.604	13105.07
517.972	13271.84
518.339	13278.85
518.706	13346.41
519.073	13370.59
519.44	13505.51
519.808	13646.29
520.175	13689
520.542	13842.9
520.909	13937.81
521.276	13994.08
521.643	14196.11
522.009	14259.84
522.376	14455.54
522.743	14515.65
523.11	14681.52
523.477	14840.84
523.843	14884.68
524.21	15027.5
524.577	15158.57
524.943	15240.6
525.31	15312.69
525.676	15559.69
526.043	15716.75
526.409	15657.09
526.776	15861.83
527.142	16022.5
527.508	16108.83
527.874	16389.5
528.241	16369.61
528.607	16350.18
528.973	16637.4
529.339	16646.89
529.705	16830.62
530.071	17056.6
530.437	17083.49
530.803	17191.96
531.169	17298.18
531.535	17341.34
531.901	17436.25
532.267	17551.05
532.632	17704.49
532.998	17772.51
533.364	17949.91
533.73	18049.57
534.095	18149.9
534.461	18251.37
534.826	18337.47
535.192	18325.72
535.557	18546.28
535.923	18541.31
536.288	18688.87
536.653	18766.61
537.019	18779.04
537.384	18955.31
537.749	18917.57
538.114	19026.27
538.479	19112.82
538.845	19269.87
539.21	19183.55
539.575	19230.1
539.94	19420.38
540.305	19487.27
540.67	19516.2
541.034	19652.46
541.399	19625.57
541.764	19758.45
542.129	19787.6
542.494	19937.2
542.858	19989.18
543.223	20047.93
543.587	20195.05
543.952	20122.96
544.316	20165.67
544.681	20261.94
545.045	20394.59
545.41	20518.2
545.774	20542.84
546.138	20576.73
546.503	20609.05
546.867	20593.68
547.231	20897.63
547.595	20832.32
547.959	20911.19
548.324	20920.23
548.688	21066.21
549.052	21041.13
549.416	21107.34
549.779	21204.06
550.143	21296.26
550.507	21414
550.871	21484.96
551.235	21381.23
551.599	21731.28
551.962	21692.18
552.326	21752.52
552.689	21800.2
553.053	21740.09
553.417	21870.26
553.78	22145.28
554.143	22143.25
554.507	22207.42
554.87	22362.67
555.234	22511.6
555.597	22318.16
555.96	22604.02
556.323	22674.3
556.686	22712.5
557.05	22968.31
557.413	22987.52
557.776	22994.3
558.139	23204.23
558.502	23253.5
558.865	23263.44
559.228	23463.44
559.59	23571.91
559.953	23564.45
560.316	23907.04
560.679	23930.09
561.041	24060.48
561.404	24302.06
561.767	24392.45
562.129	24236.3
562.492	24645.78
562.854	24568.04
563.217	24616.4
563.579	24850.07
563.941	25024.53
564.304	25189.04
564.666	25502.03
565.028	25297.06
565.39	25512.2
565.753	25777.73
566.115	25881.45
566.477	25995.12
566.839	26159.19
567.201	26386.98
567.563	26382.46
567.925	26653.86
568.287	26862.44
568.648	26876
569.01	27129.1
569.372	27448.87
569.734	27417.23
570.095	27595.31
570.457	27835.53
570.819	27906.94
571.18	28031.45
571.542	28285.91
571.903	28324.78
572.265	28463.08
572.626	28787.36
572.987	28709.85
573.349	29005.89
573.71	29156.85
574.071	29323.17
574.432	29509.61
574.794	29784.63
575.155	29783.04
575.516	29789.6
575.877	29975.58
576.238	30057.16
576.599	30318.85
576.96	30525.17
577.32	30611.95
577.681	30704.15
578.042	30994.76
578.403	31097.36
578.763	31189.56
579.124	31261.65
579.485	31691.69
579.845	31808.3
580.206	31826.61
580.566	31924.46
580.927	32130.78
581.287	32219.82
581.648	32315.41
582.008	32620.26
582.368	32757.43
582.728	32853.02
583.089	33070.64
583.449	33381.14
583.809	33378.88
584.169	33635.15
584.529	33771.87
584.889	34351.29
585.249	34342.92
585.609	34372.75
585.969	34796.47
586.329	34880.99
586.688	35293.18
587.048	35552.84
587.408	35830.57
587.768	36080.96
588.127	36525.69
588.487	36766.59
588.846	37257.65
589.206	37339.23
589.565	37739.22
589.925	38197.96
590.284	38609.48
590.643	38804.73
591.003	39291.04
591.362	39934.87
591.721	40125.82
592.08	40475.87
592.44	41152.69
592.799	41535.96
593.158	41825.44
593.517	42256.39
593.876	42897.05
594.235	43082.13
594.593	43497.94
594.952	44136.57
595.311	44484.8
595.67	44935.87
596.029	45704.89
596.387	46129.96
596.746	46563.62
597.104	46815.14
597.463	47197.95
597.822	47732.86
598.18	48112.96
598.538	48426.62
598.897	49114.97
599.255	49152.48
599.613	49943.19
599.972	49978.67
600.33	50387.7
600.688	50557.41
601.046	51083.5
601.404	51558.07
601.762	51769.81
602.12	52254.32
602.478	52507.19
602.836	52822.44
603.194	52877.58
603.552	53158.25
603.91	53411.12
604.268	53831.9
604.625	53955.06
604.983	54336.98
605.341	54415.39
605.698	54859.67
606.056	55262.15
606.413	55248.59
606.771	55618.07
607.128	55854.9
607.485	55940.1
607.843	56061
608.2	56370.59
608.557	56743.47
608.914	56727.87
609.272	57008.54
609.629	57323.56
609.986	57551.35
610.343	57656.89
610.7	57968.74
611.057	57994.96
611.414	58105.46
611.771	58412.8
612.127	58538.45
612.484	58676.97
612.841	58959.68
613.198	58896.18
613.554	59036.96
613.911	59359.44
614.267	59366
614.624	59427.69
614.98	59688.25
615.337	59890.5
615.693	59947.9
616.05	60059.08
616.406	60225.18
616.762	60247.78
617.118	60346.76
617.475	60469.24
617.831	60630.82
618.187	60727.77
618.543	60837.14
618.899	61034.2
619.255	61024.26
619.611	61130.02
619.967	61249.79
620.323	61343.8
620.678	61355.77
621.034	61397.58
621.39	61421.99
621.746	61566.62
622.101	61784.46
622.457	61680.51
622.812	61826.95
623.168	61852.26
623.523	61987.17
623.879	62066.94
624.234	61977.45
624.589	62085.47
624.945	62166.83
625.3	62186.49
625.655	62180.38
626.01	62274.17
626.365	62354.62
626.72	62360.27
627.075	62352.36
627.43	62360.95
627.785	62451.34
628.14	62472.13
628.495	62547.38
628.85	62594.16
629.205	62500.6
629.559	62625.12
629.914	62558
630.269	62586.48
630.623	62495.18
630.978	62483.88
631.332	62729.07
631.687	62656.53
632.041	62601.39
632.396	62631.45
632.75	62587.83
633.104	62676.19
633.459	62555.29
633.813	62597.1
634.167	62606.36
634.521	62554.39
634.875	62602.75
635.229	62579.24
635.583	62462.86
635.937	62476.65
636.291	62474.16
636.645	62481.17
636.999	62441.39
637.352	62511.45
637.706	62357.78
638.06	62506.03
638.413	62413.6
638.767	62370.44
639.121	62374.28
639.474	62325.24
639.828	62314.39
640.181	62282.3
640.534	62375.41
640.888	62272.13
641.241	62168.63
641.594	62244.11
641.947	62331.79
642.301	62229.42
642.654	62301.06
643.007	62189.65
643.36	62225.13
643.713	62151.23
644.066	62296.99
644.419	62086.38
644.771	61909.43
645.124	61612.72
645.477	61665.37
645.83	61551.93
646.182	61550.8
646.535	61485.49
646.888	61525.03
647.24	61433.29
647.593	61541.53
647.945	61434.64
648.298	61349.45
648.65	61312.61
649.002	61219.05
649.355	61163.46
649.707	61124.37
650.059	61170.24
650.411	61397.35
650.763	61520.52
651.115	61832.82
651.467	61755.09
651.819	61718.48
652.171	61658.59
652.523	61582.21
652.875	61646.39
653.227	61580.17
653.578	61714.18
653.93	61600.74
654.282	61518.48
654.633	61486.17
654.985	61512.15
655.337	61597.12
655.688	61546.05
656.039	61616.33
656.391	61358.26
656.742	61489.1
657.094	61397.58
657.445	61447.3
657.796	61451.14
658.147	61391.25
658.498	61411.14
658.849	61409.11
659.2	61375.43
659.551	61310.13
659.902	61517.35
660.253	61342.44
660.604	61381.31
660.955	61309
661.306	61358.03
661.656	61273.97
662.007	61313.51
662.358	61307.64
662.708	61298.37
663.059	61240.07
663.409	61148.1
663.76	61285.04
664.11	61269.67
664.461	61285.27
664.811	61292.95
665.161	61238.26
665.511	61189
665.862	61179.51
666.212	61229.22
666.562	61285.27
666.912	61231.48
667.262	61158.94
667.612	61089.79
667.962	61160.98
668.312	61120.53
668.662	61222.44
669.011	61163.46
669.361	61136.8
669.711	61129.79
670.06	61103.8
670.41	61109
670.76	61038.27
671.109	61141.09
671.459	61113.29
671.808	61068.1
672.157	61149
672.507	60971.83
672.856	61035.1
673.205	61089.11
673.554	61117.14
673.904	60991.04
674.253	61245.49
674.602	61062.9
674.951	60756.24
675.3	60695.68
675.649	61058.38
675.998	60997.37
676.346	60975.9
676.695	61071.71
677.044	60911.49
677.393	60969.34
677.741	60950.36
678.09	60920.76
678.438	60820.87
678.787	60917.59
679.135	60908.55
679.484	60757.37
679.832	60824.04
680.181	60822
680.529	60861.32
680.877	60759.86
681.225	60731.38
681.573	60898.16
681.922	60682.8
682.27	60689.12
682.618	60657.71
682.966	60591.73
683.314	60631.72
683.661	60596.7
684.009	60449.58
684.357	60473.76
684.705	60414.33
685.053	60447.1
685.4	60346.76
685.748	60279.42
686.095	60234.22
686.443	60133.88
686.79	60148.57
687.138	60220.21
687.485	60183.38
687.832	60073.32
688.18	60062.25
688.527	60010.27
688.874	60027.67
689.221	59977.96
689.568	59843.27
689.915	59777.74
690.262	59875.13
690.609	59797.62
690.956	59717.85
691.303	59716.95
691.65	59624.52
691.997	59601.47
692.344	59510.17
692.69	59492.09
693.037	59494.13
693.383	59314.47
693.73	59379.33
694.077	59266.34
694.423	59238.09
694.769	59080.13
695.116	59177.07
695.462	58938.89
695.808	58860.7
696.155	59010.52
696.501	58779.12
696.847	58862.05
697.193	58678.1
697.539	58719.01
697.885	58570.54
698.231	58540.48
698.577	58526.7
698.923	58427.49
699.269	58253.48
699.614	58231.11
699.96	58171.45
700.306	58173.48
700.651	58044
700.997	58012.58
701.342	57949.54
701.688	57823.66
702.033	57787.51
702.379	57786.15
702.724	57701.86
703.069	57688.98
703.415	57392.26
703.76	57339.38
704.105	57443.79
704.45	57287.18
704.795	57283.79
705.14	57070.69
705.485	57123.57
705.83	56924.93
706.175	57003.12
706.52	56952.5
706.865	56910.69
707.209	56809
707.554	56788.44
707.899	56705.95
708.243	56582.57
708.588	56518.61
708.932	56407.88
709.277	56478.84
709.621	56296.02
709.966	56222.58
710.31	56260.54
710.654	56075.01
710.998	56067.1
711.342	56064.61
711.687	55962.7
712.031	55918.4
712.375	55816.94
712.719	55806.32
713.063	55664.17
713.407	55790.27
713.75	55631.4
714.094	55557.73
714.438	55505.76
714.782	55528.36
715.125	55355.93
715.469	55527.23
715.812	55298.98
716.156	55207.23
716.499	55225.99
716.843	55211.08
717.186	55076.39
717.53	55157.52
717.873	55192.32
718.216	55052.66
718.559	54967.24
718.902	54699
719.246	54872.55
719.589	54734.48
719.932	54654.03
720.275	54710.98
720.617	54725.67
720.96	54535.61
721.303	54577.19
721.646	54616.74
721.989	54377.65
722.331	54472.79
722.674	54310.76
723.016	54289.07
723.359	54261.95
723.701	54305.56
724.044	54187.37
724.386	54063.54
724.729	54093.82
725.071	54057.66
725.413	53931.11
725.755	54078.9
726.097	53862.64
726.439	53836.2
726.782	53786.93
727.124	54000.03
727.465	53855.63
727.807	53684.79
728.149	53783.32
728.491	53696.31
728.833	53689.53
729.175	53645.69
729.516	53598.01
729.858	53537.22
730.199	53619.03
730.541	53490.22
730.882	53439.82
731.224	53463.78
731.565	53353.72
731.906	53423.78
732.248	53401.86
732.589	53168.42
732.93	53192.37
733.271	53240.73
733.612	53254.52
733.953	53352.82
734.294	53209.1
734.635	53050
734.976	53276.44
735.317	53086.16
735.658	53120.74
735.999	53059.27
736.339	52997.8
736.68	52941.76
737.021	52850.46
737.361	52763.91
737.702	53019.27
738.042	52786.73
738.383	52892.04
738.723	52937.24
739.063	52864.7
739.404	52866.73
739.744	52788.32
740.084	52632.39
740.424	52708.32
740.764	52610.01
741.104	52854.98
741.444	52558.72
741.784	52493.18
742.124	52564.37
742.464	52516.23
742.804	52444.37
743.143	52368.21
743.483	52501.54
743.823	52245.28
744.162	52263.13
744.502	52316.46
744.841	52296.35
745.181	52419.29
745.52	52212.06
745.86	52215
746.199	52247.09
746.538	52262.91
746.877	52235.56
747.216	52291.38
747.556	52122.12
747.895	52219.97
748.234	52089.35
748.573	52125.51
748.911	51989.24
749.25	52058.62
749.589	51867.66
749.928	51992.4
750.267	52005.96
750.605	51870.83
750.944	51887.32
751.283	51779.3
751.621	51850.26
751.96	51641.9
752.298	51612.3
752.636	51661.79
752.975	51634
753.313	51537.27
753.651	51801.22
753.989	51480.55
754.327	51562.36
754.666	51350.16
755.004	51321.01
755.342	51375.7
755.679	51309.94
