Data from 17-1564_FLMS001491_010.txt Node
Date: Thu Apr 19 16:31:43 BST 2018
User: hsy
Spectrometer: FLMS00149
Trigger mode: 0
Integration Time (sec): 1.000000E-2
Scans to average: 10
Electric dark correction enabled: true
Nonlinearity correction enabled: false
Boxcar width: 0
XAxis mode: Wavelengths
Number of Pixels in Spectrum: 2048
>>>>>Begin Spectral Data<<<<<
341.393	-11.44
341.776	-11.44
342.16	-11.44
342.543	-47.6
342.927	-53.93
343.31	-71.55
343.693	-73.59
344.077	-64.32
344.46	-55.06
344.843	-27.26
345.226	-47.15
345.61	-33.59
345.993	-28.84
346.376	15.45
346.759	6.19
347.142	19.29
347.525	31.95
347.908	69.24
348.291	71.72
348.674	88.9
349.057	98.61
349.44	121.21
349.823	144.26
350.206	156.46
350.588	234.65
350.971	267.2
351.354	239.63
351.737	292.05
352.119	303.58
352.502	296.57
352.884	313.97
353.267	326.18
353.65	342.67
354.032	350.58
354.414	339.74
354.797	357.82
355.179	354.43
355.562	384.48
355.944	374.09
356.326	375.44
356.709	381.09
357.091	374.76
357.473	380.64
357.855	390.36
358.238	372.73
358.62	389.68
359.002	389.68
359.384	395.55
359.766	384.71
360.148	401.43
360.53	392.62
360.912	392.39
361.294	395.78
361.676	382
362.057	388.32
362.439	383.35
362.821	400.07
363.203	385.39
363.584	360.98
363.966	368.44
364.348	384.26
364.729	391.26
365.111	366.85
365.493	389.91
365.874	380.87
366.256	383.58
366.637	393.07
367.019	378.38
367.4	369.57
367.781	391.71
368.163	389.68
368.544	372.5
368.925	374.99
369.306	391.94
369.688	390.81
370.069	384.48
370.45	363.92
370.831	377.25
371.212	372.5
371.593	401.2
371.974	381.32
372.355	384.71
372.736	388.55
373.117	379.28
373.498	391.26
373.879	384.03
374.26	392.84
374.641	360.3
375.021	386.52
375.402	404.82
375.783	383.35
376.163	411.83
376.544	420.86
376.925	405.72
377.305	389.68
377.686	436.23
378.066	398.49
378.447	414.99
378.827	417.25
379.208	418.15
379.588	392.16
379.968	410.24
380.349	414.54
380.729	422.22
381.109	429
381.489	431.94
381.87	421.99
382.25	443.91
382.63	433.07
383.01	441.88
383.39	426.06
383.77	465.84
384.15	447.08
384.53	437.59
384.91	453.18
385.29	474.42
385.67	448.89
386.049	461.54
386.429	492.28
386.809	475.1
387.189	466.97
387.568	477.59
387.948	458.6
388.328	462.67
388.707	464.25
389.087	469.45
389.466	481.2
389.846	484.82
390.225	470.35
390.605	503.57
390.984	511.94
391.363	484.59
391.743	512.84
392.122	504.25
392.501	509.68
392.881	503.35
393.26	535.21
393.639	539.51
394.018	524.82
394.397	524.14
394.776	529.56
395.155	531.6
395.534	546.96
395.913	534.99
396.292	526.85
396.671	522.78
397.05	542.67
397.429	540.64
397.808	555.1
398.186	554.42
398.565	561.43
398.944	558.49
399.323	556.45
399.701	539.05
400.08	573.85
400.458	578.15
400.837	561.65
401.215	550.58
401.594	568.88
401.972	577.24
402.351	606.4
402.729	584.7
403.107	564.14
403.486	612.95
403.864	598.26
404.242	629.67
404.62	624.93
404.999	636.23
405.377	626.51
405.755	645.72
406.133	643.01
406.511	631.48
406.889	642.33
407.267	650.69
407.645	666.51
408.023	658.82
408.401	686.17
408.779	673.97
409.156	697.02
409.534	695.43
409.912	695.89
410.29	683.68
410.667	734.3
411.045	713.74
411.422	737.24
411.8	716.68
412.178	745.83
412.555	766.62
412.933	783.12
413.31	730.46
413.687	756.22
414.065	774.75
414.442	796
414.819	807.3
415.197	800.74
415.574	809.55
415.951	860.85
416.328	809.78
416.705	816.11
417.082	840.51
417.46	856.33
417.837	856.33
418.214	845.49
418.591	868.54
418.967	884.58
419.344	877.12
419.721	869.89
420.098	870.12
420.475	894.98
420.852	891.36
421.228	898.14
421.605	890.46
421.982	868.76
422.358	914.19
422.735	932.49
423.111	915.31
423.488	949.44
423.864	935.2
424.241	949.89
424.617	970.91
424.994	964.81
425.37	983.11
425.746	1010.23
426.123	976.33
426.499	1017.01
426.875	1012.49
427.251	1050.23
427.627	1057.23
428.003	1059.04
428.379	1058.14
428.756	1065.14
429.132	1098.59
429.507	1088.87
429.883	1107.4
430.259	1155.31
430.635	1124.8
431.011	1136.33
431.387	1174.29
431.763	1184.69
432.138	1190.56
432.514	1186.27
432.89	1208.87
433.265	1231.01
433.641	1230.56
434.016	1219.94
434.392	1244.57
434.767	1286.38
435.143	1296.32
435.518	1310.56
435.894	1328.86
436.269	1349.2
436.644	1371.57
437.02	1342.65
437.395	1351.69
437.77	1372.7
438.145	1390.1
438.52	1384.23
438.895	1416.77
439.271	1427.84
439.646	1429.65
440.021	1438.92
440.395	1460.84
440.77	1436.21
441.145	1482.76
441.52	1494.96
441.895	1489.31
442.27	1495.86
442.645	1508.75
443.019	1534.28
443.394	1534.06
443.769	1525.02
444.143	1545.35
444.518	1553.49
444.892	1560.27
445.267	1539.25
445.641	1575.41
446.016	1594.85
446.39	1566.6
446.764	1601.4
447.139	1622.87
447.513	1626.48
447.887	1626.48
448.262	1606.37
448.636	1640.27
449.01	1689.76
449.384	1679.14
449.758	1677.55
450.132	1693.83
450.506	1719.36
450.88	1734.5
451.254	1706.48
451.628	1730.89
452.002	1765.91
452.376	1758.46
452.75	1818.34
453.123	1785.8
453.497	1856.53
453.871	1838.45
454.244	1880.49
454.618	1882.3
454.992	1900.37
455.365	1943.08
455.739	1983.54
456.112	2016.08
456.486	1991.22
456.859	2014.72
457.232	2089.07
457.606	2070.99
457.979	2092.01
458.352	2128.39
458.725	2179.91
459.099	2129.29
459.472	2166.36
459.845	2241.61
460.218	2237.99
460.591	2256.75
460.964	2269.63
461.337	2291.55
461.71	2367.03
462.083	2382.62
462.456	2367.25
462.829	2382.39
463.201	2451.09
463.574	2466.69
463.947	2484.54
464.32	2503.97
464.692	2524.99
465.065	2554.14
465.438	2533.13
465.81	2601.82
466.183	2602.05
466.555	2648.15
466.928	2681.14
467.3	2664.2
467.672	2708.26
468.045	2760.46
468.417	2762.72
468.789	2803.17
469.161	2854.25
469.534	2925.43
469.906	2920.69
470.278	2940.12
470.65	2953
471.022	2999.33
471.394	3093.11
471.766	3063.06
472.138	3116.84
472.51	3169.72
472.882	3198.19
473.253	3277.74
473.625	3287.91
473.997	3359.09
474.369	3416.49
474.74	3405.87
475.112	3480.9
475.484	3508.02
475.855	3556.15
476.227	3643.6
476.598	3722.92
476.97	3782.13
477.341	3816.71
477.713	3868.46
478.084	3858.06
478.455	4009.92
478.827	3983.71
479.198	4116.59
479.569	4150.26
479.94	4256.02
480.311	4290.59
480.682	4359.07
481.053	4450.14
481.424	4536.01
481.795	4612.62
482.166	4653.07
482.537	4725.38
482.908	4813.97
483.279	4865.27
483.65	4999.5
484.021	5063.23
484.391	5126.73
484.762	5247.63
485.133	5223.45
485.503	5369.89
485.874	5477
486.244	5521.3
486.615	5629.09
486.985	5724.68
487.356	5767.62
487.726	5903.88
488.097	5996.99
488.467	6058.23
488.837	6207.38
489.207	6232.01
489.578	6325.34
489.948	6420.71
490.318	6531.89
490.688	6553.58
491.058	6633.36
491.428	6771.66
491.798	6823.63
492.168	6982.73
492.538	7046.91
492.908	7144.3
493.278	7261.59
493.648	7287.58
494.017	7370.96
494.387	7481.02
494.757	7569.38
495.126	7703.84
495.496	7720.56
495.866	7851.63
496.235	7950.84
496.605	7964.17
496.974	8025.86
497.344	8121.45
497.713	8201
498.082	8244.84
498.452	8323.71
498.821	8428.34
499.19	8509.47
499.559	8508.56
499.928	8614.77
500.298	8695.45
500.667	8747.43
501.036	8852.51
501.405	8870.81
501.774	8983.13
502.143	9015.67
502.512	9075.78
502.88	9158.94
503.249	9172.05
503.618	9259.95
503.987	9336.11
504.356	9414.3
504.724	9485.03
505.093	9508.76
505.462	9548.53
505.83	9652.71
506.199	9704.46
506.567	9821.07
506.936	9878.24
507.304	10013.15
507.672	10018.35
508.041	10003.66
508.409	10158.24
508.777	10221.06
509.145	10280.94
509.514	10332.02
509.882	10431.22
510.25	10443.65
510.618	10522.52
510.986	10496.98
511.354	10633.03
511.722	10768.84
512.09	10867.14
512.458	10837.31
512.826	10909.18
513.193	10999.12
513.561	11023.52
513.929	11132
514.297	11195.27
514.664	11324.08
515.032	11452.89
515.4	11400.46
515.767	11511.42
516.135	11553.45
516.502	11547.35
516.869	11754.13
517.237	11850.39
517.604	11772.66
517.972	12000.67
518.339	11988.02
518.706	12070.05
519.073	12096.26
519.44	12269.14
519.808	12341.46
520.175	12378.97
520.542	12545.74
520.909	12616.48
521.276	12710.26
521.643	12852.63
522.009	12895.56
522.376	13038.84
522.743	13072.74
523.11	13261.2
523.477	13362.9
523.843	13372.16
524.21	13620.29
524.577	13688.76
524.943	13776.45
525.31	13833.85
525.676	13975.99
526.043	14057.34
526.409	14239.03
526.776	14478.8
527.142	14452.36
527.508	14532.58
527.874	14663.43
528.241	14759.7
528.607	14793.82
528.973	15067.49
529.339	14978.67
529.705	15285.11
530.071	15390.19
530.437	15361.49
530.803	15515.16
531.169	15630.86
531.535	15761.93
531.901	15735.49
532.267	15815.94
532.632	15983.85
532.998	16109.27
533.364	16171.64
533.73	16309.49
534.095	16474
534.461	16390.39
534.826	16578.41
535.192	16583.15
535.557	16778.17
535.923	16761.9
536.288	16873.31
536.653	16999.41
537.019	17036.02
537.384	17128.9
537.749	17183.81
538.114	17263.81
538.479	17221.78
538.845	17379.06
539.21	17369.8
539.575	17543.58
539.94	17526.18
540.305	17650.92
540.67	17667.42
541.034	17703.57
541.399	17882.55
541.764	17902.21
542.129	17994.64
542.494	18039.84
542.858	18087.74
543.223	18046.39
543.587	18222.88
543.952	18271.69
544.316	18273.5
544.681	18384.91
545.045	18450.9
545.41	18501.52
545.774	18564.57
546.138	18477.79
546.503	18646.15
546.867	18666.26
547.231	18909.19
547.595	18797.78
547.959	18934.05
548.324	18865.13
548.688	18941.51
549.052	19011.34
549.416	18962.07
549.779	19002.75
550.143	19198.68
550.507	19300.37
550.871	19268.5
551.235	19353.93
551.599	19606.35
551.962	19641.6
552.326	19681.6
552.689	19678.89
553.053	19583.52
553.417	19710.98
553.78	19923.85
554.143	19955.49
554.507	20047.92
554.87	20229.16
555.234	20272.32
555.597	20238.87
555.96	20365.42
556.323	20319.78
556.686	20440.23
557.05	20679.77
557.413	20666.43
557.776	20709.37
558.139	20934
558.502	21004.05
558.865	20962.25
559.228	21055.12
559.59	21224.39
559.953	21240.43
560.316	21522.23
560.679	21540.08
561.041	21702.34
561.404	21727.42
561.767	21992.27
562.129	21906.85
562.492	22143.01
562.854	22236.11
563.217	22193.85
563.579	22370.8
563.941	22450.79
564.304	22638.13
564.666	22902.31
565.028	22870.67
565.39	22927.84
565.753	23147.72
566.115	23158.12
566.477	23439.92
566.839	23537.77
567.201	23665
567.563	23666.13
567.925	23795.84
568.287	23955.84
568.648	24105.44
569.01	24273.8
569.372	24456.39
569.734	24573.68
570.095	24723.73
570.457	24832.2
570.819	24888.7
571.18	25019.09
571.542	25238.29
571.903	25257.27
572.265	25447.55
572.626	25657.72
572.987	25793.3
573.349	25924.37
573.71	26130.92
574.071	26194.2
574.432	26297.25
574.794	26628.99
575.155	26627.41
575.516	26658.14
575.877	26753.28
576.238	27082.54
576.599	27135.19
576.96	27299.48
577.32	27386.26
577.681	27479.14
578.042	27724.33
578.403	27747.38
578.763	27901.72
579.124	27985.56
579.485	28346.68
579.845	28375.16
580.206	28463.97
580.566	28594.59
580.927	28684.53
581.287	28957.52
581.648	28952.09
582.008	29171.3
582.368	29390.05
582.728	29588.91
583.089	29793.43
583.449	29936.7
583.809	30132.63
584.169	30407.87
584.529	30428.89
584.889	30965.82
585.249	30868.88
585.609	31046.5
585.969	31504.79
586.329	31563.1
586.688	32085.57
587.048	32355.84
587.408	32389.29
587.768	32766.45
588.127	33127.12
588.487	33537.06
588.846	33890.95
589.206	34072.41
589.565	34416.81
589.925	35007.53
590.284	35214.98
590.643	35592.82
591.003	36076.65
591.362	36485.23
591.721	36890.87
592.08	37272.1
592.44	37949.37
592.799	38175.13
593.158	38683.81
593.517	38972.85
593.876	39484.92
594.235	39968.75
594.593	40432.02
594.952	40870.87
595.311	41219.34
595.67	41967.57
596.029	42432.19
596.387	42950.59
596.746	43508.09
597.104	43630.35
597.463	44014.97
597.822	44791
598.18	44983.31
598.538	45431.21
598.897	46031.19
599.255	46263.05
599.613	47238.62
599.972	47348.9
600.33	47806.51
600.688	48131.47
601.046	48466.83
601.404	49076.53
601.762	49332.12
602.12	49952.67
602.478	50191.08
602.836	50556.72
603.194	50570.96
603.552	51071.96
603.91	51297.49
604.268	51738.61
604.625	51971.83
604.983	52428.08
605.341	52377.01
605.698	52842.76
606.056	53270.77
606.413	53428.51
606.771	53781.27
607.128	54026.46
607.485	54103.52
607.843	54301.26
608.2	54714.13
608.557	54957.51
608.914	55100.78
609.272	55414.22
609.629	55606.53
609.986	55905.28
610.343	55966.97
610.7	56264.14
611.057	56427.08
611.414	56459.17
611.771	56787.29
612.127	57042.88
612.484	57117.68
612.841	57377.33
613.198	57396.77
613.554	57493.71
613.911	57850.54
614.267	58004.21
614.624	58025.45
614.98	58257.99
615.337	58488.72
615.693	58616.17
616.05	58719.67
616.406	58911.3
616.762	58888.03
617.118	59063.84
617.475	59080.57
617.831	59343.16
618.187	59439.43
618.543	59470.16
618.899	59735.24
619.255	59716.48
619.611	59791.28
619.967	59949.47
620.323	60029.69
620.678	60012.29
621.034	60179.29
621.39	60216.81
621.746	60257.03
622.101	60600.98
622.457	60425.84
622.812	60600.75
623.168	60637.59
623.523	60670.13
623.879	60869.22
624.234	60770.01
624.589	60847.98
624.945	60914.87
625.3	61013.85
625.655	60990.57
626.01	61081.42
626.365	61141.53
626.72	61180.62
627.075	61175.88
627.43	61214.97
627.785	61226.5
628.14	61292.94
628.495	61287.96
628.85	61380.39
629.205	61338.13
629.559	61413.84
629.914	61376.55
630.269	61405.7
630.623	61330.68
630.978	61280.73
631.332	61426.49
631.687	61408.64
632.041	61491.35
632.396	61497.45
632.75	61479.6
633.104	61500.16
633.459	61377.68
633.813	61377.68
634.167	61407.06
634.521	61412.93
634.875	61426.27
635.229	61396.21
635.583	61337
635.937	61283.9
636.291	61385.36
636.645	61313.5
636.999	61210.68
637.352	61253.39
637.706	61169.32
638.06	61304.91
638.413	61211.13
638.767	61122.55
639.121	61215.65
639.474	61116.9
639.828	61173.62
640.181	61138.36
640.534	61192.15
640.888	61074.41
641.241	60940.4
641.594	61073.51
641.947	61113.96
642.301	60991.48
642.654	61036.9
643.007	60948.54
643.36	61047.97
643.713	60938.14
644.066	61091.81
644.419	60892.95
644.771	60718.04
645.124	60466.74
645.477	60478.95
645.83	60412.28
646.182	60364.37
646.535	60363.92
646.888	60414.54
647.24	60304.26
647.593	60414.77
647.945	60357.37
648.298	60245.05
648.65	60084.61
649.002	60069.01
649.355	59995.12
649.707	59933.2
650.059	59971.84
650.411	60290.48
650.763	60389.01
651.115	60725.72
651.467	60615.67
651.819	60643.91
652.171	60553.52
652.523	60491.15
652.875	60527.76
653.227	60412.96
653.578	60626.51
653.93	60513.52
654.282	60421.32
654.633	60326.63
654.985	60414.32
655.337	60396.91
655.688	60373.86
656.039	60475.33
656.391	60269.46
656.742	60258.84
657.094	60245.28
657.445	60346.07
657.796	60311.72
658.147	60199.86
658.498	60220.65
658.849	60342
659.2	60275.79
659.551	60127.32
659.902	60311.72
660.253	60167.32
660.604	60218.16
660.955	60130.93
661.306	60206.64
661.656	60179.97
662.007	60153.31
662.358	60164.6
662.708	60134.32
663.059	60094.78
663.409	59951.73
663.76	60142.68
664.11	60145.4
664.461	60171.38
664.811	60149.46
665.161	60115.79
665.511	60048.68
665.862	60046.19
666.212	60067.88
666.562	60128.67
666.912	60081.67
667.262	60030.37
667.612	60066.3
667.962	60070.82
668.312	60036.02
668.662	60126.87
669.011	60104.72
669.361	60052.97
669.711	60041.67
670.06	59959.64
670.41	59986.3
670.76	59942.24
671.109	60063.14
671.459	59954.89
671.808	59950.6
672.157	60041.9
672.507	59894.1
672.856	59949.47
673.205	59903.37
673.554	60030.37
673.904	59874.22
674.253	60080.76
674.602	59921.45
674.951	59595.35
675.3	59506.77
675.649	59894.1
675.998	59910.15
676.346	59864.27
676.695	59971.84
677.044	59808.46
677.393	59807.55
677.741	59935.68
678.09	59809.36
678.438	59799.64
678.787	59788.34
679.135	59778.63
679.484	59652.08
679.832	59760.77
680.181	59718.97
680.529	59695.01
680.877	59655.69
681.225	59586.54
681.573	59805.74
681.922	59631.29
682.27	59566.88
682.618	59557.84
682.966	59483.27
683.314	59469.48
683.661	59502.48
684.009	59453.44
684.357	59360.78
684.705	59308.36
685.053	59332.99
685.4	59268.58
685.748	59254.12
686.095	59193.78
686.443	59025.43
686.79	59086.44
687.138	59183.39
687.485	59020.45
687.832	58968.48
688.18	58974.35
688.527	58881.02
688.874	58914.24
689.221	58910.63
689.568	58772.32
689.915	58680.8
690.262	58760.8
690.609	58727.81
690.956	58523.97
691.303	58570.07
691.65	58457.76
691.997	58463.41
692.344	58345.44
692.69	58226.12
693.037	58306.35
693.383	58060.93
693.73	58179.8
694.077	57977.32
694.423	58010.31
694.769	57904.1
695.116	57942.06
695.462	57781.62
695.808	57714.05
696.155	57766.48
696.501	57613.49
696.847	57632.92
697.193	57395.41
697.539	57520.15
697.885	57344.79
698.231	57302.76
698.577	57251.01
698.923	57221.63
699.269	57008.08
699.614	56985.71
699.96	56918.81
700.306	56941.64
700.651	56810.12
700.997	56665.49
701.342	56685.83
701.688	56634.98
702.033	56518.82
702.379	56523.34
702.724	56383.69
703.069	56441.09
703.415	56183.69
703.76	56223.92
704.105	56246.29
704.45	56081.55
704.795	55980.53
705.14	55963.13
705.485	55902.57
705.83	55658.73
706.175	55826.64
706.52	55728.56
706.865	55568.79
707.209	55595.91
707.554	55480.66
707.899	55458.97
708.243	55354.34
708.588	55247.67
708.932	55103.72
709.277	55212.87
709.621	55115.7
709.966	54916.38
710.31	54930.62
710.654	54681.13
710.998	54727.46
711.342	54776.72
711.687	54723.17
712.031	54517.07
712.375	54525.88
712.719	54452.66
713.063	54323.63
713.407	54552.32
713.75	54300.58
714.094	54315.04
714.438	54158.66
714.782	54131.77
715.125	54045.44
715.469	54099.91
715.812	53955.95
716.156	53791.44
716.499	53881.15
716.843	53873.02
717.186	53737.43
717.53	53875.05
717.873	53759.35
718.216	53643.65
718.559	53535.85
718.902	53307.84
719.246	53418.79
719.589	53417.66
719.932	53187.84
720.275	53312.81
720.617	53272.36
720.96	53238.23
721.303	53208.86
721.646	53309.42
721.989	53095.19
722.331	53122.08
722.674	53028.52
723.016	52968.64
723.359	52968.18
723.701	52995.75
724.044	52817.68
724.386	52720.28
724.729	52908.75
725.071	52750.11
725.413	52771.8
725.755	52715.76
726.097	52542.21
726.439	52386.05
726.782	52449.1
727.124	52553.51
727.465	52519.61
727.807	52415.66
728.149	52412.04
728.491	52271.93
728.833	52295.66
729.175	52190.35
729.516	52155.32
729.858	52175.89
730.199	52201.88
730.541	52141.09
730.882	52109.68
731.224	52032.39
731.565	51957.14
731.906	51947.87
732.248	51928.44
732.589	51709.23
732.93	51726.63
733.271	51760.08
733.612	51649.35
733.953	51766.18
734.294	51599.18
734.635	51472.63
734.976	51719.18
735.317	51550.37
735.658	51545.4
735.999	51525.96
736.339	51398.28
736.68	51453.42
737.021	51362.35
737.361	51288.68
737.702	51540.2
738.042	51364.38
738.383	51363.03
738.723	51428.34
739.063	51136.82
739.404	51383.14
739.744	51325.29
740.084	51171.39
740.424	51264.5
740.764	51131.17
741.104	51312.86
741.444	51066.54
741.784	50919.88
742.124	51084.39
742.464	50984.51
742.804	50924.85
743.143	50785.19
743.483	50837.84
743.823	50798.07
744.162	50802.59
744.502	50868.8
744.841	50676.04
745.181	50800.56
745.52	50695.93
745.86	50711.29
746.199	50583.39
746.538	50630.84
746.877	50754.68
747.216	50692.54
747.556	50623.16
747.895	50757.85
748.234	50549.94
748.573	50528.02
748.911	50535.25
749.25	50484.86
749.589	50356.95
749.928	50420.68
750.267	50452.09
750.605	50340.91
750.944	50359.21
751.283	50184.75
751.621	50281.93
751.96	50088.03
752.298	50186.34
752.636	50123.74
752.975	50055.04
753.313	49943.63
753.651	50144.53
753.989	49934.14
754.327	50090.97
754.666	49741.83
755.004	49900.24
755.342	49955.38
