Data from 17-1436_FLMS001491_005.txt Node
Date: Thu Apr 19 16:29:04 BST 2018
User: hsy
Spectrometer: FLMS00149
Trigger mode: 0
Integration Time (sec): 1.000000E-2
Scans to average: 10
Electric dark correction enabled: true
Nonlinearity correction enabled: false
Boxcar width: 0
XAxis mode: Wavelengths
Number of Pixels in Spectrum: 2048
>>>>>Begin Spectral Data<<<<<
341.393	-23.02
341.776	-23.02
342.16	-23.02
342.543	-45.39
342.927	-67.99
343.31	-75.22
343.693	-69.35
344.077	-67.54
344.46	-47.43
344.843	-57.6
345.226	-39.74
345.61	-22.34
345.993	-21.44
346.376	6.81
346.759	3.87
347.142	18.11
347.525	41.16
347.908	48.39
348.291	82.06
348.674	87.26
349.057	113.02
349.44	126.13
349.823	155.73
350.206	176.29
350.588	227.14
350.971	224.88
351.354	230.98
351.737	266.69
352.119	292.9
352.502	291.09
352.884	315.73
353.267	310.08
353.65	316.18
354.032	335.16
354.414	348.95
354.797	340.81
355.179	362.05
355.562	360.02
355.944	357.98
356.326	360.47
356.709	378.1
357.091	353.92
357.473	358.44
357.855	354.6
358.238	380.81
358.62	372.9
359.002	380.81
359.384	390.53
359.766	377.87
360.148	363.63
360.53	368.15
360.912	365.67
361.294	372.22
361.676	376.97
362.057	355.05
362.439	367.02
362.821	372.9
363.203	367.25
363.584	385.33
363.966	346.91
364.348	352.11
364.729	351.43
365.111	363.86
365.493	357.98
365.874	369.06
366.256	373.8
366.637	369.51
367.019	363.86
367.4	359.34
367.781	355.95
368.163	367.93
368.544	378.32
368.925	359.11
369.306	352.56
369.688	353.01
370.069	357.76
370.45	357.76
370.831	353.69
371.212	372.9
371.593	385.1
371.974	363.63
372.355	371.32
372.736	367.25
373.117	388.72
373.498	364.54
373.879	353.01
374.26	356.18
374.641	361.15
375.021	360.02
375.402	382.62
375.783	401.37
376.163	407.25
376.544	390.53
376.925	391.43
377.305	378.32
377.686	384.65
378.066	380.58
378.447	405.44
378.827	393.01
379.208	411.54
379.588	409.73
379.968	409.73
380.349	369.74
380.729	423.29
381.109	400.7
381.489	379.45
381.87	390.98
382.25	406.57
382.63	419.45
383.01	406.57
383.39	431.43
383.77	431.43
384.15	418.55
384.53	427.36
384.91	411.54
385.29	437.08
385.67	425.78
386.049	420.36
386.429	452.9
386.809	471.88
387.189	448.15
387.568	430.98
387.948	450.41
388.328	458.77
388.707	457.64
389.087	458.77
389.466	482.73
389.846	467.13
390.225	453.12
390.605	482.73
390.984	459.9
391.363	471.65
391.743	467.81
392.122	481.6
392.501	493.35
392.881	475.04
393.26	493.12
393.639	508.04
394.018	498.32
394.397	487.93
394.776	517.08
395.155	505.33
395.534	498.32
395.913	520.47
396.292	501.48
396.671	525.89
397.05	520.24
397.429	525.89
397.808	534.25
398.186	540.13
398.565	533.12
398.944	522.95
399.323	555.04
399.701	541.03
400.08	552.33
400.458	557.75
400.837	531.54
401.215	568.6
401.594	556.17
401.972	579.22
402.351	595.49
402.729	569.28
403.107	581.26
403.486	579.67
403.864	593.01
404.242	578.32
404.62	607.7
404.999	587.58
405.377	619.9
405.755	621.93
406.133	634.36
406.511	613.35
406.889	637.3
407.267	621.93
407.645	639.56
408.023	660.58
408.401	657.19
408.779	673
409.156	684.3
409.534	662.61
409.912	691.31
410.29	697.64
410.667	684.08
411.045	676.62
411.422	728.37
411.8	734.47
412.178	708.48
412.555	755.04
412.933	723.17
413.31	739.9
413.687	751.65
414.065	767.69
414.442	781.25
414.819	806.11
415.197	775.15
415.574	798.43
415.951	792.78
416.328	815.15
416.705	830.74
417.082	832.1
417.46	821.02
417.837	826.22
418.214	830.51
418.591	843.62
418.967	842.72
419.344	840.01
419.721	886.78
420.098	867.58
420.475	870.74
420.852	900.8
421.228	906.22
421.605	897.41
421.982	898.31
422.358	924.07
422.735	905.99
423.111	933.56
423.488	956.61
423.864	927.01
424.241	952.09
424.617	961.58
424.994	961.58
425.37	974.47
425.746	963.17
426.123	1007.46
426.499	985.09
426.875	981.7
427.251	996.39
427.627	1019.21
428.003	1035.71
428.379	1051.3
428.756	1058.53
429.132	1068.02
429.507	1074.58
429.883	1094.24
430.259	1124.29
430.635	1116.61
431.011	1138.98
431.387	1150.28
431.763	1160.68
432.138	1167.23
432.514	1207.23
432.89	1170.17
433.265	1205.65
433.641	1236.38
434.016	1254.01
434.392	1273.89
434.767	1255.36
435.143	1279.09
435.518	1282.48
435.894	1325.87
436.269	1314.57
436.644	1316.38
437.02	1336.94
437.395	1348.92
437.77	1378.75
438.145	1384.4
438.52	1369.71
438.895	1412.42
439.271	1390.73
439.646	1426.21
440.021	1433.44
440.395	1428.01
440.77	1450.84
441.145	1464.85
441.52	1492.42
441.895	1498.07
442.27	1489.03
442.645	1485.64
443.019	1510.95
443.394	1522.93
443.769	1509.14
444.143	1507.79
444.518	1539.2
444.892	1561.57
445.267	1543.72
445.641	1548.91
446.016	1599.53
446.39	1574.68
446.764	1575.58
447.139	1597.5
447.513	1575.13
447.887	1595.47
448.262	1602.47
448.636	1617.39
449.01	1664.39
449.384	1667.56
449.758	1688.8
450.132	1738.51
450.506	1685.18
450.88	1726.54
451.254	1697.84
451.628	1752.75
452.002	1753.2
452.376	1790.72
452.75	1795.69
453.123	1795.69
453.497	1824.84
453.871	1826.65
454.244	1886.08
454.618	1884.05
454.992	1881.11
455.365	1930.15
455.739	1972.41
456.112	1975.57
456.486	1996.81
456.859	2043.14
457.232	2077.94
457.606	2061.44
457.979	2069.13
458.352	2119.75
458.725	2131.05
459.099	2134.44
459.472	2199.29
459.845	2215.34
460.218	2229.57
460.591	2278.61
460.964	2298.72
461.337	2292.4
461.71	2337.37
462.083	2393.86
462.456	2362.45
462.829	2410.36
463.201	2451.26
463.574	2466.63
463.947	2473.86
464.32	2501.66
464.692	2510.47
465.065	2550.24
465.438	2609.9
465.81	2621.43
466.183	2633.41
466.555	2671.37
466.928	2704.14
467.3	2677.25
467.672	2739.84
468.045	2788.43
468.417	2777.58
468.789	2797.47
469.161	2856.68
469.534	2883.12
469.906	2928.31
470.278	2952.04
470.65	2965.37
471.022	3046.05
471.394	3095.09
471.766	3129.21
472.138	3128.76
472.51	3191.13
472.882	3206.72
473.253	3265.48
473.625	3307.29
473.997	3371.47
474.369	3390.67
474.74	3402.42
475.112	3489.65
475.484	3528.52
475.855	3617.33
476.227	3587.5
476.598	3723.32
476.97	3757.44
477.341	3782.53
477.713	3867.72
478.084	3908.4
478.455	4003.99
478.827	4059.13
479.198	4171.44
479.569	4196.3
479.94	4246.92
480.311	4316.3
480.682	4451.66
481.053	4515.39
481.424	4578.21
481.795	4642.17
482.166	4691.66
482.537	4762.84
482.908	4893.23
483.279	4923.51
483.65	5028.6
484.021	5086.67
484.391	5115.15
484.762	5251.42
485.133	5300.68
485.503	5370.51
485.874	5531.86
486.244	5554.68
486.615	5680.78
486.985	5756.94
487.356	5854.79
487.726	5878.07
488.097	6023.15
488.467	6081
488.837	6221.33
489.207	6254.78
489.578	6380.65
489.948	6450.71
490.318	6566.64
490.688	6589.91
491.058	6755.33
491.428	6842.33
491.798	6872.16
492.168	6986.96
492.538	7146.96
492.908	7182.66
493.278	7294.07
493.648	7382.43
494.017	7499.72
494.387	7537.01
494.757	7682.76
495.126	7660.39
495.496	7810.44
495.866	7875.3
496.235	7956.43
496.605	8111.23
496.974	8085.92
497.344	8245.91
497.713	8380.82
498.082	8388.28
498.452	8488.39
498.821	8572.01
499.19	8622.17
499.559	8702.62
499.928	8699.69
500.298	8872.79
500.667	9010.41
501.036	8941.71
501.405	9072.56
501.774	9099
502.143	9190.07
502.512	9285.89
502.88	9368.6
503.249	9411.98
503.618	9540.12
503.987	9549.16
504.356	9658.53
504.724	9741.02
505.093	9761.58
505.462	9858.98
505.83	9976.49
506.199	10020.56
506.567	10216.03
506.936	10131.29
507.304	10262.13
507.672	10339.64
508.041	10406.76
508.409	10442.47
508.777	10627.55
509.145	10703.25
509.514	10722.01
509.882	10870.25
510.25	10865.51
510.618	10981.43
510.986	11000.19
511.354	11098.04
511.722	11245.61
512.09	11323.35
512.458	11331.03
512.826	11448.54
513.193	11498.48
513.561	11613.06
513.929	11701.42
514.297	11924.23
514.664	11941.41
515.032	11981.41
515.4	12066.38
515.767	12134.62
516.135	12314.96
516.502	12240.16
516.869	12401.51
517.237	12542.07
517.604	12480.83
517.972	12709.3
518.339	12712.46
518.706	12928.95
519.073	12908.84
519.44	13029.52
519.808	13199
520.175	13247.14
520.542	13339.11
520.909	13516.96
521.276	13505.89
521.643	13673.34
522.009	13776.62
522.376	13838.76
522.743	14025.2
523.11	14114.23
523.477	14292.76
523.843	14353.32
524.21	14558.74
524.577	14670.15
524.943	14845.97
525.31	14802.58
525.676	15012.74
526.043	15069.91
526.409	15305.39
526.776	15444.37
527.142	15457.02
527.508	15589.45
527.874	15818.6
528.241	15838.48
528.607	15926.39
528.973	16171.13
529.339	16154.86
529.705	16403.44
530.071	16479.82
530.437	16564.79
530.803	16698.57
531.169	16771.56
531.535	16792.58
531.901	16960.49
532.267	17037.55
532.632	17181.95
532.998	17277.31
533.364	17328.16
533.73	17465.78
534.095	17629.62
534.461	17660.35
534.826	17745.1
535.192	17866
535.557	17960.91
535.923	17964.75
536.288	18230.51
536.653	18191.41
537.019	18224.63
537.384	18298.3
537.749	18463.05
538.114	18425.31
538.479	18454.68
538.845	18564.51
539.21	18614.45
539.575	18672.53
539.94	18821
540.305	19039.75
540.67	18969.7
541.034	18992.52
541.399	18990.72
541.764	19269.58
542.129	19293.31
542.494	19374.43
542.858	19350.48
543.223	19353.64
543.587	19508.67
543.952	19486.52
544.316	19699.62
544.681	19642.45
545.045	19772.62
545.41	19888.77
545.774	19821.43
546.138	19966.06
546.503	19978.26
546.867	20027.3
547.231	20118.14
547.595	20241.3
547.959	20258.7
548.324	20340.74
548.688	20428.19
549.052	20493.73
549.416	20439.49
549.779	20479.72
550.143	20453.95
550.507	20849.65
550.871	20852.81
551.235	20923.55
551.599	20990.21
551.962	21105.91
552.326	21115.63
552.689	21189.08
553.053	21186.36
553.417	21237.66
553.78	21457.54
554.143	21387.04
554.507	21715.62
554.87	21656.63
555.234	21907.47
555.597	21821.83
555.96	21933.91
556.323	22052.56
556.686	22058.88
557.05	22266.11
557.413	22296.17
557.776	22356.05
558.139	22590.17
558.502	22596.27
558.865	22686.66
559.228	22940.89
559.59	22910.61
559.953	23001.91
560.316	23242.81
560.679	23264.5
561.041	23410.49
561.404	23602.12
561.767	23717.82
562.129	23684.83
562.492	23828.33
562.854	23891.6
563.217	23958.95
563.579	24118.26
563.941	24266.73
564.304	24476.67
564.666	24599.38
565.028	24685.03
565.39	24798.92
565.753	24990.33
566.115	25041.63
566.477	25108.52
566.839	25233.04
567.201	25471
567.563	25452.24
567.925	25757.32
568.287	25816.75
568.648	25760.71
569.01	26094.71
569.372	26426.45
569.734	26286.34
570.095	26502.83
570.457	26677.52
570.819	26820.34
571.18	26734.47
571.542	26985.31
571.903	27217.84
572.265	27240.67
572.626	27469.81
572.987	27674.1
573.349	27726.76
573.71	27833.87
574.071	28043.13
574.432	28176.46
574.794	28429.11
575.155	28495.55
575.516	28512.5
575.877	28790.23
576.238	28748.2
576.599	28846.05
576.96	29066.16
577.32	29212.82
577.681	29135.99
578.042	29387.28
578.403	29449.42
578.763	29592.24
579.124	29665.01
579.485	30026.81
579.845	30093.93
580.206	30142.96
580.566	30255.5
580.927	30347.93
581.287	30478.55
581.648	30469.96
582.008	30751.99
582.368	30825.88
582.728	30935.26
583.089	31119.21
583.449	31180.45
583.809	31326.66
584.169	31496.6
584.529	31525.53
584.889	31987.66
585.249	31936.36
585.609	31856.59
585.969	32167.09
586.329	32272.85
586.688	32530.92
587.048	32539.96
587.408	32731.15
587.768	32674.88
588.127	33006.84
588.487	33028.76
588.846	33561.63
589.206	33437.12
589.565	33617.9
589.925	33932.24
590.284	34078.45
590.643	34224.44
591.003	34532.23
591.362	34803.41
591.721	34936.51
592.08	35061.25
592.44	35364.3
592.799	35337.18
593.158	35691.29
593.517	35769.71
593.876	36087.21
594.235	36237.49
594.593	36365.63
594.952	36708.22
595.311	36772.39
595.67	37038.38
596.029	37391.59
596.387	37563.11
596.746	37974.62
597.104	37818.69
597.463	38157.44
597.822	38409.41
598.18	38552.69
598.538	38560.82
598.897	39063.63
599.255	38951.77
599.613	39567.58
599.972	39475.83
600.33	39739.55
600.688	39857.74
601.046	40142.7
601.404	40542.24
601.762	40642.35
602.12	41031.49
602.478	41165.73
602.836	41204.37
603.194	41215.89
603.552	41483.01
603.91	41583.12
604.268	41821.53
604.625	41995.53
604.983	42341.97
605.341	42264.68
605.698	42521.4
606.056	42886.58
606.413	42893.14
606.771	43316.18
607.128	43251.32
607.485	43417.42
607.843	43442.5
608.2	43848.82
608.557	43986.67
608.914	43983.28
609.272	44351.86
609.629	44649.25
609.986	44869.13
610.343	44813.54
610.7	45185.51
611.057	45233.19
611.414	45185.28
611.771	45598.38
612.127	45587.53
612.484	45742.1
612.841	45966.73
613.198	45819.16
613.554	45894.19
613.911	46291.24
614.267	46386.38
614.624	46359.71
614.98	46548.41
615.337	46986.82
615.693	46934.16
616.05	46953.82
616.406	47179.13
616.762	47232.46
617.118	47205.57
617.475	47353.36
617.831	47593.81
618.187	47647.36
618.543	47790.64
618.899	47958.77
619.255	47976.85
619.611	48002.16
619.967	48171.87
620.323	48424.97
620.678	48211.64
621.034	48275.6
621.39	48206.9
621.746	48515.36
622.101	48885.52
622.457	48552.42
622.812	48592.65
623.168	48808.46
623.523	48848.01
623.879	48848.46
624.234	48752.42
624.589	48858.4
624.945	48827.67
625.3	48960.32
625.655	48942.7
626.01	48890.72
626.365	49088.23
626.72	48961.68
627.075	48874.22
627.43	48952.87
627.785	49013.2
628.14	49043.48
628.495	49200.32
628.85	49091.39
629.205	48905.63
629.559	49190.6
629.914	48935.46
630.269	49044.39
630.623	48913.09
630.978	48878.52
631.332	49010.27
631.687	48996.25
632.041	48979.53
632.396	49099.75
632.75	48978.63
633.104	49005.29
633.459	48852.3
633.813	48827.44
634.167	48783.38
634.521	48939.31
634.875	48808.46
635.229	48687.34
635.583	48510.39
635.937	48544.51
636.291	48681.46
636.645	48591.29
636.999	48481.47
637.352	48557.62
637.706	48321.02
638.06	48443.95
638.413	48318.76
638.767	48218.87
639.121	48293.22
639.474	48186.78
639.828	48075.37
640.181	48043.96
640.534	48195.82
640.888	47944.08
641.241	47834.93
641.594	47875.15
641.947	47992.44
642.301	47810.07
642.654	47785.44
643.007	47807.81
643.36	47740.24
643.713	47782.73
644.066	47841.48
644.419	47585.22
644.771	47179.13
645.124	46900.04
645.477	46700.72
645.83	46699.37
646.182	46644
646.535	46605.81
646.888	46845.58
647.24	46449.43
647.593	46785.01
647.945	46545.92
648.298	46266.83
648.65	46194.29
649.002	46026.16
649.355	46012.6
649.707	45675.21
650.059	45743.91
650.411	46272.48
650.763	46651.23
651.115	47024.55
651.467	46854.39
651.819	47017.32
652.171	46738.23
652.523	46692.36
652.875	46886.03
653.227	46582.76
653.578	46926.48
653.93	46776.88
654.282	46471.57
654.633	46395.87
654.985	46600.61
655.337	46563.1
655.688	46524.91
656.039	46636.99
656.391	46218.93
656.742	46317.91
657.094	46330.79
657.445	46396.77
657.796	46322.65
658.147	46119.04
658.498	46309.55
658.849	46354.74
659.2	46287.85
659.551	46092.83
659.902	46456.89
660.253	46138.25
660.604	46423.89
660.955	46034.52
661.306	46265.03
661.656	46209.21
662.007	46113.62
662.358	46064.35
662.708	46145.26
663.059	46085.37
663.409	45860.29
663.76	46159.04
664.11	46057.8
664.461	46186.38
664.811	46209.21
665.161	46151.81
665.511	45873.4
665.862	46061.87
666.212	46171.47
666.562	46129.89
666.912	46015.32
667.262	45884.7
667.612	45987.07
667.962	45978.93
668.312	45831.37
668.662	46158.59
669.011	46041.08
669.361	45928.31
669.711	45884.02
670.06	45825.72
670.41	45694.42
670.76	45735.55
671.109	45989.1
671.459	45743.23
671.808	45698.71
672.157	45845.38
672.507	45588.43
672.856	45550.92
673.205	45651.94
673.554	45842.44
673.904	45600.86
674.253	46027.97
674.602	45700.52
674.951	45118.16
675.3	44947.1
675.649	45658.71
675.998	45692.84
676.346	45655.1
676.695	45627.98
677.044	45368.55
677.393	45545.27
677.741	45623.46
678.09	45591.37
678.438	45411.94
678.787	45403.35
679.135	45501.66
679.484	45154.77
679.832	45281.55
680.181	45170.59
680.529	45382.34
680.877	45236.35
681.225	45018.96
681.573	45337.37
681.922	45155.9
682.27	45003.59
682.618	45023.03
682.966	44817.61
683.314	44928.34
683.661	44889.92
684.009	44744.84
684.357	44678.18
684.705	44594.34
685.053	44499.65
685.4	44420.1
685.748	44298.98
686.095	44424.62
686.443	44085.2
686.79	44033.9
687.138	44181.47
687.485	44194.8
687.832	44028.48
688.18	44090.85
688.527	43929.27
688.874	43747.35
689.221	43920.91
689.568	43644.08
689.915	43566.79
690.262	43688.15
690.609	43399.34
690.956	43280.47
691.303	43420.13
691.65	43120.25
691.997	43064.43
692.344	42868.05
692.69	42861.05
693.037	42926.81
693.383	42511.23
693.73	42683.65
694.077	42413.83
694.423	42375.19
694.769	42309.42
695.116	42261.74
695.462	41868.76
695.808	41953.5
696.155	41923.67
696.501	41609.33
696.847	41781.53
697.193	41587.18
697.539	41510.12
697.885	41364.36
698.231	41266.51
698.577	41244.37
698.923	41302.9
699.269	40854.77
699.614	40855.9
699.96	40722.8
700.306	40731.84
700.651	40578.17
700.997	40401
701.342	40424.5
701.688	40343.37
702.033	40161.68
702.379	40145.41
702.724	39965.31
703.069	40138.86
703.415	39532.32
703.76	39645.09
704.105	39672.21
704.45	39498.88
704.795	39241.26
705.14	39214.59
705.485	39255.95
705.83	38896.86
706.175	39067.48
706.52	38954.94
706.865	38781.38
707.209	38617.54
707.554	38635.17
707.899	38673.81
708.243	38510.88
708.588	38474.5
708.932	38289.64
709.277	38265.46
709.621	38043.55
709.966	37837.45
710.31	37945.02
710.654	37720.84
710.998	37863.67
711.342	37620.51
711.687	37530.11
712.031	37420.51
712.375	37145.49
712.719	37243.57
713.063	37196.11
713.407	37376.67
713.75	37117.92
714.094	37076.57
714.438	37011.26
714.782	36909.11
715.125	36658.27
715.469	36945.95
715.812	36545.96
716.156	36635.68
716.499	36553.64
716.843	36556.36
717.186	36352.74
717.53	36546.64
717.873	36582.57
718.216	36433.42
718.559	36200.21
718.902	35962.92
719.246	36031.62
719.589	36033.66
719.932	35885.19
720.275	35809.26
720.617	35772.87
720.96	35719.54
721.303	35831.85
721.646	35719.99
721.989	35488.59
722.331	35522.71
722.674	35386.44
723.016	35354.35
723.359	35366.56
723.701	35431.86
724.044	35339.66
724.386	35140.8
724.729	35236.16
725.071	35162.72
725.413	35125.88
725.755	35069.61
726.097	35011.31
726.439	34808.15
726.782	34792.33
727.124	35004.08
727.465	34803.63
727.807	34595.73
728.149	34618.78
728.491	34577.42
728.833	34691.55
729.175	34494.94
729.516	34510.31
729.858	34337.2
730.199	34401.38
730.541	34421.72
730.882	34292.69
731.224	34387.6
731.565	34219.02
731.906	34116.42
732.248	34094.5
732.589	33970.43
732.93	33880.27
733.271	33791.91
733.612	33816.99
733.953	33940.38
734.294	33705.58
734.635	33673.27
734.976	33784
735.317	33619.94
735.658	33743.1
735.999	33410
736.339	33516.89
736.68	33610.9
737.021	33580.84
737.361	33390.79
737.702	33605.92
738.042	33304.92
738.383	33517.57
738.723	33377.91
739.063	33269.89
739.404	33344.24
739.744	33204.8
740.084	33177.46
740.424	33238.7
740.764	32936.79
741.104	33197.57
741.444	32928.43
741.784	32894.08
742.124	33090.23
742.464	33009.78
742.804	32938.15
743.143	32897.47
743.483	32888.88
743.823	32763.46
744.162	32746.06
744.502	32766.17
744.841	32532.51
745.181	32697.02
745.52	32771.37
745.86	32596.46
746.199	32393.53
746.538	32534.09
746.877	32517.82
747.216	32483.24
747.556	32441.44
747.895	32415.67
748.234	32369.8
748.573	32269.69
748.911	32100.2
749.25	32203.7
749.589	32060.88
749.928	32150.6
750.267	32068.56
750.605	31974.55
750.944	32186.07
751.283	31940.21
751.621	31967.55
751.96	31785.18
752.298	31745.63
752.636	31784.73
752.975	31680.78
753.313	31528.92
753.651	31734.56
753.989	31427
754.327	31559.42
754.666	31244.18
755.004	31505.64
755.342	31446.43
