Data from 17-1456_FLMS001491_003.txt Node
Date: Thu Apr 19 16:30:33 BST 2018
User: hsy
Spectrometer: FLMS00149
Trigger mode: 0
Integration Time (sec): 1.000000E-2
Scans to average: 10
Electric dark correction enabled: true
Nonlinearity correction enabled: false
Boxcar width: 0
XAxis mode: Wavelengths
Number of Pixels in Spectrum: 2048
>>>>>Begin Spectral Data<<<<<
341.393	-3.56
341.776	-3.56
342.16	-3.56
342.543	-76.78
342.927	-76.1
343.31	-76.33
343.693	-70.68
344.077	-59.38
344.46	-62.09
344.843	-65.25
345.226	-31.36
345.61	-39.04
345.993	-6.05
346.376	3.67
346.759	4.8
347.142	13.84
347.525	38.47
347.908	54.52
348.291	71.24
348.674	97.46
349.057	126.15
349.44	119.38
349.823	133.84
350.206	179.03
350.588	242.54
350.971	250.22
351.354	259.94
351.737	275.76
352.119	304.23
352.502	315.75
352.884	326.83
353.267	319.37
353.65	332.48
354.032	368.18
354.414	363.21
354.797	374.74
355.179	361.4
355.562	363.66
355.944	359.14
356.326	373.15
356.709	391.23
357.091	404.11
357.473	365.7
357.855	389.65
358.238	382.42
358.62	384
359.002	411.35
359.384	385.58
359.766	413.38
360.148	379.71
360.53	404.11
360.912	402.76
361.294	382.19
361.676	367.5
362.057	394.4
362.439	385.58
362.821	376.32
363.203	397.79
363.584	379.03
363.966	382.19
364.348	394.62
364.729	395.3
365.111	373.15
365.493	397.33
365.874	390.1
366.256	367.05
366.637	383.55
367.019	395.53
367.4	374.51
367.781	384
368.163	392.14
368.544	365.02
368.925	407.5
369.306	394.17
369.688	386.94
370.069	367.73
370.45	375.64
370.831	399.14
371.212	405.47
371.593	402.31
371.974	378.8
372.355	405.24
372.736	398.92
373.117	409.76
373.498	371.8
373.879	374.96
374.26	409.09
374.641	398.24
375.021	394.17
375.402	392.59
375.783	405.92
376.163	418.35
376.544	410.44
376.925	415.19
377.305	421.97
377.686	420.38
378.066	421.29
378.447	412.02
378.827	439.59
379.208	425.58
379.588	438.46
379.968	429.2
380.349	417.9
380.729	423.1
381.109	417.67
381.489	454.28
381.87	450.89
382.25	449.54
382.63	461.51
383.01	441.17
383.39	446.6
383.77	477.33
384.15	442.76
384.53	466.03
384.91	443.89
385.29	454.73
385.67	479.82
386.049	475.3
386.429	465.13
386.809	467.61
387.189	475.98
387.568	486.82
387.948	491.79
388.328	494.73
388.707	496.54
389.087	482.53
389.466	495.41
389.846	508.07
390.225	487.73
390.605	503.09
390.984	517.78
391.363	514.85
391.743	519.82
392.122	511
392.501	548.74
392.881	537.22
393.26	520.95
393.639	555.07
394.018	530.66
394.397	518.01
394.776	566.14
395.155	548.97
395.534	550.55
395.913	541.29
396.292	553.26
396.671	569.53
397.05	566.37
397.429	564.11
397.808	563.66
398.186	574.05
398.565	579.48
398.944	570.21
399.323	569.08
399.701	585.58
400.08	600.49
400.458	576.54
400.837	591.45
401.215	597.1
401.594	610.44
401.972	621.28
402.351	645.92
402.729	635.97
403.107	615.18
403.486	621.96
403.864	618.57
404.242	618.57
404.62	627.38
404.999	642.98
405.377	660.83
405.755	664.67
406.133	667.38
406.511	672.36
406.889	656.54
407.267	680.26
407.645	704.44
408.023	702.86
408.401	690.43
408.779	718.68
409.156	728.4
409.534	759.36
409.912	719.81
410.29	748.29
410.667	734.73
411.045	755.29
411.422	782.86
411.8	769.98
412.178	776.08
412.555	793.26
412.933	798.45
413.31	793.93
413.687	846.14
414.065	826.25
414.442	826.02
414.819	847.94
415.197	851.33
415.574	862.41
415.951	861.28
416.328	892.24
416.705	865.57
417.082	902.18
417.46	903.99
417.837	922.97
418.214	882.75
418.591	907.38
418.967	935.17
419.344	929.75
419.721	933.37
420.098	934.04
420.475	959.35
420.852	954.83
421.228	966.13
421.605	962.29
421.982	972.01
422.358	976.75
422.735	973.36
423.111	999.58
423.488	1010.2
423.864	1046.36
424.241	1021.5
424.617	1033.25
424.994	1077.77
425.37	1059.46
425.746	1060.59
426.123	1053.36
426.499	1089.52
426.875	1107.37
427.251	1130.2
427.627	1138.78
428.003	1120.03
428.379	1141.72
428.756	1130.42
429.132	1161.16
429.507	1146.47
429.883	1181.95
430.259	1211.1
430.635	1238.44
431.011	1222.62
431.387	1265.79
431.763	1270.31
432.138	1293.13
432.514	1275.96
432.89	1296.07
433.265	1334.26
433.641	1348.04
434.016	1343.3
434.392	1385.56
434.767	1398.44
435.143	1369.51
435.518	1419.91
435.894	1418.1
436.269	1419.45
436.644	1433.69
437.02	1473.01
437.395	1468.72
437.77	1474.37
438.145	1517.98
438.52	1492.9
438.895	1529.51
439.271	1539.23
439.646	1558.21
440.021	1562.95
440.395	1581.26
440.77	1550.75
441.145	1593.91
441.52	1616.51
441.895	1599.56
442.27	1616.74
442.645	1628.04
443.019	1633.91
443.394	1636.4
443.769	1672.55
444.143	1657.87
444.518	1671.42
444.892	1656.51
445.267	1692.22
445.641	1705.1
446.016	1710.07
446.39	1730.63
446.764	1740.12
447.139	1746.68
447.513	1747.58
447.887	1767.69
448.262	1748.94
448.636	1787.81
449.01	1794.36
449.384	1827.81
449.758	1824.42
450.132	1860.12
450.506	1830.52
450.88	1885.66
451.254	1861.48
451.628	1900.57
452.002	1924.53
452.376	1925.66
452.75	1940.8
453.123	1971.53
453.497	1984.86
453.871	2012.66
454.244	2015.82
454.618	2073
454.992	2049.27
455.365	2081.58
455.739	2128.36
456.112	2152.09
456.486	2187.34
456.859	2175.14
457.232	2218.53
457.606	2289.71
457.979	2254.23
458.352	2318.19
458.725	2344.18
459.099	2320.45
459.472	2375.36
459.845	2393.89
460.218	2396.6
460.591	2464.85
460.964	2491.52
461.337	2518.18
461.71	2504.62
462.083	2579.2
462.456	2575.13
462.829	2606.77
463.201	2639.76
463.574	2649.03
463.947	2667.56
464.32	2700.55
464.692	2740.55
465.065	2760.21
465.438	2821.45
465.81	2823.94
466.183	2853.99
466.555	2888.57
466.928	2894.44
467.3	2936.48
467.672	2946.87
468.045	3000.43
468.417	2997.04
468.789	3052.86
469.161	3091.73
469.534	3122.46
469.906	3161.33
470.278	3200.2
470.65	3249.46
471.022	3290.59
471.394	3329.01
471.766	3338.73
472.138	3395.22
472.51	3460.76
472.882	3496.46
473.253	3532.39
473.625	3586.85
473.997	3665.95
474.369	3725.16
474.74	3708.89
475.112	3800.41
475.484	3820.52
475.855	3890.35
476.227	3976.45
476.598	4020.52
476.97	4056
477.341	4168.31
477.713	4220.96
478.084	4225.26
478.455	4363.11
478.827	4403.33
479.198	4491.01
479.569	4530.78
479.94	4712.25
480.311	4709.09
480.682	4821.17
481.053	4887.84
481.424	5000.15
481.795	5027.95
482.166	5048.74
482.537	5152.46
482.908	5288.28
483.279	5371.21
483.65	5443.76
484.021	5529.4
484.391	5580.02
484.762	5643.75
485.133	5735.95
485.503	5850.3
485.874	5975.94
486.244	6036.96
486.615	6156.05
486.985	6260.68
487.356	6369.38
487.726	6408.25
488.097	6571.18
488.467	6652.99
488.837	6802.59
489.207	6832.42
489.578	6965.52
489.948	7035.35
490.318	7201.9
490.688	7215.46
491.058	7349.69
491.428	7430.82
491.798	7523.47
492.168	7680.31
492.538	7826.52
492.908	7865.16
493.278	7988.32
493.648	8020.41
494.017	8165.94
494.387	8287.97
494.757	8370.91
495.126	8538.82
495.496	8577.01
495.866	8636.89
496.235	8715.08
496.605	8852.71
496.974	8911.01
497.344	9059.93
497.713	9169.53
498.082	9178.8
498.452	9272.58
498.821	9320.72
499.19	9389.19
499.559	9573.59
499.928	9565.45
500.298	9708.28
500.667	9830.76
501.036	9781.72
501.405	9879.57
501.774	9891.55
502.143	10062.62
502.512	10204.31
502.88	10187.81
503.249	10259.45
503.618	10397.07
503.987	10420.57
504.356	10511.64
504.724	10641.36
505.093	10698.53
505.462	10776.5
505.83	10726.33
506.199	10989.15
506.567	11097.62
506.936	11140.55
507.304	11233.66
507.672	11310.72
508.041	11359.31
508.409	11457.61
508.777	11585.06
509.145	11690.6
509.514	11710.26
509.882	11825.73
510.25	11873.19
510.618	11939.18
510.986	11877.71
511.354	12090.13
511.722	12198.61
512.09	12322.67
512.458	12369.67
512.826	12439.05
513.193	12479.5
513.561	12659.84
513.929	12724.02
514.297	12722.66
514.664	12810.12
515.032	13000.84
515.4	13027.74
515.767	13116.55
516.135	13160.61
516.502	13156.32
516.869	13343.66
517.237	13456.65
517.604	13443.09
517.972	13665.69
518.339	13734.61
518.706	13762.86
519.073	13817.77
519.44	14084.88
519.808	14054.15
520.175	14257.76
520.542	14299.34
520.909	14329.4
521.276	14415.72
521.643	14615.94
522.009	14758.99
522.376	14796.28
522.743	14945.2
523.11	15116.04
523.477	15274.01
523.843	15212.09
524.21	15565.75
524.577	15646.2
524.943	15702.24
525.31	15851.62
525.676	16054.78
526.043	16043.48
526.409	16252.06
526.776	16339.51
527.142	16514.88
527.508	16597.36
527.874	16732.72
528.241	16923.91
528.607	17002.1
528.973	17203.9
529.339	17153.05
529.705	17329.77
530.071	17525.02
530.437	17704.22
530.803	17733.38
531.169	17970.88
531.535	17908.51
531.901	17979.7
532.267	18214.49
532.632	18243.19
532.998	18382.85
533.364	18493.58
533.73	18567.48
534.095	18691.32
534.461	18776.74
534.826	18912.78
535.192	19081.36
535.557	19235.03
535.923	19267.57
536.288	19360.68
536.653	19447.68
537.019	19331.07
537.384	19522.03
537.749	19622.37
538.114	19627.11
538.479	19604.06
538.845	19794.11
539.21	19798.41
539.575	19858.74
539.94	20019.64
540.305	20157.94
540.67	20200.66
541.034	20195.91
541.399	20327.21
541.764	20402.68
542.129	20353.87
542.494	20576.24
542.858	20615.79
543.223	20614.43
543.587	20742.79
543.952	20777.14
544.316	20854.42
544.681	20832.05
545.045	21042.22
545.41	21192.95
545.774	21185.04
546.138	21184.36
546.503	21196.34
546.867	21324.92
547.231	21432.94
547.595	21435.88
547.959	21628.64
548.324	21621.63
548.688	21745.47
549.052	21771.91
549.416	21880.16
549.779	21834.74
550.143	22028.4
550.507	22061.17
550.871	22113.37
551.235	22095.75
551.599	22314.95
551.962	22359.02
552.326	22481.05
552.689	22461.84
553.053	22548.62
553.417	22492.8
553.78	22746.8
554.143	22726.24
554.507	22878.1
554.87	23007.36
555.234	23160.35
555.597	23092.56
555.96	23192.89
556.323	23344.53
556.686	23361.48
557.05	23562.15
557.413	23516.05
557.776	23662.71
558.139	23846.66
558.502	23889.15
558.865	23913.1
559.228	24039.42
559.59	24121.91
559.953	24206.43
560.316	24497.04
560.679	24471.05
561.041	24595.57
561.404	24746.3
561.767	24917.37
562.129	24876.92
562.492	25275.32
562.854	25342.67
563.217	25266.28
563.579	25316
563.941	25470.57
564.304	25730
564.666	25923.67
565.028	25983.33
565.39	26225.36
565.753	26259.71
566.115	26374.96
566.477	26441.4
566.839	26688.85
567.201	26822.85
567.563	26930.2
567.925	27168.38
568.287	27236.85
568.648	27418.54
569.01	27562.5
569.372	27876.84
569.734	27922.49
570.095	28002.48
570.457	28186.43
570.819	28420.78
571.18	28367.67
571.542	28664.39
571.903	28764.27
572.265	28953.19
572.626	29128.33
572.987	29198.84
573.349	29394.76
573.71	29629.11
574.071	29748.43
574.432	29924.02
574.794	30260.5
575.155	30193.39
575.516	30308.86
575.877	30472.25
576.238	30643.54
576.599	30802.86
576.96	30877.21
577.32	31109.07
577.681	31204.43
578.042	31464.54
578.403	31489.62
578.763	31770.97
579.124	31796.96
579.485	32111.75
579.845	32354.69
580.206	32340.9
580.566	32603.04
580.927	32681.23
581.287	32968
581.648	32944.05
582.008	33374.32
582.368	33459.29
582.728	33723.69
583.089	33957.58
583.449	33985.15
583.809	34240.96
584.169	34714.4
584.529	34780.84
584.889	35168.17
585.249	35308.73
585.609	35432.8
585.969	35964.31
586.329	36075.27
586.688	36526.1
587.048	36772.87
587.408	36919.31
587.768	37355.46
588.127	37742.79
588.487	38131.71
588.846	38668.87
589.206	38577.12
589.565	39066.6
589.925	39618.45
590.284	39977.08
590.643	40260.01
591.003	40766.44
591.362	41353.55
591.721	41698.4
592.08	42102.9
592.44	42707.63
592.799	43042.54
593.158	43413.83
593.517	43734.95
593.876	44360.47
594.235	44682.5
594.593	45293.55
594.952	45636.6
595.311	46073.87
595.67	46467.76
596.029	47120.85
596.387	47552.7
596.746	48068.62
597.104	48231.33
597.463	48618.89
597.822	49346.33
598.18	49446.44
598.538	49958.52
598.897	50412.06
599.255	50410.48
599.613	51292.72
599.972	51406.84
600.33	51755.76
600.688	51916.66
601.046	52336.31
601.404	52845.45
601.762	52978.78
602.12	53362.5
602.478	53632.54
602.836	53919.99
603.194	54060.56
603.552	54397.95
603.91	54530.37
604.268	54913.64
604.625	55085.39
604.983	55433.4
605.341	55431.14
605.698	55909.77
606.056	56310.89
606.413	56274.51
606.771	56656.42
607.128	56784.78
607.485	56998.11
607.843	57065.45
608.2	57371.2
608.557	57631.54
608.914	57753.57
609.272	58041.69
609.629	58309.26
609.986	58421.12
610.343	58491.63
610.7	58855.46
611.057	58938.17
611.414	59043.02
611.771	59285.73
612.127	59469.23
612.484	59612.73
612.841	59778.6
613.198	59805.72
613.554	59938.14
613.911	60170.68
614.267	60328.64
614.624	60403.21
614.98	60615.41
615.337	60792.36
615.693	60777.89
616.05	60949.87
616.406	61188.05
616.762	61171.78
617.118	61305.11
617.475	61364.32
617.831	61545.78
618.187	61608.38
618.543	61678.43
618.899	61971.99
619.255	61961.14
619.611	62027.58
619.967	62241.36
620.323	62325.65
620.678	62259.66
621.034	62296.27
621.39	62391.41
621.746	62510.05
622.101	62775.13
622.457	62630.95
622.812	62804.51
623.168	62831.17
623.523	62912.98
623.879	62956.37
624.234	62886.09
624.589	63002.24
624.945	63081.11
625.3	63196.36
625.655	63239.07
626.01	63272.29
626.365	63298.96
626.72	63266.87
627.075	63315
627.43	63330.82
627.785	63371.27
628.14	63362.91
628.495	63425.51
628.85	63488.56
629.205	63424.15
629.559	63500.08
629.914	63460.53
630.269	63487.43
630.623	63430.48
630.978	63403.14
631.332	63514.54
631.687	63519.06
632.041	63506.41
632.396	63520.42
632.75	63510.25
633.104	63512.51
633.459	63480.65
633.813	63507.54
634.167	63477.26
634.521	63494.88
634.875	63501.21
635.229	63497.14
635.583	63481.55
635.937	63400.65
636.291	63467.54
636.645	63478.39
636.999	63361.33
637.352	63430.48
637.706	63335.11
638.06	63469.57
638.413	63389.35
638.767	63299.64
639.121	63392.06
639.474	63327.2
639.828	63266.64
640.181	63360.65
640.534	63357.26
640.888	63265.06
641.241	63134.67
641.594	63188.68
641.947	63276.58
642.301	63141.9
642.654	63237.72
643.007	63179.86
643.36	63211.05
643.713	63107.55
644.066	63239.52
644.419	63091.28
644.771	62907.55
645.124	62626.21
645.477	62614.46
645.83	62521.8
646.182	62517.96
646.535	62457.62
646.888	62485.19
647.24	62455.59
647.593	62487.23
647.945	62382.15
648.298	62346.44
648.65	62263.73
649.002	62159.55
649.355	62151.42
649.707	62110.97
650.059	62108.93
650.411	62479.32
650.763	62528.81
651.115	62870.49
651.467	62691.97
651.819	62762.02
652.171	62642.7
652.523	62615.36
652.875	62637.73
653.227	62537.4
653.578	62688.58
653.93	62582.82
654.282	62489.94
654.633	62490.84
654.985	62507.11
655.337	62496.04
655.688	62406.78
656.039	62546.66
656.391	62281.36
656.742	62359.09
657.094	62365.42
657.445	62376.04
657.796	62379.66
658.147	62354.12
658.498	62360.45
658.849	62393.22
659.2	62343.73
659.551	62225.54
659.902	62322.26
660.253	62253.33
660.604	62348.02
660.955	62197.07
661.306	62270.28
661.656	62144.41
662.007	62243.62
662.358	62207.23
662.708	62195.48
663.059	62147.57
663.409	62052.89
663.76	62160.23
664.11	62214.24
664.461	62196.84
664.811	62172.66
665.161	62172.89
665.511	62034.58
665.862	62091.76
666.212	62114.58
666.562	62164.98
666.912	62051.08
667.262	62004.75
667.612	62023.51
667.962	62051.08
668.312	62028.93
668.662	62120.23
669.011	62095.15
669.361	62035.94
669.711	62045.2
670.06	62038.2
670.41	61939.44
670.76	61943.29
671.109	62082.04
671.459	61982.83
671.808	61989.39
672.157	61978.99
672.507	61873.68
672.856	61868.71
673.205	61938.54
673.554	61930.41
673.904	61905.55
674.253	62106.9
674.602	61897.41
674.951	61647.02
675.3	61538.55
675.649	61888.82
675.998	61889.05
676.346	61886.56
676.695	61974.92
677.044	61729.51
677.393	61828.71
677.741	61847.7
678.09	61786.91
678.438	61769.73
678.787	61866.23
679.135	61834.59
679.484	61703.52
679.832	61768.6
680.181	61683.86
680.529	61722.95
680.877	61652.22
681.225	61683.41
681.573	61813.57
681.922	61634.14
682.27	61621.26
682.618	61569.29
682.966	61594.37
683.314	61522.28
683.661	61558.21
684.009	61509.63
684.357	61378.78
684.705	61397.54
685.053	61395.28
685.4	61300.14
685.748	61277.32
686.095	61244.1
686.443	61165.68
686.79	61127.49
687.138	61235.06
687.485	61208.16
687.832	61103.53
688.18	61132.23
688.527	61016.31
688.874	61038.68
689.221	61045.23
689.568	60918.45
689.915	60826.03
690.262	60894.27
690.609	60800.94
690.956	60730.44
691.303	60691.34
691.65	60636.2
691.997	60614.51
692.344	60486.6
692.69	60490.9
693.037	60538.8
693.383	60275.76
693.73	60445.02
694.077	60285.03
694.423	60276.44
694.769	60184.01
695.116	60164.58
695.462	60077.35
695.808	60016.56
696.155	60047.74
696.501	59826.73
696.847	59926.16
697.193	59705.15
697.539	59774.76
697.885	59651.6
698.231	59586.51
698.577	59557.36
698.923	59516.01
699.269	59372.51
699.614	59292.51
699.96	59276.46
700.306	59300.64
700.651	59192.17
700.997	59015.91
701.342	59001.89
701.688	58982.46
702.033	58879.86
702.379	58913.76
702.724	58813.43
703.069	58842.35
703.415	58630.38
703.76	58569.82
704.105	58574.34
704.45	58500.44
704.795	58434.45
705.14	58373.44
705.485	58350.61
705.83	58172.09
706.175	58358.97
706.52	58179.54
706.865	58131.41
707.209	58033.11
707.554	57900.68
707.899	57981.58
708.243	57853.22
708.588	57824.52
708.932	57695.04
709.277	57728.48
709.621	57627.69
709.966	57452.78
710.31	57457.3
710.654	57374.59
710.998	57438.32
711.342	57418.89
711.687	57233.13
712.031	57271.77
712.375	57111.78
712.719	57102.74
713.063	57101.38
713.407	57132.57
713.75	56997.2
714.094	56966.24
714.438	56858.45
714.782	56802.4
715.125	56700.71
715.469	56843.76
715.812	56593.14
716.156	56563.09
716.499	56575.07
716.843	56614.39
717.186	56438.35
717.53	56584.56
717.873	56518.57
718.216	56388.4
718.559	56330.1
718.902	56099.15
719.246	56203.1
719.589	56072.25
719.932	55976.44
720.275	56067.28
720.617	55944.57
720.96	55895.31
721.303	55962.43
721.646	55943.67
721.989	55770.34
722.331	55769.66
722.674	55751.36
723.016	55702.09
723.359	55578.93
723.701	55637.46
724.044	55521.76
724.386	55355.66
724.729	55523.79
725.071	55545.04
725.413	55402.22
725.755	55377.13
726.097	55206.51
726.439	55242.22
726.782	55182.11
727.124	55291.71
727.465	55165.61
727.807	55075.22
728.149	55118.16
728.491	55034.99
728.833	55093.98
729.175	55004.49
729.516	54856.47
729.858	54850.14
730.199	54976.69
730.541	54872.96
730.882	54737.83
731.224	54753.19
731.565	54637.94
731.906	54712.52
732.248	54779.63
732.589	54510.71
732.93	54472.52
733.271	54493.09
733.612	54391.17
733.953	54534.44
734.294	54368.8
734.635	54291.06
734.976	54421.22
735.317	54305.97
735.658	54261.91
735.999	54231.62
736.339	54197.5
736.68	54213.77
737.021	54164.28
737.361	53999.99
737.702	54206.09
738.042	53942.59
738.383	54053.32
738.723	54021.23
739.063	53936.49
739.404	54070.73
739.744	53878.41
740.084	53881.58
740.424	53837.96
740.764	53704.63
741.104	53731.98
741.444	53613.79
741.784	53636.39
742.124	53677.74
742.464	53585.09
742.804	53570.4
743.143	53443.17
743.483	53594.13
743.823	53418.09
744.162	53417.41
744.502	53459.67
744.841	53318.2
745.181	53363.4
745.52	53268.26
745.86	53340.35
746.199	53246.34
746.538	53204.53
746.877	53294.47
747.216	53160.01
747.556	53133.12
747.895	53132.44
748.234	53030.07
748.573	53011.77
748.911	52834.15
749.25	52918.67
749.589	52728.84
749.928	52869.17
750.267	52811.1
750.605	52701.72
750.944	52697.65
751.283	52543.99
751.621	52663.76
751.96	52402.29
752.298	52471.22
752.636	52438.9
752.975	52331.79
753.313	52211.34
753.651	52359.13
753.989	52138.57
754.327	52101.29
754.666	51977.22
755.004	51904.45
