Data from 17-1456_FLMS001491_009.txt Node
Date: Thu Apr 19 16:30:48 BST 2018
User: hsy
Spectrometer: FLMS00149
Trigger mode: 0
Integration Time (sec): 1.000000E-2
Scans to average: 10
Electric dark correction enabled: true
Nonlinearity correction enabled: false
Boxcar width: 0
XAxis mode: Wavelengths
Number of Pixels in Spectrum: 2048
>>>>>Begin Spectral Data<<<<<
341.393	-20.41
341.776	-20.41
342.16	-20.41
342.543	-51.37
342.927	-48.2
343.31	-64.25
343.693	-69.9
344.077	-77.36
344.46	-39.17
344.843	-56.11
345.226	-49.33
345.61	-33.29
345.993	-29.67
346.376	-6.85
346.759	-7.3
347.142	11.68
347.525	57.55
347.908	54.17
348.291	81.28
348.674	104.79
349.057	123.77
349.44	123.99
349.823	145.91
350.206	177.55
350.588	245.8
350.971	257.32
351.354	290.32
351.737	298.9
352.119	294.61
352.502	326.93
352.884	308.4
353.267	340.49
353.65	339.81
354.032	342.07
354.414	351.33
354.797	337.1
355.179	385.68
355.562	378.9
355.944	375.74
356.326	384.55
356.709	393.59
357.091	401.5
357.473	418
357.855	395.17
358.238	390.43
358.62	383.65
359.002	385.23
359.384	384.78
359.766	396.08
360.148	385.68
360.53	401.95
360.912	403.99
361.294	381.39
361.676	393.37
362.057	384.78
362.439	367.15
362.821	413.03
363.203	398.11
363.584	401.05
363.966	380.94
364.348	390.65
364.729	386.59
365.111	382.52
365.493	386.81
365.874	385
366.256	401.05
366.637	372.12
367.019	371.45
367.4	391.33
367.781	388.85
368.163	388.85
368.544	395.85
368.925	397.21
369.306	388.85
369.688	382.52
370.069	366.02
370.45	380.71
370.831	376.64
371.212	393.82
371.593	405.12
371.974	401.27
372.355	407.6
372.736	381.61
373.117	393.59
373.498	391.11
373.879	394.27
374.26	392.01
374.641	371.9
375.021	403.31
375.402	417.55
375.783	412.35
376.163	418
376.544	418.68
376.925	399.47
377.305	422.74
377.686	422.07
378.066	424.55
378.447	411.67
378.827	418.9
379.208	436.98
379.588	424.1
379.968	422.07
380.349	450.31
380.729	419.13
381.109	424.33
381.489	426.13
381.87	432.23
382.25	458.22
382.63	454.83
383.01	440.37
383.39	449.18
383.77	448.51
384.15	459.8
384.53	448.96
384.91	464.32
385.29	451.22
385.67	482.4
386.049	489.18
386.429	484.66
386.809	479.69
387.189	455.96
387.568	492.8
387.948	467.94
388.328	485.34
388.707	469.75
389.087	486.7
389.466	493.48
389.846	490.99
390.225	515.62
390.605	496.64
390.984	511.33
391.363	499.35
391.743	534.15
392.122	512.01
392.501	548.62
392.881	556.52
393.26	535.51
393.639	539.58
394.018	540.93
394.397	517.43
394.776	528.28
395.155	540.48
395.534	545.23
395.913	540.48
396.292	567.15
396.671	557.2
397.05	570.31
397.429	550.2
397.808	572.12
398.186	577.54
398.565	554.49
398.944	591.1
399.323	596.52
399.701	598.33
400.08	585.68
400.458	606.24
400.837	584.32
401.215	603.98
401.594	609.18
401.972	606.47
402.351	635.17
402.729	613.25
403.107	632.23
403.486	616.41
403.864	629.74
404.242	643.98
404.62	645.34
404.999	651.89
405.377	643.98
405.755	670.42
406.133	668.84
406.511	655.28
406.889	667.71
407.267	688.27
407.645	670.19
408.023	726.24
408.401	689.63
408.779	711.1
409.156	718.1
409.534	752.68
409.912	716.97
410.29	741.15
410.667	776.41
411.045	749.74
411.422	775.05
411.8	773.02
412.178	800.13
412.555	802.17
412.933	783.19
413.31	808.5
413.687	843.3
414.065	835.39
414.442	834.03
414.819	836.52
415.197	853.69
415.574	869.51
415.951	862.28
416.328	880.13
416.705	896.63
417.082	889.17
417.46	904.31
417.837	877.42
418.214	903.86
418.591	915.61
418.967	937.53
419.344	926.23
419.721	927.81
420.098	935.72
420.475	944.76
420.852	957.19
421.228	965.1
421.605	969.17
421.982	958.55
422.358	969.62
422.735	980.47
423.111	1000.58
423.488	994.48
423.864	1021.6
424.241	1037.64
424.617	1053.24
424.994	1039.45
425.37	1062.27
425.746	1077.64
426.123	1082.61
426.499	1092.1
426.875	1091.88
427.251	1109.96
427.627	1122.39
428.003	1134.36
428.379	1140.69
428.756	1168.71
429.132	1147.47
429.507	1205.77
429.883	1199.45
430.259	1212.1
430.635	1211.65
431.011	1212.55
431.387	1268.14
431.763	1275.83
432.138	1280.35
432.514	1284.87
432.89	1314.7
433.265	1339.78
433.641	1358.76
434.016	1385.66
434.392	1380.01
434.767	1402.83
435.143	1394.92
435.518	1423.85
435.894	1426.78
436.269	1436.28
436.644	1468.82
437.02	1460.46
437.395	1500.91
437.77	1486.44
438.145	1491.87
438.52	1521.25
438.895	1511.3
439.271	1517.18
439.646	1560.11
440.021	1574.13
440.395	1560.57
440.77	1562.37
441.145	1585.88
441.52	1610.51
441.895	1606.89
442.27	1630.62
442.645	1605.76
443.019	1627.23
443.394	1650.28
443.769	1650.51
444.143	1669.94
444.518	1668.36
444.892	1661.58
445.267	1672.88
445.641	1740
446.016	1708.36
446.39	1768.7
446.764	1731.86
447.139	1739.54
447.513	1774.8
447.887	1772.09
448.262	1770.28
448.636	1807.79
449.01	1806.89
449.384	1829.94
449.758	1808.47
450.132	1865.87
450.506	1889.15
450.88	1892.99
451.254	1844.4
451.628	1912.42
452.002	1932.53
452.376	1921.91
452.75	1975.47
453.123	1939.54
453.497	1990.61
453.871	2019.09
454.244	2039.88
454.618	2066.32
454.992	2111.51
455.365	2130.04
455.739	2178.63
456.112	2175.24
456.486	2199.65
456.859	2230.83
457.232	2242.58
457.606	2239.87
457.979	2285.29
458.352	2318.29
458.725	2346.99
459.099	2366.87
459.472	2415.46
459.845	2445.29
460.218	2466.08
460.591	2472.86
460.964	2497.26
461.337	2542.91
461.71	2582.01
462.083	2611.16
462.456	2600.54
462.829	2622.91
463.201	2667.66
463.574	2684.38
463.947	2684.83
464.32	2737.03
464.692	2790.36
465.065	2766.64
465.438	2803.92
465.81	2907.88
466.183	2879.18
466.555	2895.45
466.928	2932.73
467.3	2918.5
467.672	3006.4
468.045	3043.69
468.417	3035.56
468.789	3070.58
469.161	3160.98
469.534	3119.4
469.906	3214.99
470.278	3240.07
470.65	3241.2
471.022	3327.98
471.394	3366.17
471.766	3403
472.138	3472.83
472.51	3454.98
472.882	3548.99
473.253	3554.64
473.625	3640.06
473.997	3709.21
474.369	3685.26
474.74	3689.55
475.112	3772.49
475.484	3885.48
475.855	3889.32
476.227	3943.55
476.598	4073.04
476.97	4139.93
477.341	4187.16
477.713	4279.36
478.084	4288.86
478.455	4363.2
478.827	4404.11
479.198	4553.03
479.569	4539.47
479.94	4719.81
480.311	4759.35
480.682	4868.73
481.053	4883.87
481.424	4976.97
481.795	5028.27
482.166	5188.72
482.537	5237.31
482.908	5310.75
483.279	5328.6
483.65	5481.37
484.021	5611.08
484.391	5723.85
484.762	5718.65
485.133	5816.05
485.503	5872.77
485.874	6047
486.244	6084.52
486.615	6221.91
486.985	6316.15
487.356	6432.53
487.726	6481.11
488.097	6572.19
488.467	6675.69
488.837	6812.63
489.207	6864.83
489.578	6983.02
489.948	7126.97
490.318	7267.31
490.688	7302.34
491.058	7456
491.428	7548.88
491.798	7620.52
492.168	7740.06
492.538	7855.77
492.908	7936.9
493.278	8115.2
493.648	8144.12
494.017	8260.73
494.387	8394.74
494.757	8495.3
495.126	8584.79
495.496	8624.79
495.866	8716.76
496.235	8889.87
496.605	8968.73
496.974	8997.43
497.344	9126.24
497.713	9173.47
498.082	9269.97
498.452	9402.85
498.821	9500.02
499.19	9528.27
499.559	9569.4
499.928	9662.95
500.298	9822.27
500.667	9942.72
501.036	9973.45
501.405	10113.11
501.774	10136.61
502.143	10212.77
502.512	10234.46
502.88	10396.49
503.249	10431.29
503.618	10493.21
503.987	10550.61
504.356	10697.95
504.724	10833.99
505.093	10790.61
505.462	10937.49
505.83	11036.48
506.199	11072.18
506.567	11226.75
506.936	11216.58
507.304	11424.04
507.672	11472.85
508.041	11494.99
508.409	11664.93
508.777	11797.13
509.145	11905.61
509.514	11923.91
509.882	12045.71
510.25	11989.44
510.618	12144.47
510.986	12185.82
511.354	12285.93
511.722	12475.76
512.09	12599.37
512.458	12575.87
512.826	12705.13
513.193	12757.56
513.561	12828.07
513.929	12970.89
514.297	13068.96
514.664	13078.46
515.032	13273.93
515.4	13367.04
515.767	13443.42
516.135	13507.37
516.502	13498.78
516.869	13688.38
517.237	13750.3
517.604	13766.8
517.972	13898.77
518.339	14060.35
518.706	14072.33
519.073	14198.43
519.44	14266.22
519.808	14339.89
520.175	14472.77
520.542	14606.78
520.909	14727.45
521.276	14795.47
521.643	14915.7
522.009	15040.44
522.376	15149.81
522.743	15293.09
523.11	15530.59
523.477	15709.57
523.843	15645.85
524.21	15843.81
524.577	15995.22
524.943	16167.64
525.31	16176.45
525.676	16390.91
526.043	16503.68
526.409	16602.43
526.776	16757
527.142	16924.68
527.508	16968.3
527.874	17239.7
528.241	17311.11
528.607	17295.07
528.973	17611.44
529.339	17564.67
529.705	17796.3
530.071	17945.45
530.437	18053.24
530.803	18187.47
531.169	18264.08
531.535	18296.17
531.901	18499.1
532.267	18598.31
532.632	18673.79
532.998	18805.08
533.364	18927.34
533.73	18945.65
534.095	19137.73
534.461	19134.57
534.826	19357.61
535.192	19398.97
535.557	19561.22
535.923	19613.88
536.288	19638.28
536.653	19801.44
537.019	19801.22
537.384	19984.49
537.749	19921.21
538.114	20155.78
538.479	20156.24
538.845	20263.58
539.21	20262.45
539.575	20385.16
539.94	20428.54
540.305	20627.41
540.67	20638.71
541.034	20780.85
541.399	20684.13
541.764	20800.51
542.129	20846.39
542.494	20971.36
542.858	21014.74
543.223	21060.17
543.587	21234.17
543.952	21244.12
544.316	21228.52
544.681	21313.49
545.045	21458.12
545.41	21578.12
545.774	21635.07
546.138	21628.51
546.503	21672.58
546.867	21797.55
547.231	21863.76
547.595	21967.94
547.959	22004.77
548.324	22007.71
548.688	22037.32
549.052	22169.52
549.416	22189.4
549.779	22327.93
550.143	22279.57
550.507	22425.78
550.871	22530.41
551.235	22461.71
551.599	22784.19
551.962	22690.63
552.326	22758.43
552.689	22980.79
553.053	22836.62
553.417	22957.29
553.78	23138.08
554.143	23142.82
554.507	23266.66
554.87	23327
555.234	23492.87
555.597	23425.98
555.96	23527.67
556.323	23739.19
556.686	23648.35
557.05	23887.44
557.413	23979.86
557.776	23912.07
558.139	24226.86
558.502	24216.69
558.865	24270.93
559.228	24517.7
559.59	24537.14
559.953	24616.91
560.316	24893.06
560.679	24843.57
561.041	25019.38
561.404	25091.25
561.767	25327.63
562.129	25331.01
562.492	25596.32
562.854	25488.07
563.217	25624.34
563.579	25698.46
563.941	26005.57
564.304	26096.87
564.666	26225.68
565.028	26239.24
565.39	26414.38
565.753	26653.47
566.115	26697.08
566.477	26816.4
566.839	26889.62
567.201	27376.61
567.563	27279.66
567.925	27520.34
568.287	27501.35
568.648	27643.5
569.01	27965.07
569.372	28162.13
569.734	28156.93
570.095	28373.19
570.457	28512.85
570.819	28572.29
571.18	28744.48
571.542	29100.63
571.903	29035.1
572.265	29228.77
572.626	29446.16
572.987	29631.24
573.349	29779.26
573.71	29913.49
574.071	30073.26
574.432	30266.03
574.794	30552.12
575.155	30571.55
575.516	30668.95
575.877	30870.76
576.238	31034.14
576.599	31120.02
576.96	31309.84
577.32	31540.34
577.681	31585.99
578.042	31844.06
578.403	31927.68
578.763	32115.7
579.124	32313.88
579.485	32571.95
579.845	32750.71
580.206	32665.06
580.566	32808.78
580.927	33026.86
581.287	33303.01
581.648	33288.55
582.008	33648.31
582.368	33859.83
582.728	33998.13
583.089	34240.61
583.449	34509.53
583.809	34629.53
584.169	34947.03
584.529	35090.98
584.889	35519.67
585.249	35501.82
585.609	35628.37
585.969	36158.07
586.329	36284.63
586.688	36806.65
587.048	37019.29
587.408	37299.06
587.768	37453.41
588.127	37838.93
588.487	38223.11
588.846	38761.4
589.206	38874.16
589.565	39339.23
589.925	39866.45
590.284	40070.29
590.643	40519.99
591.003	40782.36
591.362	41576.01
591.721	41733.97
592.08	42085.6
592.44	42735.3
592.799	43093.71
593.158	43439.92
593.517	43812.56
593.876	44393.11
594.235	44708.81
594.593	45243.94
594.952	45676.69
595.311	45953.3
595.67	46651.36
596.029	47185.81
596.387	47575.85
596.746	48050.64
597.104	48286.8
597.463	48608.14
597.822	49285.87
598.18	49451.51
598.538	49823.93
598.897	50481.54
599.255	50474.76
599.613	51230.22
599.972	51267.51
600.33	51617.56
600.688	51935.51
601.046	52300.25
601.404	52827.24
601.762	52878.99
602.12	53326.66
602.478	53633.32
602.836	53822.69
603.194	53922.35
603.552	54334.32
603.91	54495.67
604.268	54892.95
604.625	55035.77
604.983	55414.07
605.341	55378.81
605.698	55826.71
606.056	56157.55
606.413	56255.17
606.771	56597.99
607.128	56637.99
607.485	56812.22
607.843	57047.02
608.2	57332.89
608.557	57592.31
608.914	57637.74
609.272	57891.06
609.629	58098.51
609.986	58355.01
610.343	58552.29
610.7	58785.73
611.057	58877.48
611.414	58915.44
611.771	59201.99
612.127	59427.75
612.484	59511.58
612.841	59724.01
613.198	59753.84
613.554	59865.02
613.911	60129.87
614.267	60226.59
614.624	60350.66
614.98	60489.19
615.337	60745.22
615.693	60796.75
616.05	60901.6
616.406	61032.45
616.762	61091.2
617.118	61209.62
617.475	61271.54
617.831	61453.68
618.187	61542.27
618.543	61596.28
618.899	61850.51
619.255	61885.99
619.611	61895.7
619.967	62082.14
620.323	62169.14
620.678	62118.52
621.034	62181.57
621.39	62256.37
621.746	62326.43
622.101	62598.06
622.457	62485.74
622.812	62674.44
623.168	62711.73
623.523	62751.27
623.879	62873.08
624.234	62859.07
624.589	62934.09
624.945	62977.03
625.3	63063.58
625.655	63149.46
626.01	63089.34
626.365	63195.78
626.72	63130.47
627.075	63172.28
627.43	63247.31
627.785	63239.17
628.14	63279.85
628.495	63378.6
628.85	63391.26
629.205	63356.91
629.559	63472.61
629.914	63375.21
630.269	63390.58
630.623	63369.11
630.978	63372.05
631.332	63501.54
631.687	63485.04
632.041	63447.07
632.396	63506.06
632.75	63441.65
633.104	63494.76
633.459	63386.51
633.813	63418.83
634.167	63427.41
634.521	63384.93
634.875	63360.75
635.229	63365.95
635.583	63324.59
635.937	63394.42
636.291	63360.3
636.645	63372.05
636.999	63275.78
637.352	63348.32
637.706	63230.58
638.06	63362.11
638.413	63308.1
638.767	63186.97
639.121	63306.74
639.474	63134.31
639.828	63164.14
640.181	63169.34
640.534	63212.05
640.888	63105.84
641.241	63044.6
641.594	63081.43
641.947	63113.75
642.301	63081.89
642.654	63117.82
643.007	63009.57
643.36	63055.22
643.713	63015.9
644.066	63127.54
644.419	62957.82
644.771	62756.92
645.124	62437.38
645.477	62493.2
645.83	62443.49
646.182	62375.24
646.535	62343.37
646.888	62346.09
647.24	62293.66
647.593	62432.41
647.945	62307.9
648.298	62229.71
648.65	62160.55
649.002	62025.87
649.355	61936.83
649.707	61990.39
650.059	61974.12
650.411	62290.49
650.763	62387.22
651.115	62699.3
651.467	62614.55
651.819	62566.42
652.171	62560.77
652.523	62517.16
652.875	62497.27
653.227	62396.48
653.578	62580.66
653.93	62470.83
654.282	62323.94
654.633	62354.22
654.985	62341.12
655.337	62377.95
655.688	62305.86
656.039	62415.24
656.391	62220.44
656.742	62277.61
657.094	62249.14
657.445	62285.98
657.796	62249.37
658.147	62207.33
658.498	62207.56
658.849	62270.16
659.2	62138.86
659.551	62072.65
659.902	62235.81
660.253	62136.83
660.604	62185.41
660.955	62074.46
661.306	62172.98
661.656	62086.66
662.007	62129.14
662.358	62118.07
662.708	62123.49
663.059	62037.85
663.409	61962.14
663.76	62073.33
664.11	62055.92
664.461	62125.98
664.811	62062.7
665.161	62048.02
665.511	61985.87
665.862	62036.04
666.212	62041.46
666.562	62066.09
666.912	62005.3
667.262	61914.46
667.612	61917.4
667.962	61939.77
668.312	61894.57
668.662	62022.71
669.011	61978.41
669.361	61888.25
669.711	61956.27
670.06	61874.69
670.41	61870.17
670.76	61817.51
671.109	61908.36
671.459	61847.34
671.808	61866.78
672.157	61957.85
672.507	61749.94
672.856	61779.77
673.205	61800.34
673.554	61873.1
673.904	61789.27
674.253	61904.52
674.602	61786.78
674.951	61438.77
675.3	61347.47
675.649	61775.93
675.998	61699.1
676.346	61775.93
676.695	61823.61
677.044	61652.55
677.393	61720.34
677.741	61722.83
678.09	61702.71
678.438	61638.08
678.787	61674.01
679.135	61692.54
679.484	61534.58
679.832	61605.32
680.181	61562.83
680.529	61570.97
680.877	61473.79
681.225	61499.1
681.573	61677.86
681.922	61508.59
682.27	61448.71
682.618	61485.54
682.966	61385.66
683.314	61404.87
683.661	61393.57
684.009	61314.48
684.357	61283.06
684.705	61221.82
685.053	61309.05
685.4	61167.13
685.748	61115.16
686.095	61116.51
686.443	60986.8
686.79	61015.5
687.138	61102.05
687.485	61018.89
687.832	60906.8
688.18	60941.83
688.527	60876.97
688.874	60809.63
689.221	60852.79
689.568	60820.48
689.915	60767.37
690.262	60723.53
690.609	60665.9
690.956	60558.79
691.303	60568.51
691.65	60446.02
691.997	60454.61
692.344	60375.74
692.69	60360.83
693.037	60325.8
693.383	60139.82
693.73	60171.91
694.077	60113.6
694.423	60056.88
694.769	60017.79
695.116	59980.27
695.462	59891.01
695.808	59822.76
696.155	59915.64
696.501	59690.56
696.847	59753.39
697.193	59553.62
697.539	59661.86
697.885	59502.09
698.231	59407.63
698.577	59410.12
698.923	59361.08
699.269	59213.97
699.614	59129.9
699.96	59106.85
700.306	59050.35
700.651	59007.64
700.997	58905.05
701.342	58879.29
701.688	58900.3
702.033	58756.58
702.379	58699.4
702.724	58585.51
703.069	58665.51
703.415	58393.2
703.76	58442.23
704.105	58442.91
704.45	58359.75
704.795	58186.42
705.14	58139.64
705.485	58190.04
705.83	58007.9
706.175	58152.98
706.52	57982.59
706.865	57883.38
707.209	57784.17
707.554	57746.89
707.899	57780.56
708.243	57606.78
708.588	57611.3
708.932	57541.69
709.277	57485.2
709.621	57430.06
709.966	57235.94
710.31	57303.96
710.654	57162.95
710.998	57193.23
711.342	57249.95
711.687	57113.68
712.031	56993.23
712.375	56943.52
712.719	56842.73
713.063	56812.67
713.407	56907.81
713.75	56806.35
714.094	56735.61
714.438	56635.95
714.782	56614.03
715.125	56521.16
715.469	56602.96
715.812	56356.64
716.156	56390.31
716.499	56312.8
716.843	56390.31
717.186	56173.37
717.53	56357.54
717.873	56308.51
718.216	56222.63
718.559	56105.35
718.902	56006.37
719.246	55963.66
719.589	55817.9
719.932	55843.43
720.275	55811.57
720.617	55805.24
720.96	55752.59
721.303	55624.91
721.646	55744.23
721.989	55560.73
722.331	55649.77
722.674	55547.62
723.016	55503.1
723.359	55387.17
723.701	55443.67
724.044	55306.05
724.386	55228.53
724.729	55335.88
725.071	55281.19
725.413	55257.69
725.755	55161.42
726.097	55091.36
726.439	55018.82
726.782	54914.19
727.124	55086.84
727.465	54941.99
727.807	54787.42
728.149	54942.67
728.491	54751.03
728.833	54817.47
729.175	54677.81
729.516	54693.41
729.858	54590.13
730.199	54653.86
730.541	54569.57
730.882	54456.8
731.224	54585.61
731.565	54410.7
731.906	54440.98
732.248	54466.07
732.589	54288.67
732.93	54251.84
733.271	54321.21
733.612	54242.57
733.953	54309.24
734.294	54141.78
734.635	54130.48
734.976	54195.11
735.317	54104.5
735.658	54013.42
735.999	53887.55
736.339	54006.42
736.68	53918.96
737.021	53877.61
737.361	53781.11
737.702	53985.4
738.042	53733.66
738.383	53763.49
738.723	53802.36
739.063	53666.54
739.404	53698.4
739.744	53584.74
740.084	53535.24
740.424	53471.29
740.764	53429.71
741.104	53629.25
741.444	53355.36
741.784	53278.08
742.124	53457.96
742.464	53267.91
742.804	53300.45
743.143	53258.19
743.483	53301.8
743.823	53165.09
744.162	53095.48
744.502	53169.6
744.841	53031.98
745.181	53212.54
745.52	53019.33
745.86	53050.74
746.199	52966.22
746.538	52966.45
746.877	52901.59
747.216	52948.37
747.556	52779.78
747.895	52813.68
748.234	52720.35
748.573	52715.83
748.911	52531.66
749.25	52584.54
749.589	52417.08
749.928	52549.28
750.267	52457.53
750.605	52375.5
750.944	52448.27
751.283	52254.6
751.621	52384.54
751.96	52171.89
752.298	52139.8
752.636	52173.92
752.975	52045.79
753.313	51883.99
753.651	52153.13
753.989	51918.56
754.327	51858
754.666	51634.5
755.004	51670.44
