Data from 17-1564_FLMS001491_008.txt Node
Date: Thu Apr 19 16:31:38 BST 2018
User: hsy
Spectrometer: FLMS00149
Trigger mode: 0
Integration Time (sec): 1.000000E-2
Scans to average: 10
Electric dark correction enabled: true
Nonlinearity correction enabled: false
Boxcar width: 0
XAxis mode: Wavelengths
Number of Pixels in Spectrum: 2048
>>>>>Begin Spectral Data<<<<<
341.393	-28.04
341.776	-28.04
342.16	-28.04
342.543	-57.41
342.927	-61.93
343.31	-88.37
343.693	-51.09
344.077	-80.24
344.46	-60.58
344.843	-62.61
345.226	-29.62
345.61	-42.95
345.993	-22.39
346.376	10.38
346.759	0.66
347.142	46.99
347.525	38.63
347.908	79.76
348.291	69.59
348.674	86.99
349.057	104.84
349.44	120.21
349.823	151.62
350.206	189.59
350.588	237.27
350.971	258.28
351.354	271.62
351.737	287.66
352.119	285.85
352.502	311.84
352.884	319.98
353.267	329.02
353.65	342.35
354.032	332.41
354.414	377.15
354.797	363.37
355.179	355.68
355.562	385.96
355.944	389.58
356.326	383.93
356.709	398.39
357.091	398.39
357.473	386.42
357.855	391.61
358.238	402.01
358.62	403.14
359.002	430.03
359.384	405.62
359.766	404.5
360.148	404.5
360.53	400.65
360.912	388.9
361.294	384.16
361.676	415.79
362.057	420.77
362.439	393.65
362.821	385.51
363.203	390.48
363.584	397.26
363.966	423.48
364.348	384.83
364.729	396.36
365.111	384.16
365.493	390.03
365.874	401.78
366.256	383.93
366.637	382.57
367.019	375.34
367.4	405.62
367.781	383.93
368.163	391.61
368.544	374.67
368.925	400.65
369.306	387.32
369.688	373.08
370.069	380.54
370.45	380.09
370.831	392.07
371.212	413.31
371.593	402.46
371.974	395.68
372.355	382.57
372.736	379.64
373.117	408.34
373.498	389.35
373.879	412.63
374.26	397.49
374.641	402.24
375.021	396.36
375.402	405.4
375.783	425.06
376.163	427.77
376.544	427.77
376.925	416.7
377.305	417.83
377.686	420.77
378.066	437.49
378.447	418.96
378.827	434.1
379.208	424.16
379.588	418.96
379.968	428.9
380.349	437.26
380.729	441.33
381.109	436.13
381.489	443.14
381.87	425.06
382.25	433.65
382.63	436.36
383.01	469.58
383.39	428.22
383.77	470.48
384.15	462.35
384.53	472.74
384.91	483.14
385.29	473.19
385.67	468.45
386.049	476.36
386.429	488.79
386.809	489.92
387.189	473.19
387.568	488.56
387.948	485.62
388.328	480.88
388.707	478.39
389.087	513.87
389.466	526.3
389.846	516.81
390.225	522.23
390.605	505.28
390.984	524.94
391.363	512.06
391.743	521.78
392.122	540.08
392.501	523.59
392.881	547.32
393.26	546.64
393.639	557.03
394.018	544.6
394.397	530.37
394.776	549.58
395.155	553.64
395.534	554.32
395.913	554.1
396.292	582.57
396.671	592.74
397.05	564.49
397.429	586.64
397.808	574.89
398.186	587.77
398.565	595.68
398.944	589.35
399.323	601.78
399.701	597.03
400.08	593.87
400.458	597.03
400.837	619.63
401.215	621.44
401.594	625.51
401.972	605.85
402.351	638.84
402.729	628.9
403.107	637.26
403.486	627.54
403.864	644.26
404.242	640.2
404.62	680.42
404.999	662.34
405.377	668.22
405.755	684.94
406.133	678.84
406.511	698.27
406.889	690.36
407.267	693.53
407.645	703.47
408.023	687.65
408.401	738.27
408.779	739.4
409.156	736.92
409.534	761.32
409.912	768.55
410.29	764.26
410.667	753.86
411.045	787.31
411.422	772.85
411.8	773.98
412.178	794.32
412.555	810.36
412.933	836.8
413.31	830.47
413.687	824.14
414.065	841.77
414.442	829.34
414.819	833.41
415.197	853.07
415.574	865.95
415.951	874.09
416.328	875.67
416.705	906.4
417.082	870.92
417.46	921.32
417.837	909.57
418.214	909.34
418.591	913.86
418.967	938.27
419.344	934.65
419.721	967.87
420.098	953.63
420.475	977.59
420.852	981.88
421.228	983.24
421.605	967.42
421.982	997.47
422.358	1017.13
422.735	989.79
423.111	1020.52
423.488	1019.85
423.864	1014.87
424.241	1023.46
424.617	1031.6
424.994	1057.59
425.37	1064.14
425.746	1083.12
426.123	1081.77
426.499	1098.04
426.875	1095.55
427.251	1103.69
427.627	1134.65
428.003	1141.2
428.379	1155.89
428.756	1168.99
429.132	1176.23
429.507	1188.66
429.883	1202.67
430.259	1245.6
430.635	1217.81
431.011	1264.13
431.387	1276.11
431.763	1286.05
432.138	1279.95
432.514	1303.45
432.89	1314.53
433.265	1328.31
433.641	1366.96
434.016	1357.92
434.392	1381.19
434.767	1390.01
435.143	1404.69
435.518	1439.5
435.894	1456.9
436.269	1467.29
436.644	1474.3
437.02	1476.78
437.395	1508.65
437.77	1506.84
438.145	1550.68
438.52	1520.85
438.895	1539.38
439.271	1557.69
439.646	1588.64
440.021	1598.36
440.395	1604.69
440.77	1602.2
441.145	1618.25
441.52	1639.49
441.895	1659.15
442.27	1634.97
442.645	1635.88
443.019	1666.61
443.394	1672.71
443.769	1689.21
444.143	1681.98
444.518	1718.36
444.892	1715.87
445.267	1682.43
445.641	1725.14
446.016	1728.98
446.39	1739.15
446.764	1741.63
447.139	1753.84
447.513	1762.65
447.887	1783.67
448.262	1820.05
448.636	1808.53
449.01	1849.2
449.384	1847.85
449.758	1865.47
450.132	1886.26
450.506	1877.22
450.88	1922.87
451.254	1902.76
451.628	1938.92
452.002	1969.43
452.376	1980.27
452.75	1965.36
453.123	1994.74
453.497	2023.66
453.871	2033.6
454.244	2115.86
454.618	2088.52
454.992	2126.94
455.365	2116.77
455.739	2186.37
456.112	2171.45
456.486	2260.27
456.859	2249.87
457.232	2285.35
457.606	2276.08
457.979	2307.95
458.352	2351.34
458.725	2383.43
459.099	2396.53
459.472	2432.01
459.845	2496.64
460.218	2509.52
460.591	2534.61
460.964	2510.65
461.337	2582.29
461.71	2617.54
462.083	2637.43
462.456	2693.02
462.829	2654.83
463.201	2705
463.574	2735.06
463.947	2770.53
464.32	2788.16
464.692	2874.49
465.065	2846.92
465.438	2860.7
465.81	2935.73
466.183	2918.78
466.555	2983.18
466.928	2972.11
467.3	3017.53
467.672	3046.69
468.045	3151.09
468.417	3163.52
468.789	3143.63
469.161	3152.67
469.534	3228.15
469.906	3256.85
470.278	3285.32
470.65	3355.6
471.022	3408.71
471.394	3456.17
471.766	3450.06
472.138	3537.75
472.51	3597.41
472.882	3605.77
473.253	3696.84
473.625	3727.8
473.997	3765.76
474.369	3832.43
474.74	3831.98
475.112	3892.76
475.484	3995.81
475.855	4008.92
476.227	4076.49
476.598	4179.09
476.97	4215.92
477.341	4304.96
477.713	4344.05
478.084	4408.91
478.455	4506.08
478.827	4513.54
479.198	4629.69
479.569	4690.26
479.94	4836.24
480.311	4892.51
480.682	4977.93
481.053	5065.16
481.424	5134.54
481.795	5218.83
482.166	5303.12
482.537	5330.24
482.908	5474.19
483.279	5559.84
483.65	5637.35
484.021	5733.17
484.391	5802.32
484.762	5933.84
485.133	5952.6
485.503	6059.94
485.874	6208.41
486.244	6242.76
486.615	6415.41
486.985	6462.41
487.356	6594.16
487.726	6671.9
488.097	6810.88
488.467	6866.7
488.837	7038.44
489.207	7083.64
489.578	7247.25
489.948	7276.4
490.318	7489.05
490.688	7421.94
491.058	7590.07
491.428	7750.97
491.798	7851.08
492.168	8027.57
492.538	8054.92
492.908	8185.76
493.278	8309.37
493.648	8313.21
494.017	8416.04
494.387	8485.86
494.757	8570.61
495.126	8708.23
495.496	8734.67
495.866	8897.38
496.235	8961.33
496.605	9025.96
496.974	9102.8
497.344	9209.24
497.713	9360.87
498.082	9343.02
498.452	9511.83
498.821	9615.55
499.19	9549.34
499.559	9735.78
499.928	9777.36
500.298	9841.76
500.667	9944.58
501.036	9922.89
501.405	10116.78
501.774	10118.14
502.143	10216.67
502.512	10261.41
502.88	10390.22
503.249	10442.2
503.618	10524.45
503.987	10526.49
504.356	10640.84
504.724	10781.62
505.093	10807.84
505.462	10863.88
505.83	10851.45
506.199	11039.7
506.567	11184.32
506.936	11169.41
507.304	11314.49
507.672	11366.47
508.041	11388.39
508.409	11523.52
508.777	11585.9
509.145	11707.47
509.514	11688.72
509.882	11751.77
510.25	11873.35
510.618	11942.95
510.986	11929.39
511.354	12027.01
511.722	12192.43
512.09	12290.74
512.458	12297.06
512.826	12365.54
513.193	12466.55
513.561	12552.88
513.929	12572.31
514.297	12809.37
514.664	12821.57
515.032	12877.84
515.4	12970.27
515.767	13067.89
516.135	13109.7
516.502	13089.81
516.869	13257.49
517.237	13420.42
517.604	13329.35
517.972	13562.79
518.339	13643.24
518.706	13756.91
519.073	13793.3
519.44	13801.43
519.808	14015.66
520.175	14066.51
520.542	14212.95
520.909	14273.73
521.276	14425.6
521.643	14558.47
522.009	14699.26
522.376	14757.11
522.743	14791.91
523.11	15033.49
523.477	15169.98
523.843	15212.92
524.21	15464.21
524.577	15566.58
524.943	15649.74
525.31	15576.07
525.676	15907.59
526.043	15986.91
526.409	16161.14
526.776	16311.2
527.142	16408.82
527.508	16421.47
527.874	16675.71
528.241	16744.86
528.607	16907.56
528.973	17058.29
529.339	17096.49
529.705	17385.29
530.071	17402.92
530.437	17492.86
530.803	17606.75
531.169	17760.42
531.535	17783.47
531.901	17964.26
532.267	17974.88
532.632	18177.14
532.998	18244.48
533.364	18357.02
533.73	18464.13
534.095	18640.17
534.461	18585.71
534.826	18692.15
535.192	18874.07
535.557	19031.12
535.923	19057.56
536.288	19124.45
536.653	19226.15
537.019	19208.97
537.384	19340.27
537.749	19441.06
538.114	19419.14
538.479	19443.77
538.845	19653.93
539.21	19584.78
539.575	19724.89
539.94	19752.91
540.305	20037.88
540.67	19974.83
541.034	20028.61
541.399	20108.84
541.764	20159.23
542.129	20246.23
542.494	20331.88
542.858	20416.17
543.223	20383.18
543.587	20527.36
543.952	20605.55
544.316	20595.38
544.681	20695.49
545.045	20810.51
545.41	20818.87
545.774	20781.81
546.138	20910.85
546.503	21001.69
546.867	21028.81
547.231	21251.86
547.595	21212.31
547.959	21366.88
548.324	21447.11
548.688	21497.5
549.052	21461.79
549.416	21504.28
549.779	21633.09
550.143	21575.01
550.507	21758.51
550.871	21843.48
551.235	21902.01
551.599	22043.25
551.962	22136.58
552.326	22228.55
552.689	22213.41
553.053	22214.99
553.417	22330.7
553.78	22626.96
554.143	22609.79
554.507	22733.4
554.87	22821.53
555.234	23035.31
555.597	22738.6
555.96	23023.34
556.323	23113.73
556.686	23111.02
557.05	23418.35
557.413	23305.14
557.776	23408.86
558.139	23710.1
558.502	23647.27
558.865	23776.99
559.228	23998
559.59	24001.39
559.953	24149.86
560.316	24412.45
560.679	24339.68
561.041	24460.81
561.404	24697.42
561.767	24884.98
562.129	24791.2
562.492	25097.41
562.854	25137.86
563.217	25276.61
563.579	25341.24
563.941	25530.16
564.304	25739.42
564.666	25962.47
565.028	25870.27
565.39	25942.35
565.753	26331.72
566.115	26359.52
566.477	26555.45
566.839	26684.03
567.201	26806.74
567.563	26878.83
567.925	27081.53
568.287	27272.72
568.648	27289.66
569.01	27722.87
569.372	27820.27
569.734	27820.72
570.095	27963.77
570.457	28380.48
570.819	28447.15
571.18	28544.55
571.542	28688.95
571.903	28811.66
572.265	28963.97
572.626	29207.35
572.987	29257.07
573.349	29458.87
573.71	29714.68
574.071	29862.7
574.432	30000.55
574.794	30311.96
575.155	30254.56
575.516	30298.4
575.877	30516.7
576.238	30695
576.599	30787.2
576.96	30924.6
577.32	31115.1
577.681	31368.43
578.042	31489.1
578.403	31583.79
578.763	31705.14
579.124	31775.2
579.485	32039.82
579.845	32297.89
580.206	32238.91
580.566	32467.15
580.927	32667.6
581.287	32849.07
581.648	32769.75
582.008	33164.99
582.368	33186.46
582.728	33504.19
583.089	33542.83
583.449	33730.4
583.809	33895.37
584.169	34215.13
584.529	34205.19
584.889	34706.42
585.249	34875.91
585.609	34769.92
585.969	35434.31
586.329	35470.92
586.688	35930.57
587.048	36038.59
587.408	36328.3
587.768	36564
588.127	36990.88
588.487	37093.25
588.846	37835.15
589.206	37837.86
589.565	38104.29
589.925	38663.83
590.284	38915.57
590.643	39310.82
591.003	39856.34
591.362	40267.85
591.721	40579.26
592.08	41009.98
592.44	41660.81
592.799	41883.63
593.158	42259.44
593.517	42581.47
593.876	43259.87
594.235	43516.58
594.593	43843.13
594.952	44493.51
595.311	44840.61
595.67	45388.17
596.029	45916.74
596.387	46294.36
596.746	46696.16
597.104	46979.77
597.463	47456.59
597.822	47956.24
598.18	48048.89
598.538	48559.61
598.897	49105.14
599.255	49311.91
599.613	50099.01
599.972	50219.23
600.33	50547.58
600.688	50812.44
601.046	51209.49
601.404	51771.51
601.762	51861.45
602.12	52227.31
602.478	52572.16
602.836	52921.08
603.194	52924.7
603.552	53351.8
603.91	53512.93
604.268	53973.71
604.625	54157.88
604.983	54482.4
605.341	54509.29
605.698	54946.56
606.056	55330.96
606.413	55338.64
606.771	55788.58
607.128	55939.76
607.485	56068.79
607.843	56163.25
608.2	56562.34
608.557	56797.59
608.914	56919.39
609.272	57142.21
609.629	57476.21
609.986	57571.58
610.343	57713.27
610.7	58093.83
611.057	58094.5
611.414	58191.22
611.771	58453.59
612.127	58638.67
612.484	58733.36
612.841	58944.65
613.198	59001.15
613.554	59084.76
613.911	59408.59
614.267	59508.25
614.624	59618.53
614.98	59751.86
615.337	60005.64
615.693	60056.94
616.05	60088.35
616.406	60363.14
616.762	60402.69
617.118	60446.08
617.475	60523.59
617.831	60717.71
618.187	60845.39
618.543	60847.2
618.899	61128.1
619.255	61170.35
619.611	61205.83
619.967	61409.67
620.323	61478.14
620.678	61426.62
621.034	61494.64
621.39	61546.39
621.746	61630.46
622.101	61904.57
622.457	61720.62
622.812	61938.7
623.168	61973.05
623.523	62071.8
623.879	62156.09
624.234	62070.44
624.589	62167.16
624.945	62246.03
625.3	62250.33
625.655	62317.22
626.01	62379.36
626.365	62477.21
626.72	62381.85
627.075	62395.41
627.43	62516.76
627.785	62536.87
628.14	62560.37
628.495	62549.3
628.85	62674.72
629.205	62615.51
629.559	62741.16
629.914	62592.92
630.269	62639.69
630.623	62589.75
630.978	62592.69
631.332	62701.39
631.687	62722.18
632.041	62694.38
632.396	62721.73
632.75	62684.21
633.104	62764.21
633.459	62611.9
633.813	62663.42
634.167	62686.93
634.521	62717.66
634.875	62706.59
635.229	62687.6
635.583	62568.96
635.937	62637.66
636.291	62631.79
636.645	62600.6
636.999	62511.11
637.352	62653.25
637.706	62465.91
638.06	62551.11
638.413	62494.84
638.767	62416.88
639.121	62547.49
639.474	62382.3
639.828	62400.83
640.181	62377.33
640.534	62435.63
640.888	62393.37
641.241	62262.53
641.594	62271.57
641.947	62362.41
642.301	62283.32
642.654	62312.47
643.007	62208.52
643.36	62285.58
643.713	62243.77
644.066	62355.86
644.419	62122.42
644.771	61926.27
645.124	61733.96
645.477	61733.28
645.83	61564.02
646.182	61636.78
646.535	61580.74
646.888	61613.06
647.24	61510.01
647.593	61653.51
647.945	61554.53
648.298	61455.77
648.65	61384.13
649.002	61259.17
649.355	61231.6
649.707	61152.28
650.059	61152.5
650.411	61485.37
650.763	61637.69
651.115	61931.69
651.467	61828.19
651.819	61848.53
652.171	61813.73
652.523	61712.26
652.875	61775.31
653.227	61703.45
653.578	61859.15
653.93	61728.31
654.282	61609.21
654.633	61652.15
654.985	61682.88
655.337	61649.66
655.688	61697.35
656.039	61699.38
656.391	61489.22
656.742	61487.63
657.094	61531.25
657.445	61550.23
657.796	61556.11
658.147	61516.11
658.498	61538.48
658.849	61569.67
659.2	61469.1
659.551	61348.43
659.902	61559.72
660.253	61428.88
660.604	61468.43
660.955	61368.54
661.306	61461.19
661.656	61415.09
662.007	61398.15
662.358	61420.07
662.708	61390.46
663.059	61355.21
663.409	61251.03
663.76	61390.01
664.11	61397.02
664.461	61438.6
664.811	61364.47
665.161	61396.56
665.511	61300.97
665.862	61326.28
666.212	61378.03
666.562	61397.02
666.912	61342.78
667.262	61325.38
667.612	61301.2
667.962	61312.05
668.312	61267.98
668.662	61388.88
669.011	61346.62
669.361	61309.79
669.711	61352.05
670.06	61293.06
670.41	61200.64
670.76	61186.4
671.109	61348.66
671.459	61216.68
671.808	61229.56
672.157	61313.85
672.507	61155.44
672.856	61113.63
673.205	61172.16
673.554	61217.81
673.904	61208.09
674.253	61378.71
674.602	61195.21
674.951	60814.66
675.3	60704.6
675.649	61154.31
675.998	61117.25
676.346	61132.62
676.695	61163.12
677.044	61000.87
677.393	61071.37
677.741	61045.61
678.09	61002.22
678.438	61009
678.787	61027.76
679.135	61004.48
679.484	60878.84
679.832	60981.66
680.181	60907.31
680.529	60891.94
680.877	60805.62
681.225	60804.04
681.573	60957.71
681.922	60805.84
682.27	60741.67
682.618	60728.33
682.966	60674.55
683.314	60664.61
683.661	60674.55
684.009	60584.83
684.357	60539.86
684.705	60491.05
685.053	60554.78
685.4	60398.17
685.748	60373.31
686.095	60379.64
686.443	60226.65
686.79	60200.66
687.138	60317.72
687.485	60301.45
687.832	60171.74
688.18	60211.06
688.527	60143.49
688.874	60040.89
689.221	60056.26
689.568	59956.38
689.915	59879.32
690.262	59933.33
690.609	59887.22
690.956	59801.8
691.303	59818.3
691.65	59691.52
691.997	59665.54
692.344	59607.68
692.69	59513
693.037	59598.42
693.383	59376.05
693.73	59504.41
694.077	59386.9
694.423	59327.01
694.769	59246.11
695.116	59261.25
695.462	59139
695.808	59092.9
696.155	59134.25
696.501	58934.03
696.847	58966.57
697.193	58763.41
697.539	58826.91
697.885	58636.41
698.231	58641.38
698.577	58549.86
698.923	58591.89
699.269	58402.29
699.614	58336.53
699.96	58240.94
700.306	58318.23
700.651	58195.07
700.997	58087.05
701.342	58069.19
701.688	58010.89
702.033	57930.21
702.379	57910.33
702.724	57770.9
703.069	57842.76
703.415	57576.55
703.76	57544.01
704.105	57551.02
704.45	57477.8
704.795	57382.88
705.14	57275.54
705.485	57292.04
705.83	57095.21
706.175	57189.22
706.52	57178.6
706.865	57018.83
707.209	56949.67
707.554	56855.44
707.899	56926.62
708.243	56701.55
708.588	56745.16
708.932	56608.89
709.277	56553.98
709.621	56474.66
709.966	56351.05
710.31	56431.72
710.654	56214.55
710.998	56294.1
711.342	56312.4
711.687	56148.11
712.031	56041.9
712.375	55991.28
712.719	55978.63
713.063	55934.56
713.407	55998.51
713.75	55777.73
714.094	55824.73
714.438	55721.68
714.782	55687.79
715.125	55434.23
715.469	55642.59
715.812	55472.2
716.156	55400.34
716.499	55386.33
716.843	55360.79
717.186	55206.22
717.53	55325.99
717.873	55337.74
718.216	55255.03
718.559	55104.3
718.902	54895.94
719.246	54984.08
719.589	54882.38
719.932	54828.83
720.275	54795.16
720.617	54869.5
720.96	54753.12
721.303	54798.09
721.646	54702.5
721.989	54487.14
722.331	54608.04
722.674	54517.65
723.016	54536.18
723.359	54400.14
723.701	54501.38
724.044	54326.02
724.386	54157.66
724.729	54258.9
725.071	54210.99
725.413	54156.98
725.755	54109.52
726.097	54027.94
726.439	54035.18
726.782	53968.74
727.124	54136.64
727.465	53994.05
727.807	53841.51
728.149	53864.78
728.491	53741.4
728.833	53791.57
729.175	53744.56
729.516	53768.06
729.858	53759.93
730.199	53744.34
730.541	53651.46
730.882	53532.36
731.224	53604.23
731.565	53408.98
731.906	53530.33
732.248	53594.96
732.589	53381.18
732.93	53364.01
733.271	53405.59
733.612	53283.33
733.953	53469.31
734.294	53382.99
734.635	53239.26
734.976	53423.44
735.317	53136.22
735.658	53145.71
735.999	53074.52
736.339	53121.75
736.68	53089.89
737.021	53089.44
737.361	52898.71
737.702	53081.98
738.042	53041.53
738.383	52948.65
738.723	53069.1
739.063	52924.7
739.404	53050.79
739.744	52917.46
740.084	52818.94
740.424	52906.84
740.764	52746.85
741.104	52978.48
741.444	52731.48
741.784	52610.81
742.124	52741.2
742.464	52613.29
742.804	52621.2
743.143	52552.5
743.483	52614.42
743.823	52467.98
744.162	52497.14
744.502	52537.14
744.841	52483.13
745.181	52573.07
745.52	52359.51
745.86	52395.9
746.199	52443.35
746.538	52289.23
746.877	52427.31
747.216	52366.52
747.556	52251.04
747.895	52362.9
748.234	52245.39
748.573	52242.45
748.911	52193.64
749.25	52238.84
749.589	52094.66
749.928	52103.93
750.267	52155.68
750.605	52053.31
750.944	52014.44
751.283	51950.94
751.621	52081.33
751.96	51790.49
752.298	51915.01
752.636	51887.66
752.975	51797.72
753.313	51766.08
753.651	51982.12
753.989	51859.41
754.327	51634.79
754.666	51414
