Data from 17-1456_FLMS001491_007.txt Node
Date: Thu Apr 19 16:30:43 BST 2018
User: hsy
Spectrometer: FLMS00149
Trigger mode: 0
Integration Time (sec): 1.000000E-2
Scans to average: 10
Electric dark correction enabled: true
Nonlinearity correction enabled: false
Boxcar width: 0
XAxis mode: Wavelengths
Number of Pixels in Spectrum: 2048
>>>>>Begin Spectral Data<<<<<
341.393	-6.6
341.776	-6.6
342.16	-6.6
342.543	-50.66
342.927	-59.25
343.31	-73.71
343.693	-84.33
344.077	-60.15
344.46	-67.61
344.843	-51.79
345.226	-58.12
345.61	-33.26
345.993	-17.44
346.376	4.48
346.759	20.75
347.142	23.91
347.525	59.62
347.908	65.94
348.291	74.53
348.674	87.64
349.057	109.56
349.44	132.61
349.823	153.85
350.206	157.69
350.588	225.26
350.971	251.93
351.354	308.2
351.737	294.87
352.119	286.28
352.502	302.77
352.884	323.34
353.267	319.95
353.65	317.01
354.032	355.2
354.414	345.71
354.797	360.85
355.179	378.48
355.562	373.06
355.944	376.44
356.326	377.8
356.709	391.81
357.091	396.78
357.473	377.57
357.855	400.63
358.238	382.09
358.62	394.75
359.002	383.68
359.384	399.5
359.766	399.5
360.148	413.05
360.53	392.26
360.912	410.34
361.294	388.65
361.676	379.83
362.057	401.53
362.439	374.86
362.821	394.52
363.203	374.64
363.584	371.25
363.966	386.16
364.348	377.12
364.729	368.08
365.111	384.35
365.493	382.77
365.874	384.81
366.256	360.85
366.637	380.74
367.019	381.87
367.4	396.56
367.781	374.41
368.163	396.11
368.544	385.03
368.925	363.79
369.306	368.76
369.688	407.63
370.069	371.25
370.45	401.98
370.831	383
371.212	373.51
371.593	406.5
371.974	370.12
372.355	390.68
372.736	371.25
373.117	384.13
373.498	408.99
373.879	383.9
374.26	395.88
374.641	395.88
375.021	404.24
375.402	385.71
375.783	412.6
376.163	423.45
376.544	422.32
376.925	406.95
377.305	424.13
377.686	417.8
378.066	391.81
378.447	397.01
378.827	407.86
379.208	411.02
379.588	437.01
379.968	432.94
380.349	443.56
380.729	432.49
381.109	441.98
381.489	440.62
381.87	441.3
382.25	429.78
382.63	437.01
383.01	455.99
383.39	435.65
383.77	439.95
384.15	451.92
384.53	468.87
384.91	458.25
385.29	467.97
385.67	477.91
386.049	467.74
386.429	473.39
386.809	468.65
387.189	478.14
387.568	473.84
387.948	475.2
388.328	485.59
388.707	467.29
389.087	483.56
389.466	504.35
389.846	504.13
390.225	484.24
390.605	494.86
390.984	488.53
391.363	498.7
391.743	491.7
392.122	523.56
392.501	502.09
392.881	516.33
393.26	539.38
393.639	516.33
394.018	522.43
394.397	545.48
394.776	524.24
395.155	528.08
395.534	553.16
395.913	537.34
396.292	541.19
396.671	554.75
397.05	550.68
397.429	556.55
397.808	561.98
398.186	581.86
398.565	559.26
398.944	560.39
399.323	558.36
399.701	584.35
400.08	587.06
400.458	593.16
400.837	562.88
401.215	584.12
401.594	579.38
401.972	616.21
402.351	600.85
402.729	620.28
403.107	616.21
403.486	609.89
403.864	632.71
404.242	606.04
404.62	628.19
404.999	627.96
405.377	639.26
405.755	642.2
406.133	659.83
406.511	637.68
406.889	662.09
407.267	683.56
407.645	672.48
408.023	661.86
408.401	684.69
408.779	688.3
409.156	687.17
409.534	705.7
409.912	712.93
410.29	712.26
410.667	727.17
411.045	764.01
411.422	756.1
411.8	749.32
412.178	744.12
412.555	741.41
412.933	748.19
413.31	763.55
413.687	787.06
414.065	790.45
414.442	804.23
414.819	819.15
415.197	792.71
415.574	827.28
415.951	819.37
416.328	858.47
416.705	856.66
417.082	842.87
417.46	840.61
417.837	862.53
418.214	865.7
418.591	875.64
418.967	886.94
419.344	895.3
419.721	883.55
420.098	889.88
420.475	911.12
420.852	911.8
421.228	944.79
421.605	930.1
421.982	940.5
422.358	956.09
422.735	939.14
423.111	952.7
423.488	954.06
423.864	968.52
424.241	993.15
424.617	979.59
424.994	1021.4
425.37	1015.07
425.746	996.77
426.123	1040.38
426.499	1036.09
426.875	1022.53
427.251	1061.62
427.627	1089.42
428.003	1057.78
428.379	1084.9
428.756	1113.15
429.132	1118.35
429.507	1107.5
429.883	1106.37
430.259	1181.17
430.635	1183.2
431.011	1156.99
431.387	1161.96
431.763	1190.21
432.138	1218.91
432.514	1235.86
432.89	1244.44
433.265	1250.09
433.641	1291
434.016	1260.49
434.392	1295.29
434.767	1320.37
435.143	1327.38
435.518	1327.83
435.894	1365.8
436.269	1359.02
436.644	1386.36
437.02	1388.62
437.395	1391.56
437.77	1409.64
438.145	1427.26
438.52	1408.28
438.895	1459.13
439.271	1451.22
439.646	1467.26
440.021	1493.48
440.395	1485.12
440.77	1498.45
441.145	1485.12
441.52	1514.04
441.895	1523.08
442.27	1526.02
442.645	1540.26
443.019	1541.61
443.394	1564.66
443.769	1555.17
444.143	1563.53
444.518	1612.57
444.892	1602.4
445.267	1576.64
445.641	1617.99
446.016	1573.02
446.39	1635.39
446.764	1622.97
447.139	1641.72
447.513	1669.07
447.887	1658.45
448.262	1669.07
448.636	1653.25
449.01	1708.84
449.384	1700.48
449.758	1688.05
450.132	1752.45
450.506	1748.39
450.88	1753.13
451.254	1730.08
451.628	1793.58
452.002	1801.04
452.376	1799.01
452.75	1817.31
453.123	1864.09
453.497	1908.61
453.871	1893.24
454.244	1934.37
454.618	1946.57
454.992	1948.38
455.365	1955.61
455.739	2006.91
456.112	2049.85
456.486	2036.29
456.859	2060.92
457.232	2087.81
457.606	2102.73
457.979	2170.3
458.352	2181.82
458.725	2219.11
459.099	2188.37
459.472	2198.09
459.845	2235.83
460.218	2309.5
460.591	2297.98
460.964	2296.62
461.337	2355.83
461.71	2376.62
462.083	2436.5
462.456	2438.09
462.829	2417.97
463.201	2483.06
463.574	2452.77
463.947	2519.89
464.32	2547.91
464.692	2571.87
465.065	2611.64
465.438	2629.04
465.81	2649.83
466.183	2682.82
466.555	2694.58
466.928	2739.55
467.3	2743.39
467.672	2801.24
468.045	2861.35
468.417	2822.03
468.789	2880.33
469.161	2907.68
469.534	2945.64
469.906	2957.17
470.278	3011.18
470.65	3029.48
471.022	3085.3
471.394	3132.53
471.766	3174.34
472.138	3182.02
472.51	3210.04
472.882	3249.82
473.253	3325.52
473.625	3368.68
473.997	3422.92
474.369	3417.49
474.74	3476.02
475.112	3540.88
475.484	3623.82
475.855	3664.04
476.227	3662.91
476.598	3798.73
476.97	3811.83
477.341	3893.87
477.713	3960.76
478.084	3965.5
478.455	4037.37
478.827	4103.13
479.198	4215.21
479.569	4209.79
479.94	4269.9
480.311	4369.56
480.682	4471.93
481.053	4568.43
481.424	4639.61
481.795	4691.81
482.166	4759.61
482.537	4824.46
482.908	4922.54
483.279	4980.17
483.65	5130.44
484.021	5191.23
484.391	5275.75
484.762	5289.31
485.133	5353.94
485.503	5421.28
485.874	5544.9
486.244	5604.78
486.615	5764.1
486.985	5805.45
487.356	5909.18
487.726	5995.51
488.097	6144.43
488.467	6150.08
488.837	6331.09
489.207	6343.52
489.578	6484.08
489.948	6549.62
490.318	6722.04
490.688	6690.4
491.058	6877.74
491.428	6945.31
491.798	7001.81
492.168	7163.39
492.538	7260.78
492.908	7283.61
493.278	7458.29
493.648	7479.08
494.017	7600.44
494.387	7667.55
494.757	7720.66
495.126	7911.39
495.496	7944.38
495.866	8006.98
496.235	8125.85
496.605	8203.58
496.974	8315.45
497.344	8385.5
497.713	8487.42
498.082	8557.25
498.452	8654.87
498.821	8713.63
499.19	8756.34
499.559	8904.58
499.928	8940.29
500.298	9027.97
500.667	9105.25
501.036	9203.11
501.405	9238.36
501.774	9368.3
502.143	9453.27
502.512	9491.69
502.88	9586.37
503.249	9562.19
503.618	9736.88
503.987	9774.84
504.356	9880.6
504.724	9933.93
505.093	10024.78
505.462	10079.01
505.83	10164.21
506.199	10206.24
506.567	10373.02
506.936	10325.79
507.304	10586.12
507.672	10619.57
508.041	10615.95
508.409	10789.73
508.777	10853.91
509.145	10922.83
509.514	11003.28
509.882	11094.81
510.25	11134.35
510.618	11237.4
510.986	11201.7
511.354	11395.82
511.722	11502.25
512.09	11551.29
512.458	11475.59
512.826	11696.83
513.193	11739.76
513.561	11780.89
513.929	11816.37
514.297	11987.21
514.664	12111.05
515.032	12170.71
515.4	12300.43
515.767	12274.21
516.135	12330.93
516.502	12293.65
516.869	12615.9
517.237	12631.49
517.604	12660.19
517.972	12856.57
518.339	12861.99
518.706	12998.94
519.073	13041.2
519.44	13120.29
519.808	13252.49
520.175	13299.27
520.542	13513.05
520.909	13595.31
521.276	13633.05
521.643	13727.28
522.009	13889.54
522.376	14002.08
522.743	14131.79
523.11	14300.6
523.477	14326.36
523.843	14541.04
524.21	14631.21
524.577	14724.09
524.943	14763.41
525.31	14925.21
525.676	15134.47
526.043	15154.59
526.409	15234.36
526.776	15519.32
527.142	15522.04
527.508	15592.54
527.874	15927.22
528.241	15865.76
528.607	15997.28
528.973	16111.4
529.339	16151.17
529.705	16444.27
530.071	16498.05
530.437	16537.15
530.803	16677.49
531.169	16869.8
531.535	16930.36
531.901	16971.49
532.267	17062.33
532.632	17266.85
532.998	17290.35
533.364	17293.29
533.73	17431.82
534.095	17673.84
534.461	17702.54
534.826	17793.61
535.192	17835.87
535.557	18102.76
535.923	18016.43
536.288	18109.09
536.653	18162.87
537.019	18224.34
537.384	18343.2
537.749	18391.34
538.114	18443.09
538.479	18460.94
538.845	18639.92
539.21	18602.63
539.575	18737.09
539.94	18858.9
540.305	18985.67
540.67	18936.63
541.034	18973.7
541.399	19081.04
541.764	19160.58
542.129	19255.72
542.494	19229.96
542.858	19326.68
543.223	19336.62
543.587	19510.18
543.952	19524.87
544.316	19531.87
544.681	19542.95
545.045	19783.84
545.41	19867.01
545.774	19845.09
546.138	19923.05
546.503	19916.04
546.867	19980.45
547.231	20140.9
547.595	20187.45
547.959	20254.11
548.324	20261.8
548.688	20363.94
549.052	20268.35
549.416	20358.29
549.779	20386.09
550.143	20509.25
550.507	20653.65
550.871	20666.31
551.235	20690.49
551.599	20925.96
551.962	20978.62
552.326	20952.18
552.689	21058.61
553.053	20935
553.417	21168.44
553.78	21383.58
554.143	21465.61
554.507	21536.34
554.87	21563.46
555.234	21768.42
555.597	21620.41
555.96	21799.84
556.323	21776.79
556.686	22018.14
557.05	22061.07
557.413	22077.8
557.776	22181.52
558.139	22379.93
558.502	22449.76
558.865	22454.06
559.228	22555.75
559.59	22714.16
559.953	22792.58
560.316	23020.82
560.679	22989.41
561.041	23110.99
561.404	23225.34
561.767	23482.73
562.129	23404.09
562.492	23623.74
562.854	23583.07
563.217	23625.1
563.579	23855.15
563.941	23937.86
564.304	24080.45
564.666	24268.7
565.028	24326.55
565.39	24453.55
565.753	24662.13
566.115	24618.75
566.477	24839.53
566.839	24954.78
567.201	25267.99
567.563	25136.47
567.925	25377.82
568.287	25446.52
568.648	25633.63
569.01	25860.29
569.372	26062.78
569.734	25924.47
570.095	26286.5
570.457	26456.44
570.819	26420.51
571.18	26422.77
571.542	26796.99
571.903	26783.43
572.265	26966.71
572.626	27109.3
572.987	27191.56
573.349	27395.62
573.71	27590.42
574.071	27730.53
574.432	27824.31
574.794	28194.24
575.155	28136.39
575.516	28082.84
575.877	28307.01
576.238	28597.17
576.599	28717.39
576.96	28706.32
577.32	28957.16
577.681	29099.08
578.042	29234.9
578.403	29323.03
578.763	29372.52
579.124	29592.17
579.485	29833.98
579.845	30078.71
580.206	30082.56
580.566	30141.54
580.927	30291.59
581.287	30626.95
581.648	30720.28
582.008	30986.04
582.368	31103.09
582.728	31282.3
583.089	31514.16
583.449	31611.78
583.809	31830.76
584.169	32189.62
584.529	32229.17
584.889	32802.03
585.249	32780.79
585.609	32832.77
585.969	33360.21
586.329	33516.59
586.688	33943.47
587.048	34159.29
587.408	34389.34
587.768	34687.18
588.127	35063.89
588.487	35356.54
588.846	35802.86
589.206	36038.11
589.565	36394.25
589.925	37027.91
590.284	37221.8
590.643	37611.85
591.003	38026.75
591.362	38635.55
591.721	38847.52
592.08	39285.93
592.44	39840.27
592.799	40313.47
593.158	40633.92
593.517	41043.17
593.876	41664.4
594.235	41969.48
594.593	42450.59
594.952	43082.21
595.311	43244.47
595.67	43852.59
596.029	44469.97
596.387	44941.15
596.746	45631.98
597.104	45752.65
597.463	46138.41
597.822	46748.78
598.18	47051.83
598.538	47482.1
598.897	48032.14
599.255	48121.63
599.613	49013.81
599.972	49043.64
600.33	49517.98
600.688	49696.5
601.046	50206.32
601.404	50787.55
601.762	51027.32
602.12	51411.49
602.478	51712.04
602.836	51999.49
603.194	52111.58
603.552	52571.68
603.91	52706.59
604.268	53092.8
604.625	53316.07
604.983	53757.19
605.341	53864.76
605.698	54252.54
606.056	54594.45
606.413	54608.69
606.771	54997.16
607.128	55146.53
607.485	55299.29
607.843	55539.74
608.2	55854.99
608.557	56147.41
608.914	56257.69
609.272	56545.36
609.629	56748.07
609.986	56996.65
610.343	57082.07
610.7	57455.17
611.057	57520.71
611.414	57630.08
611.771	57940.81
612.127	58101.03
612.484	58246.11
612.841	58413.56
613.198	58500.57
613.554	58596.38
613.911	58912.53
614.267	59062.36
614.624	59083.38
614.98	59308.91
615.337	59524.27
615.693	59588.67
616.05	59703.92
616.406	59937.59
616.762	60024.82
617.118	60125.16
617.475	60180.97
617.831	60424.13
618.187	60510.68
618.543	60568.53
618.899	60794.07
619.255	60787.74
619.611	60847.4
619.967	61092.14
620.323	61162.19
620.678	61155.41
621.034	61197.44
621.39	61291.91
621.746	61323.99
622.101	61587.04
622.457	61451.68
622.812	61598.34
623.168	61713.14
623.523	61748.39
623.879	61886.69
624.234	61807.82
624.589	61851.44
624.945	61928.72
625.3	62040.59
625.655	62108.38
626.01	62199
626.365	62175.27
626.72	62163.52
627.075	62170.07
627.43	62284.42
627.785	62337.98
628.14	62337.53
628.495	62399.45
628.85	62483.74
629.205	62407.81
629.559	62515.83
629.914	62464.3
630.269	62479.44
630.623	62403.29
630.978	62366.23
631.332	62552.66
631.687	62538.43
632.041	62520.57
632.396	62501.82
632.75	62517.18
633.104	62545.66
633.459	62419.79
633.813	62465.21
634.167	62466.56
634.521	62479.22
634.875	62488.71
635.229	62427.92
635.583	62378.88
635.937	62428.37
636.291	62411.65
636.645	62430.63
636.999	62286
637.352	62361.03
637.706	62231.99
638.06	62382.27
638.413	62288.04
638.767	62290.75
639.121	62320.58
639.474	62206.68
639.828	62253.91
640.181	62245.33
640.534	62288.04
640.888	62179.79
641.241	62075.84
641.594	62124.88
641.947	62227.93
642.301	62112.9
642.654	62158.32
643.007	62032.45
643.36	62057.99
643.713	62063.64
644.066	62165.55
644.419	62001.72
644.771	61788.62
645.124	61582.07
645.477	61559.69
645.83	61462.75
646.182	61438.57
646.535	61350.21
646.888	61443.09
647.24	61323.54
647.593	61456.65
647.945	61345.01
648.298	61268.4
648.65	61170.33
649.002	61125.13
649.355	61072.25
649.707	60971.69
650.059	60971.01
650.411	61342.98
650.763	61425.91
651.115	61775.28
651.467	61632.91
651.819	61607.6
652.171	61614.83
652.523	61552.92
652.875	61561.73
653.227	61466.36
653.578	61654.83
653.93	61487.38
654.282	61447.61
654.633	61382.07
654.985	61468.4
655.337	61444.9
655.688	61423.43
656.039	61450.55
656.391	61270.44
656.742	61343.66
657.094	61362.86
657.445	61350.89
657.796	61353.37
658.147	61253.49
658.498	61239.48
658.849	61331.9
659.2	61219.82
659.551	61181.17
659.902	61302.3
660.253	61222.3
660.604	61245.13
660.955	61127.16
661.306	61300.72
661.656	61131.23
662.007	61143.89
662.358	61206.71
662.708	61180.27
663.059	61198.35
663.409	61061.18
663.76	61153.83
664.11	61078.58
664.461	61125.81
664.811	61158.12
665.161	61125.13
665.511	61085.58
665.862	61118.35
666.212	61112.25
666.562	61161.97
666.912	61025.02
667.262	60994.96
667.612	61008.75
667.962	61086.04
668.312	60988.86
668.662	61126.71
669.011	61053.49
669.361	61027.51
669.711	61018.92
670.06	60942.99
670.41	60973.95
670.76	60929.65
671.109	60947.51
671.459	60964
671.808	60948.86
672.157	60968.75
672.507	60875.42
672.856	60872.03
673.205	60909.99
673.554	60963.33
673.904	60869.09
674.253	61045.58
674.602	60891.69
674.951	60613.73
675.3	60543.45
675.649	60942.08
675.998	60876.78
676.346	60919.03
676.695	60952.03
677.044	60762.88
677.393	60837.45
677.741	60873.16
678.09	60816.21
678.438	60732.6
678.787	60792.03
679.135	60808.3
679.484	60661.64
679.832	60766.27
680.181	60679.94
680.529	60721.52
680.877	60666.39
681.225	60609.66
681.573	60769.66
681.922	60601.75
682.27	60553.62
682.618	60555.2
682.966	60488.76
683.314	60569.44
683.661	60557.01
684.009	60436.79
684.357	60374.42
684.705	60289.45
685.053	60323.12
685.4	60248.99
685.748	60225.72
686.095	60231.14
686.443	60114.31
686.79	60159.51
687.138	60190.01
687.485	60130.35
687.832	60067.53
688.18	60056.01
688.527	59973.52
688.874	59901.89
689.221	59952.05
689.568	59812.62
689.915	59796.35
690.262	59854.88
690.609	59743.02
690.956	59635
691.303	59686.98
691.65	59501.67
691.997	59512.29
692.344	59447.43
692.69	59380.32
693.037	59414.21
693.383	59226.87
693.73	59295.35
694.077	59199.76
694.423	59194.56
694.769	59114.79
695.116	59089.25
695.462	58940.1
695.808	58958.18
696.155	58944.85
696.501	58736.72
696.847	58905.08
697.193	58614.01
697.539	58748.47
697.885	58532.2
698.231	58500.57
698.577	58488.36
698.923	58504.41
699.269	58298.99
699.614	58142.38
699.96	58124.08
700.306	58155.04
700.651	58100.12
700.997	57977.64
701.342	57947.36
701.688	57874.37
702.033	57867.59
702.379	57824.2
702.724	57714.37
703.069	57782.39
703.415	57530.42
703.76	57518.67
704.105	57566.35
704.45	57412.01
704.795	57257.66
705.14	57202.97
705.485	57226.93
705.83	57057.89
706.175	57256.53
706.52	57094.28
706.865	56996.88
707.209	56835.3
707.554	56852.93
707.899	56757.11
708.243	56740.39
708.588	56674.17
708.932	56527.51
709.277	56583.55
709.621	56431.24
709.966	56240.51
710.31	56414.75
710.654	56275.31
710.998	56229.44
711.342	56269.66
711.687	56140.85
712.031	56026.96
712.375	55899.73
712.719	55940.63
713.063	55901.54
713.407	56004.36
713.75	55817.02
714.094	55765.95
714.438	55685.27
714.782	55660.42
715.125	55547.88
715.469	55664.26
715.812	55379.29
716.156	55453.19
716.499	55366.64
716.843	55442.12
717.186	55221.33
717.53	55357.15
717.873	55346.52
718.216	55227.43
718.559	55150.82
718.902	54977.5
719.246	55010.71
719.589	54945.86
719.932	54861.57
720.275	54954.9
720.617	54948.34
720.96	54699.31
721.303	54711.06
721.646	54722.13
721.989	54570.73
722.331	54594.45
722.674	54590.39
723.016	54571.4
723.359	54455.93
723.701	54459.77
724.044	54382.48
724.386	54231.3
724.729	54295.48
725.071	54292.32
725.413	54255.03
725.755	54083.73
726.097	54026.33
726.439	53982.49
726.782	53954.02
727.124	54127.12
727.465	53964.87
727.807	53905.66
728.149	53840.58
728.491	53724.65
728.833	53807.58
729.175	53736.17
729.516	53604.65
729.858	53626.57
730.199	53648.04
730.541	53521.94
730.882	53319.91
731.224	53528.95
731.565	53406.46
731.906	53377.09
732.248	53445.11
732.589	53188.39
732.93	53207.37
733.271	53202.4
733.612	53088.96
733.953	53163.31
734.294	53055.29
734.635	53003.31
734.976	53141.16
735.317	52911.56
735.658	52908.85
735.999	52783.88
736.339	52851
736.68	52830.21
737.021	52840.38
737.361	52709.31
737.702	52944.1
738.042	52781.39
738.383	52768.97
738.723	52690.32
739.063	52632.47
739.404	52684.45
739.744	52540.72
740.084	52450.78
740.424	52592.7
740.764	52457.79
741.104	52549.99
741.444	52384.79
741.784	52349.09
742.124	52433.61
742.464	52341.18
742.804	52185.25
743.143	52132.37
743.483	52214.86
743.823	52023.9
744.162	52078.59
744.502	52025.71
744.841	51977.57
745.181	52055.09
745.52	52032.71
745.86	52048.76
746.199	51898.48
746.538	51903
746.877	51937.12
747.216	51822.32
747.556	51761.76
747.895	51836.33
748.234	51560.86
748.573	51627.3
748.911	51532.16
749.25	51546.85
749.589	51412.17
749.928	51445.61
750.267	51477.7
750.605	51344.82
750.944	51331.26
751.283	51202.68
751.621	51195.45
751.96	51079.52
752.298	51056.02
752.636	51061.21
752.975	50900.99
753.313	50740.54
753.651	50905.96
753.989	50769.24
754.327	50717.72
754.666	50458.52
755.004	50654.67
