Data from 17-1436_FLMS001491_007.txt Node
Date: Thu Apr 19 16:29:09 BST 2018
User: hsy
Spectrometer: FLMS00149
Trigger mode: 0
Integration Time (sec): 1.000000E-2
Scans to average: 10
Electric dark correction enabled: true
Nonlinearity correction enabled: false
Boxcar width: 0
XAxis mode: Wavelengths
Number of Pixels in Spectrum: 2048
>>>>>Begin Spectral Data<<<<<
341.393	-17.22
341.776	-17.22
342.16	-17.22
342.543	-65.13
342.927	-75.29
343.31	-48.4
343.693	-49.98
344.077	-69.42
344.46	-61.51
344.843	-55.63
345.226	-49.31
345.61	-23.77
345.993	-23.09
346.376	-9.31
346.759	4.93
347.142	37.7
347.525	32.05
347.908	82.67
348.291	65.72
348.674	68.66
349.057	98.71
349.44	123.34
349.823	154.53
350.206	188.43
350.588	225.71
350.971	230.91
351.354	252.15
351.737	270.91
352.119	275.88
352.502	273.4
352.884	310.91
353.267	324.24
353.65	307.97
354.032	341.42
354.414	336.67
354.797	349.55
355.179	361.3
355.562	383.45
355.944	363.56
356.326	356.56
356.709	380.96
357.091	378.25
357.473	384.35
357.855	389.33
358.238	369.67
358.62	379.38
359.002	388.42
359.384	377.35
359.766	394.98
360.148	393.62
360.53	379.38
360.912	385.94
361.294	362.21
361.676	385.48
362.057	368.99
362.439	356.33
362.821	393.39
363.203	364.69
363.584	359.27
363.966	364.92
364.348	351.59
364.729	351.81
365.111	364.02
365.493	367.63
365.874	351.36
366.256	359.5
366.637	363.79
367.019	376.9
367.4	372.38
367.781	377.8
368.163	366.28
368.544	357.69
368.925	367.63
369.306	370.57
369.688	367.18
370.069	373.06
370.45	359.5
370.831	380.96
371.212	360.4
371.593	364.02
371.974	373.51
372.355	362.89
372.736	365.6
373.117	364.47
373.498	374.64
373.879	407.86
374.26	356.11
374.641	368.76
375.021	397.01
375.402	378.93
375.783	399.72
376.163	413.05
376.544	401.98
376.925	404.24
377.305	420.06
377.686	418.25
378.066	399.95
378.447	388.65
378.827	402.88
379.208	415.09
379.588	415.77
379.968	361.98
380.349	410.57
380.729	426.84
381.109	415.09
381.489	411.7
381.87	417.57
382.25	432.71
382.63	420.51
383.01	442.43
383.39	427.07
383.77	432.26
384.15	466.16
384.53	449.89
384.91	417.57
385.29	486.72
385.67	448.99
386.049	445.14
386.429	446.27
386.809	467.06
387.189	462.32
387.568	448.99
387.948	452.38
388.328	478.36
388.707	479.95
389.087	474.75
389.466	474.3
389.846	456.67
390.225	479.72
390.605	483.56
390.984	490.11
391.363	490.79
391.743	489.21
392.122	501.19
392.501	501.41
392.881	500.51
393.26	515.88
393.639	496.89
394.018	508.87
394.397	514.75
394.776	519.94
395.155	525.14
395.534	522.43
395.913	512.94
396.292	549.77
396.671	551.13
397.05	531.24
397.429	539.83
397.808	545.03
398.186	538.02
398.565	554.97
398.944	549.77
399.323	550.45
399.701	560.62
400.08	559.26
400.458	542.09
400.837	553.39
401.215	589.77
401.594	568.3
401.972	563.11
402.351	575.08
402.729	576.89
403.107	617.79
403.486	599.26
403.864	595.65
404.242	592.26
404.62	616.21
404.999	598.13
405.377	612.6
405.755	641.75
406.133	630.68
406.511	642.2
406.889	658.7
407.267	648.75
407.645	672.71
408.023	675.87
408.401	660.28
408.779	674.97
409.156	687.4
409.534	698.92
409.912	688.75
410.29	720.62
410.667	698.02
411.045	742.99
411.422	738.47
411.8	735.53
412.178	732.37
412.555	746.83
412.933	778.47
413.31	780.73
413.687	761.07
414.065	793.84
414.442	780.95
414.819	797
415.197	839.48
415.574	814.85
415.951	826.38
416.328	830.22
416.705	798.81
417.082	837.45
417.46	841.29
417.837	855.75
418.214	865.7
418.591	860.27
418.967	875.87
419.344	864.12
419.721	884.68
420.098	899.82
420.475	914.96
420.852	907.28
421.228	898.01
421.605	933.72
421.982	935.3
422.358	933.72
422.735	920.84
423.111	948.86
423.488	966.26
423.864	993.38
424.241	972.14
424.617	980.04
424.994	1001.74
425.37	1003.55
425.746	1006.71
426.123	1025.92
426.499	1032.02
426.875	1057.56
427.251	1041.06
427.627	1066.82
428.003	1089.19
428.379	1070.21
428.756	1112.92
429.132	1119.02
429.507	1123.09
429.883	1153.15
430.259	1128.97
430.635	1152.02
431.011	1173.03
431.387	1205.35
431.763	1178.23
432.138	1227.27
432.514	1223.65
432.89	1230.43
433.265	1271.56
433.641	1266.14
434.016	1273.14
434.392	1314.05
434.767	1322.41
435.143	1345.23
435.518	1351.11
435.894	1355.85
436.269	1375.29
436.644	1362.86
437.02	1384.33
437.395	1408.28
437.77	1425.91
438.145	1467.94
438.52	1445.34
438.895	1439.02
439.271	1476.98
439.646	1480.14
440.021	1498.22
440.395	1508.17
440.77	1475.4
441.145	1512.01
441.52	1500.48
441.895	1527.15
442.27	1570.76
442.645	1540.26
443.019	1551.78
443.394	1581.16
443.769	1612.12
444.143	1586.81
444.518	1601.5
444.892	1579.13
445.267	1600.82
445.641	1623.87
446.016	1629.52
446.39	1621.16
446.764	1643.3
447.139	1668.16
447.513	1679.46
447.887	1681.72
448.262	1669.52
448.636	1686.24
449.01	1719.46
449.384	1728.5
449.758	1744.54
450.132	1780.48
450.506	1737.77
450.88	1794.71
451.254	1804.88
451.628	1815.5
452.002	1846.69
452.376	1844.2
452.75	1864.77
453.123	1877.42
453.497	1902.28
453.871	1903.41
454.244	1962.17
454.618	1954.26
454.992	2018.44
455.365	2022.28
455.739	2053.69
456.112	2069.06
456.486	2055.04
456.859	2100.69
457.232	2134.82
457.606	2184.98
457.979	2175.72
458.352	2173.01
458.725	2246.45
459.099	2264.76
459.472	2301.37
459.845	2315.38
460.218	2335.26
460.591	2354.7
460.964	2380.01
461.337	2402.61
461.71	2451.19
462.083	2482.83
462.456	2507.69
462.829	2489.38
463.201	2518.08
463.574	2497.07
463.947	2588.82
464.32	2627.69
464.692	2631.53
465.065	2653.45
465.438	2697.97
465.81	2724.63
466.183	2752.43
466.555	2805.08
466.928	2792.65
467.3	2794.91
467.672	2864.97
468.045	2926.66
468.417	2907.45
468.789	2898.41
469.161	2945.87
469.534	3000.1
469.906	3077.16
470.278	3114.23
470.65	3135.92
471.022	3172.98
471.394	3201.68
471.766	3277.39
472.138	3305.18
472.51	3372.3
472.882	3390.83
473.253	3427.66
473.625	3442.8
473.997	3532.52
474.369	3545.63
474.74	3608.9
475.112	3682.35
475.484	3677.6
475.855	3789.91
476.227	3812.96
476.598	3865.62
476.97	3933.87
477.341	4031.72
477.713	4070.81
478.084	4109.91
478.455	4218.38
478.827	4293.86
479.198	4355.1
479.569	4371.14
479.94	4498.37
480.311	4511.7
480.682	4620.18
481.053	4723.9
481.424	4812.49
481.795	4779.49
482.166	4894.52
482.537	5016.77
482.908	5086.6
483.279	5194.17
483.65	5213.38
484.021	5367.27
484.391	5395.52
484.762	5476.88
485.133	5535.41
485.503	5614.73
485.874	5762.97
486.244	5832.8
486.615	5954.15
486.985	5957.99
487.356	6156.41
487.726	6174.71
488.097	6322.73
488.467	6350.75
488.837	6454.03
489.207	6502.84
489.578	6697.41
489.948	6786.9
490.318	6868.25
490.688	6922.71
491.058	7084.74
491.428	7152.31
491.798	7156.83
492.168	7403.15
492.538	7471.63
492.908	7523.38
493.278	7662.58
493.648	7729.92
494.017	7834.33
494.387	7934.21
494.757	7969.47
495.126	8135.56
495.496	8146.64
495.866	8293.07
496.235	8373.97
496.605	8460.75
496.974	8531.71
497.344	8626.85
497.713	8683.12
498.082	8806.73
498.452	8849.67
498.821	8927.41
499.19	9024.81
499.559	9079.72
499.928	9164.91
500.298	9248.75
500.667	9368.98
501.036	9422.08
501.405	9455.53
501.774	9576.88
502.143	9635.86
502.512	9699.59
502.88	9809.42
503.249	9860.26
503.618	9946.81
503.987	9966.25
504.356	10029.3
504.724	10115.4
505.093	10233.36
505.462	10232.68
505.83	10383.87
506.199	10497.08
506.567	10630.19
506.936	10671.99
507.304	10751.09
507.672	10799.67
508.041	10855.94
508.409	10928.71
508.777	11093
509.145	11138.65
509.514	11258.19
509.882	11300
510.25	11352.43
510.618	11453.67
510.986	11459.77
511.354	11601.69
511.722	11739.31
512.09	11846.88
512.458	11836.48
512.826	11983.82
513.193	11996.03
513.561	12054.33
513.929	12219.75
514.297	12321.22
514.664	12459.07
515.032	12481.21
515.4	12673.07
515.767	12668.55
516.135	12804.59
516.502	12694.31
516.869	12924.82
517.237	13001.88
517.604	13041.87
517.972	13216.33
518.339	13274.64
518.706	13347.18
519.073	13410.9
519.44	13566.83
519.808	13746.94
520.175	13818.58
520.542	14005.24
520.909	14039.81
521.276	14134.28
521.643	14267.15
522.009	14373.37
522.376	14539.91
522.743	14550.31
523.11	14797.99
523.477	14910.07
523.843	14923.18
524.21	15183.06
524.577	15322.04
524.943	15355.03
525.31	15441.59
525.676	15535.37
526.043	15857.17
526.409	15916.15
526.776	16064.39
527.142	16151.17
527.508	16289.02
527.874	16360.43
528.241	16503.48
528.607	16550.93
528.973	16706.41
529.339	16857.14
529.705	17021.2
530.071	17129.45
530.437	17281.99
530.803	17325.38
531.169	17520.17
531.535	17498.25
531.901	17624.8
532.267	17670
532.632	17850.56
532.998	17907.96
533.364	18004
533.73	18188.86
534.095	18316.31
534.461	18412.13
534.826	18533.03
535.192	18538.45
535.557	18728.96
535.923	18708.17
536.288	18885.56
536.653	18933.92
537.019	18981.38
537.384	19068.61
537.749	19128.27
538.114	19239.23
538.479	19306.12
538.845	19245.1
539.21	19464.08
539.575	19495.26
539.94	19528.71
540.305	19653
540.67	19671.08
541.034	19770.06
541.399	19790.17
541.764	19933.67
542.129	19984.74
542.494	20046.89
542.858	20070.16
543.223	20219.76
543.587	20264.74
543.952	20302.02
544.316	20377.27
544.681	20389.7
545.045	20498.63
545.41	20611.39
545.774	20651.17
546.138	20752.18
546.503	20765.29
546.867	20804.61
547.231	21015.68
547.595	21033.75
547.959	21025.17
548.324	21161.89
548.688	21153.75
549.052	21303.35
549.416	21362.33
549.779	21392.84
550.143	21524.82
550.507	21589.45
550.871	21664.92
551.235	21732.27
551.599	21827.18
551.962	21957.35
552.326	21987.4
552.689	22020.85
553.053	22030.11
553.417	22085.25
553.78	22386.49
554.143	22365.02
554.507	22504.45
554.87	22518.01
555.234	22700.83
555.597	22673.26
555.96	22750.09
556.323	22901.73
556.686	23028.73
557.05	23050.42
557.413	23199.57
557.776	23170.42
558.139	23568.15
558.502	23381.72
558.865	23504.88
559.228	23673.01
559.59	23860.57
559.953	23961.36
560.316	24132.88
560.679	24084.97
561.041	24256.95
561.404	24409.49
561.767	24564.74
562.129	24625.75
562.492	24860.09
562.854	24896.03
563.217	24953.88
563.579	25021.45
563.941	25334.21
564.304	25480.64
564.666	25567.42
565.028	25650.13
565.39	25752.05
565.753	25964.7
566.115	26054.64
566.477	26218.93
566.839	26328.76
567.201	26722.87
567.563	26506.61
567.925	26837.22
568.287	27023.65
568.648	26955.41
569.01	27281.5
569.372	27458.67
569.734	27483.75
570.095	27707.25
570.457	27862.28
570.819	27931.43
571.18	28006
571.542	28222.04
571.903	28212.32
572.265	28458.19
572.626	28684.85
572.987	28722.82
573.349	28901.57
573.71	29199.64
574.071	29270.6
574.432	29323.03
574.794	29621.1
575.155	29658.16
575.516	29740.42
575.877	29853.64
576.238	29906.29
576.599	30057.92
576.96	30280.29
577.32	30390.34
577.681	30380.18
578.042	30588.08
578.403	30680.28
578.763	30791.24
579.124	30986.26
579.485	31163.88
579.845	31387.83
580.206	31394.61
580.566	31469.86
580.927	31563.2
581.287	31863.98
581.648	31849.52
582.008	32010.87
582.368	32086.57
582.728	32223.97
583.089	32389.39
583.449	32432.33
583.809	32552.55
584.169	32744.86
584.529	32713.45
584.889	33190.95
585.249	33009.26
585.609	33087
585.969	33362.7
586.329	33497.61
586.688	33641.33
587.048	33727.43
587.408	33917.71
587.768	33941.66
588.127	34313.86
588.487	34492.61
588.846	34785.03
589.206	34637.92
589.565	34960.85
589.925	35249.88
590.284	35283.32
590.643	35605.58
591.003	35802.18
591.362	36101.61
591.721	36184.32
592.08	36311.09
592.44	36666.56
592.799	36800.12
593.158	37043.5
593.517	37150.85
593.876	37401.01
594.235	37517.84
594.593	37684.16
594.952	38148.56
595.311	38203.47
595.67	38574.08
596.029	38949.67
596.387	39052.94
596.746	39317.34
597.104	39388.3
597.463	39576.77
597.822	40082.75
598.18	39989.41
598.538	40239.13
598.897	40675.95
599.255	40512.56
599.613	41120.91
599.972	41134.24
600.33	41342.6
600.688	41506.44
601.046	41809.71
601.404	42128.79
601.762	42290.15
602.12	42627.76
602.478	42646.97
602.836	42861.2
603.194	42771.26
603.552	43197.92
603.91	43363.11
604.268	43620.28
604.625	43619.83
604.983	44067.73
605.341	43969.42
605.698	44388.17
606.056	44664.55
606.413	44546.81
606.771	44976.18
607.128	45109.05
607.485	45194.7
607.843	45264.76
608.2	45556.5
608.557	45754.69
608.914	45843.05
609.272	46057.73
609.629	46284.84
609.986	46559.19
610.343	46643.02
610.7	46972.51
611.057	46939.06
611.414	46944.26
611.771	47402.33
612.127	47403.23
612.484	47517.58
612.841	47799.38
613.198	47615.65
613.554	47780.4
613.911	48167.5
614.267	48173.83
614.624	48234.17
614.98	48401.62
615.337	48628.06
615.693	48584.67
616.05	48651.79
616.406	49067.59
616.762	48867.15
617.118	49009.74
617.475	49033.7
617.831	49290.19
618.187	49425.1
618.543	49558.2
618.899	49721.36
619.255	49710.06
619.611	49676.84
619.967	49875.71
620.323	50036.38
620.678	49909.38
621.034	49896.95
621.39	49964.07
621.746	50068.47
622.101	50405.41
622.457	50068.7
622.812	50456.48
623.168	50418.07
623.523	50442.7
623.879	50650.15
624.234	50357.73
624.589	50610.15
624.945	50670.26
625.3	50637.27
625.655	50658.96
626.01	50561.34
626.365	50850.37
626.72	50622.36
627.075	50710.26
627.43	50745.97
627.785	50795.23
628.14	50639.53
628.495	50844.5
628.85	50901.67
629.205	50782.35
629.559	51009.24
629.914	50803.14
630.269	50821.45
630.623	50677.72
630.978	50634.11
631.332	50797.49
631.687	50780.32
632.041	50769.92
632.396	50758.17
632.75	50662.81
633.104	50733.31
633.459	50541.91
633.813	50578.97
634.167	50592.75
634.521	50531.06
634.875	50519.08
635.229	50498.97
635.583	50264.62
635.937	50381.23
636.291	50360.67
636.645	50352.76
636.999	50269.37
637.352	50262.82
637.706	50094.46
638.06	50284.96
638.413	50055.82
638.767	50063.73
639.121	50147.34
639.474	50042.03
639.828	49956.84
640.181	49954.8
640.534	49986.89
640.888	49832.77
641.241	49659.44
641.594	49751.19
641.947	49875.71
642.301	49596.85
642.654	49751.19
643.007	49639.1
643.36	49652.21
643.713	49517.75
644.066	49736.05
644.419	49514.59
644.771	49043.87
645.124	48729.75
645.477	48559.81
645.83	48421.51
646.182	48492.69
646.535	48387.84
646.888	48566.14
647.24	48322.53
647.593	48520.94
647.945	48225.58
648.298	48266.71
648.65	48082.08
649.002	47787.85
649.355	47762.09
649.707	47617.24
650.059	47708.76
650.411	48187.62
650.763	48431.9
651.115	48946.69
651.467	48781.73
651.819	48713.93
652.171	48742.86
652.523	48473.03
652.875	48549.42
653.227	48452.24
653.578	48583.99
653.93	48547.61
654.282	48271.46
654.633	48200.72
654.985	48267.39
655.337	48315.3
655.688	48180.61
656.039	48284.56
656.391	48009.09
656.742	48204.11
657.094	48174.28
657.445	48299.93
657.796	48174.06
658.147	48142.65
658.498	48144.45
658.849	48221.97
659.2	48092.48
659.551	47919.6
659.902	48181.29
660.253	47976.55
660.604	48084.57
660.955	47977.91
661.306	48160.27
661.656	47907.4
662.007	47991.46
662.358	47995.98
662.708	47899.72
663.059	47879.38
663.409	47834.86
663.76	47896.55
664.11	47940.17
664.461	48090.9
664.811	47927.74
665.161	47789.66
665.511	47776.55
665.862	47897.91
666.212	47880.28
666.562	47793.96
666.912	47875.31
667.262	47695.2
667.612	47680.51
667.962	47872.82
668.312	47727.06
668.662	47823.78
669.011	47774.29
669.361	47690.91
669.711	47724.8
670.06	47571.81
670.41	47597.35
670.76	47580.18
671.109	47718.7
671.459	47522.32
671.808	47676.22
672.157	47706.05
672.507	47522.78
672.856	47397.13
673.205	47518.03
673.554	47708.53
673.904	47515.77
674.253	47719.15
674.602	47462.21
674.951	47035.33
675.3	46763.47
675.649	47480.07
675.998	47395.1
676.346	47304.48
676.695	47470.8
677.044	47220.86
677.393	47401.2
677.741	47415.66
678.09	47224.48
678.438	47170.24
678.787	47292.27
679.135	47326.17
679.484	46988.78
679.832	47185.61
680.181	47052.73
680.529	47231.03
680.877	46952.4
681.225	46976.35
681.573	47303.35
681.922	47059.51
682.27	46887.76
682.618	46973.19
682.966	46800.76
683.314	46821.55
683.661	46760.76
684.009	46614.78
684.357	46508.79
684.705	46459.53
685.053	46451.62
685.4	46308.34
685.748	46232.41
686.095	46363.48
686.443	46105.41
686.79	45908.36
687.138	46117.84
687.485	46064.28
687.832	45872.2
688.18	45976.6
688.527	45740.22
688.874	45698.19
689.221	45676.04
689.568	45428.37
689.915	45477.18
690.262	45444.41
690.609	45336.39
690.956	45307.47
691.303	45302.72
691.65	44989.74
691.997	44880.13
692.344	44650.31
692.69	44755.84
693.037	44733.02
693.383	44396.76
693.73	44563.76
694.077	44307.95
694.423	44323.31
694.769	44072.7
695.116	44273.14
695.462	43993.38
695.808	43795.64
696.155	43946.82
696.501	43522.43
696.847	43636.32
697.193	43389.55
697.539	43519.27
697.885	43139.84
698.231	43096
698.577	42988.43
698.923	43129.9
699.269	42780.3
699.614	42776.01
699.96	42543.25
700.306	42609.68
700.651	42337.6
700.997	42238.85
701.342	42171.05
701.688	42045.18
702.033	41999.53
702.379	41981
702.724	41626.43
703.069	41738.97
703.415	41372.88
703.76	41417.63
704.105	41445.2
704.45	41266.44
704.795	41152.77
705.14	41025.77
705.485	41040.91
705.83	40791.88
706.175	40873.69
706.52	40760.47
706.865	40727.7
707.209	40508.72
707.554	40482.06
707.899	40366.13
708.243	40280.93
708.588	40239.58
708.932	39940.83
709.277	39930.66
709.621	39882.07
709.966	39560.73
710.31	39811.11
710.654	39395.76
710.998	39529.99
711.342	39563.66
711.687	39337.23
712.031	39332.93
712.375	38979.72
712.719	38957.13
713.063	39028.99
713.407	39087.52
713.75	38883.23
714.094	38823.57
714.438	38705.83
714.782	38602.56
715.125	38540.87
715.469	38660.64
715.812	38229.91
716.156	38133.87
716.499	38114.66
716.843	38299.06
717.186	38042.8
717.53	38171.61
717.873	38151.04
718.216	37924.84
718.559	37920.77
718.902	37666.54
719.246	37789.47
719.589	37600.32
719.932	37475.13
720.275	37516.26
720.617	37478.97
720.96	37351.52
721.303	37440.56
721.646	37419.76
721.989	37273.78
722.331	37289.37
722.674	37121.47
723.016	37187.68
723.359	36962.38
723.701	37144.07
724.044	36992.43
724.386	36749.73
724.729	36851.64
725.071	36723.06
725.413	36792.44
725.755	36724.87
726.097	36527.81
726.439	36427.93
726.782	36203.07
727.124	36574.82
727.465	36405.1
727.807	36310.19
728.149	36156.52
728.491	36037.65
728.833	36214.82
729.175	36175.28
729.516	35994.94
729.858	35944.1
730.199	36095.28
730.541	35910.2
730.882	35723.09
731.224	35899.13
731.565	35790.2
731.906	35646.25
732.248	35754.5
732.589	35726.93
732.93	35529.19
733.271	35552.7
733.612	35434.05
733.953	35631.34
734.294	35356.99
734.635	35149.32
734.976	35406.71
735.317	35204
735.658	35090.33
735.999	35060.28
736.339	35134.85
736.68	35101.18
737.021	35094.85
737.361	34896.22
737.702	35084.23
738.042	34913.62
738.383	35065.7
738.723	34882.2
739.063	34839.49
739.404	35045.36
739.744	34923.79
740.084	34678.37
740.424	34767.86
740.764	34550.69
741.104	34746.16
741.444	34560.86
741.784	34403.12
742.124	34556.34
742.464	34520.63
742.804	34441.31
743.143	34215.33
743.483	34367.64
743.823	34149.57
744.162	34255.33
744.502	34126.74
744.841	34141.88
745.181	34193.18
745.52	34066.86
745.86	34034.77
746.199	34039.74
746.538	33887.88
746.877	34018.95
747.216	34004.49
747.556	33847.43
747.895	33894.21
748.234	33756.13
748.573	33684.04
748.911	33609.47
749.25	33581.22
749.589	33605.85
749.928	33568.79
750.267	33589.81
750.605	33456.48
750.944	33356.59
751.283	33286.09
751.621	33288.35
751.96	33257.39
752.298	33116.83
752.636	33111.18
752.975	33037.51
753.313	32990.28
753.651	32968.81
753.989	32759.77
754.327	32807.68
754.666	32473.23
755.004	32722.04
