Data from 17-1456_FLMS001491_002.txt Node
Date: Thu Apr 19 16:30:30 BST 2018
User: hsy
Spectrometer: FLMS00149
Trigger mode: 0
Integration Time (sec): 1.000000E-2
Scans to average: 10
Electric dark correction enabled: true
Nonlinearity correction enabled: false
Boxcar width: 0
XAxis mode: Wavelengths
Number of Pixels in Spectrum: 2048
>>>>>Begin Spectral Data<<<<<
341.393	-18.84
341.776	-18.84
342.16	-18.84
342.543	-56.58
342.927	-71.27
343.31	-85.96
343.693	-67.88
344.077	-44.83
344.46	-67.88
344.843	-65.17
345.226	-41.44
345.61	-32.85
345.993	-5.73
346.376	1.05
346.759	12.34
347.142	31.55
347.525	36.07
347.908	43.53
348.291	83.53
348.674	98.9
349.057	104.77
349.44	126.92
349.823	156.75
350.206	166.92
350.588	231.55
350.971	253.24
351.354	266.57
351.737	281.49
352.119	295.05
352.502	314.71
352.884	310.42
353.267	327.14
353.65	344.54
354.032	339.57
354.414	345.44
354.797	346.12
355.179	356.06
355.562	364.43
355.944	359.91
356.326	379.11
356.709	387.25
357.091	379.57
357.473	395.61
357.855	366.91
358.238	380.47
358.62	404.2
359.002	370.3
359.384	376.18
359.766	374.82
360.148	413.69
360.53	396.51
360.912	389.28
361.294	393.58
361.676	374.59
362.057	374.59
362.439	381.6
362.821	367.14
363.203	365.78
363.584	387.93
363.966	393.58
364.348	364.88
364.729	389.51
365.111	383.41
365.493	367.14
365.874	386.57
366.256	377.76
366.637	370.08
367.019	371.43
367.4	371.2
367.781	363.97
368.163	395.39
368.544	370.98
368.925	382.28
369.306	399
369.688	376.63
370.069	382.05
370.45	371.66
370.831	375.72
371.212	372.56
371.593	379.79
371.974	399.9
372.355	379.79
372.736	398.55
373.117	397.87
373.498	377.98
373.879	371.88
374.26	372.56
374.641	386.57
375.021	378.44
375.402	404.65
375.783	403.75
376.163	413.24
376.544	412.56
376.925	402.39
377.305	404.65
377.686	403.07
378.066	416.4
378.447	420.47
378.827	410.98
379.208	409.4
379.588	400.36
379.968	410.75
380.349	410.53
380.729	408.49
381.109	414.14
381.489	416.4
381.87	424.31
382.25	418.44
382.63	400.81
383.01	432.9
383.39	446.23
383.77	421.6
384.15	441.49
384.53	429.73
384.91	439
385.29	441.49
385.67	449.17
386.049	455.95
386.429	447.81
386.809	464.08
387.189	462.95
387.568	462.5
387.948	471.09
388.328	471.54
388.707	494.59
389.087	479.45
389.466	453.46
389.846	479
390.225	478.09
390.605	518.09
390.984	514.03
391.363	482.16
391.743	500.47
392.122	494.82
392.501	520.13
392.881	524.87
393.26	478.32
393.639	506.57
394.018	525.55
394.397	516.29
394.776	512.44
395.155	525.55
395.534	513.57
395.913	536.17
396.292	527.13
396.671	530.07
397.05	529.62
397.429	531.2
397.808	530.07
398.186	538.88
398.565	548.15
398.944	556.28
399.323	558.77
399.701	570.75
400.08	568.94
400.458	571.43
400.837	560.8
401.215	590.63
401.594	605.78
401.972	602.39
402.351	594.93
402.729	585.66
403.107	603.74
403.486	604.19
403.864	601.03
404.242	606.68
404.62	627.47
404.999	616.17
405.377	632.44
405.755	645.77
406.133	636.28
406.511	627.92
406.889	633.8
407.267	683.29
407.645	648.94
408.023	659.78
408.401	708.6
408.779	679.22
409.156	685.55
409.534	712.21
409.912	693.68
410.29	711.31
410.667	730.97
411.045	719.67
411.422	737.97
411.8	735.04
412.178	733
412.555	749.95
412.933	750.4
413.31	749.95
413.687	761.03
414.065	765.77
414.442	769.84
414.819	779.56
415.197	793.79
415.574	792.21
415.951	811.87
416.328	790.63
416.705	838.31
417.082	815.26
417.46	836.5
417.837	880.34
418.214	872.66
418.591	874.92
418.967	861.59
419.344	902.72
419.721	883.06
420.098	881.7
420.475	872.89
420.852	907.24
421.228	903.85
421.605	921.25
421.982	923.51
422.358	923.73
422.735	928.25
423.111	950.4
423.488	946.33
423.864	963.73
424.241	968.25
424.617	983.39
424.994	970.74
425.37	985.43
425.746	986.33
426.123	1018.19
426.499	1015.48
426.875	1013.22
427.251	1028.36
427.627	1050.96
428.003	1048.02
428.379	1081.24
428.756	1066.1
429.132	1091.64
429.507	1114.01
429.883	1120.34
430.259	1137.51
430.635	1142.94
431.011	1164.86
431.387	1161.69
431.763	1187.23
432.138	1196.04
432.514	1178.87
432.89	1206.21
433.265	1221.35
433.641	1232.43
434.016	1248.47
434.392	1276.27
434.767	1287.79
435.143	1261.58
435.518	1318.98
435.894	1342.48
436.269	1330.95
436.644	1340.44
437.02	1357.85
437.395	1362.82
437.77	1379.99
438.145	1408.24
438.52	1393.1
438.895	1420.89
439.271	1399.88
439.646	1424.28
440.021	1441.69
440.395	1449.82
440.77	1445.75
441.145	1446.2
441.52	1500.89
441.895	1497.05
442.27	1514.68
442.645	1490.72
443.019	1519.65
443.394	1495.02
443.769	1558.52
444.143	1544.28
444.518	1578.86
444.892	1553.09
445.267	1541.12
445.641	1568.46
446.016	1576.14
446.39	1602.81
446.764	1612.08
447.139	1614.56
447.513	1602.81
447.887	1594.9
448.262	1625.64
448.636	1620.89
449.01	1681.9
449.384	1703.83
449.758	1694.79
450.132	1707.21
450.506	1712.19
450.88	1744.28
451.254	1733.65
451.628	1756.48
452.002	1786.99
452.376	1783.15
452.75	1789.47
453.123	1823.6
453.497	1791.96
453.871	1863.82
454.244	1891.84
454.618	1891.62
454.992	1923.25
455.365	1938.85
455.739	1985.85
456.112	1977.72
456.486	1968.9
456.859	2027.43
457.232	2066.53
457.606	2056.81
457.979	2101.33
458.352	2090.26
458.725	2160.99
459.099	2176.81
459.472	2184.04
459.845	2228.56
460.218	2223.81
460.591	2255.9
460.964	2268.78
461.337	2322.11
461.71	2337.25
462.083	2385.62
462.456	2372.73
462.829	2386.52
463.201	2431.26
463.574	2433.3
463.947	2445.27
464.32	2494.54
464.692	2502.67
465.065	2531.37
465.438	2590.36
465.81	2584.93
466.183	2608.89
466.555	2680.75
466.928	2655.89
467.3	2669.22
467.672	2704.25
468.045	2768.43
468.417	2807.53
468.789	2798.94
469.161	2829.67
469.534	2871.03
469.906	2926.84
470.278	2929.78
470.65	2953.06
471.022	2981.08
471.394	3035.77
471.766	3080.51
472.138	3113.96
472.51	3186.27
472.882	3216.33
473.253	3238.02
473.625	3310.56
473.997	3327.29
474.369	3388.98
474.74	3408.64
475.112	3468.75
475.484	3504.68
475.855	3528.41
476.227	3627.39
476.598	3696.09
476.97	3703.09
477.341	3773.15
477.713	3860.38
478.084	3871.9
478.455	3974.73
478.827	3998.68
479.198	4107.83
479.569	4135.17
479.94	4246.58
480.311	4258.33
480.682	4364.55
481.053	4441.61
481.424	4531.55
481.795	4562.06
482.166	4636.4
482.537	4719.79
482.908	4818.32
483.279	4880.24
483.65	4985.55
484.021	5051.99
484.391	5110.29
484.762	5135.83
485.133	5214.02
485.503	5309.38
485.874	5406.1
486.244	5492.88
486.615	5636.38
486.985	5683.38
487.356	5806.32
487.726	5868.24
488.097	5996.82
488.467	6011.96
488.837	6172.18
489.207	6206.53
489.578	6348.9
489.948	6396.58
490.318	6566.07
490.688	6555.45
491.058	6722
491.428	6778.27
491.798	6877.02
492.168	7007.19
492.538	7061.88
492.908	7158.37
493.278	7222.1
493.648	7350
494.017	7427.06
494.387	7550.45
494.757	7619.38
495.126	7684.91
495.496	7771.69
495.866	7886.71
496.235	7990.44
496.605	8080.15
496.974	8114.73
497.344	8245.12
497.713	8324.89
498.082	8377.77
498.452	8474.49
498.821	8581.38
499.19	8636.07
499.559	8705
499.928	8770.08
500.298	8898.21
500.667	9009.17
501.036	9056.63
501.405	9091.43
501.774	9137.98
502.143	9264.08
502.512	9317.86
502.88	9403.06
503.249	9397.86
503.618	9538.87
503.987	9586.33
504.356	9761.47
504.724	9714.24
505.093	9795.14
505.462	9923.04
505.83	9932.54
506.199	10077.39
506.567	10144.96
506.936	10238.52
507.304	10318.51
507.672	10437.15
508.041	10494.78
508.409	10536.59
508.777	10647.77
509.145	10766.19
509.514	10803.92
509.882	10853.87
510.25	10839.4
510.618	10951.49
510.986	11055.67
511.354	11148.1
511.722	11166.63
512.09	11320.97
512.458	11316.91
512.826	11474.87
513.193	11542.66
513.561	11499.95
513.929	11647.52
514.297	11756.22
514.664	11803.9
515.032	11858.13
515.4	12002.99
515.767	12044.57
516.135	12152.82
516.502	12103.78
516.869	12347.16
517.237	12395.75
517.604	12380.38
517.972	12500.83
518.339	12631.45
518.706	12737.89
519.073	12756.42
519.44	12738.11
519.808	13034.6
520.175	13075.28
520.542	13175.84
520.909	13264.65
521.276	13313.69
521.643	13502.39
522.009	13489.28
522.376	13694.24
522.743	13738.99
523.11	13922.26
523.477	14027.57
523.843	14078.42
524.21	14330.84
524.577	14393.66
524.943	14467.56
525.31	14576.93
525.676	14794.55
526.043	14842.46
526.409	15033.42
526.776	15099.63
527.142	15089.01
527.508	15290.36
527.874	15423.92
528.241	15569
528.607	15620.52
528.973	15836.79
529.339	15762.44
529.705	16035.43
530.071	16213.73
530.437	16292.82
530.803	16395.64
531.169	16567.62
531.535	16499.14
531.901	16585.69
532.267	16731.68
532.632	16844.67
532.998	16904.33
533.364	17050.09
533.73	16988.85
534.095	17275.17
534.461	17296.64
534.826	17379.35
535.192	17435.61
535.557	17643.97
535.923	17727.58
536.288	17787.92
536.653	17787.7
537.019	17873.12
537.384	18060.46
537.749	17966.45
538.114	18068.14
538.479	18127.57
538.845	18236.72
539.21	18257.97
539.575	18348.59
539.94	18471.07
540.305	18577.05
540.67	18500.9
541.034	18624.96
541.399	18617.96
541.764	18798.97
542.129	18882.36
542.494	18829.48
542.858	19030.38
543.223	19010.49
543.587	19157.6
543.952	19131.39
544.316	19167.09
544.681	19223.82
545.045	19284.83
545.41	19429.46
545.774	19321.67
546.138	19473.08
546.503	19609.57
546.867	19664.93
547.231	19798.72
547.595	19798.26
547.959	19917.81
548.324	19982.21
548.688	20011.14
549.052	19963.46
549.416	20005.49
549.779	20106.73
550.143	20164.58
550.507	20260.17
550.871	20301.3
551.235	20321.41
551.599	20519.15
551.962	20532.03
552.326	20605.25
552.689	20686.6
553.053	20639.6
553.417	20762.53
553.78	21062.19
554.143	21002.07
554.507	21004.33
554.87	21194.16
555.234	21364.55
555.597	21271.45
555.96	21293.14
556.323	21354.83
556.686	21433.48
557.05	21665.79
557.413	21669.18
557.776	21642.51
558.139	21883.18
558.502	21949.85
558.865	21977.87
559.228	22210.4
559.59	22202.27
559.953	22236.39
560.316	22475.26
560.679	22560.45
561.041	22779.43
561.404	22774.46
561.767	22944.4
562.129	22935.81
562.492	23129.7
562.854	23153.66
563.217	23311.39
563.579	23249.02
563.941	23502.57
564.304	23633.87
564.666	23746.41
565.028	23819.63
565.39	23885.16
565.753	24158.6
566.115	24199.5
566.477	24361.31
566.839	24575.54
567.201	24780.73
567.563	24768.3
567.925	24907.28
568.287	25055.53
568.648	25098.69
569.01	25290.32
569.372	25463.65
569.734	25467.04
570.095	25726.24
570.457	26020.47
570.819	26024.99
571.18	26061.6
571.542	26328.26
571.903	26327.81
572.265	26610.06
572.626	26737.52
572.987	26759.21
573.349	26943.39
573.71	27172.53
574.071	27188.13
574.432	27509.93
574.794	27645.97
575.155	27736.59
575.516	27743.14
575.877	27912.85
576.238	28141.55
576.599	28247.76
576.96	28375.89
577.32	28474.19
577.681	28634.64
578.042	28845.94
578.403	28942.43
578.763	29099.94
579.124	29240.28
579.485	29517.33
579.845	29522.75
580.206	29723.2
580.566	29819.02
580.927	30045.9
581.287	30120.03
581.648	30205.9
582.008	30644.53
582.368	30715.72
582.728	30913.68
583.089	31047.01
583.449	31213.11
583.809	31463.72
584.169	31826.42
584.529	31798.18
584.889	32471.15
585.249	32299.63
585.609	32474.54
585.969	33104.13
586.329	32950.91
586.688	33480.39
587.048	33765.13
587.408	34019.81
587.768	34300.71
588.127	34714.71
588.487	35058.65
588.846	35656.6
589.206	35539.32
589.565	35956.03
589.925	36626.07
590.284	36937.7
590.643	37235.09
591.003	37825.59
591.362	38246.37
591.721	38618.11
592.08	39069.4
592.44	39638.87
592.799	39854.23
593.158	40152.08
593.517	40653.08
593.876	41232.96
594.235	41526.06
594.593	41968.3
594.952	42540.04
595.311	42910.88
595.67	43518.32
596.029	44097.74
596.387	44562.13
596.746	45120.99
597.104	45117.6
597.463	45527.53
597.822	46293.84
598.18	46475.08
598.538	47054.95
598.897	47677.31
599.255	47767.92
599.613	48496.72
599.972	48622.37
600.33	49105.52
600.688	49442.68
601.046	49960.86
601.404	50386.39
601.762	50599.49
602.12	51059.36
602.478	51312.01
602.836	51720.14
603.194	51801.04
603.552	52057.08
603.91	52334.58
604.268	52677.63
604.625	53015.92
604.983	53314.9
605.341	53447.1
605.698	53825.39
606.056	54147.87
606.413	54350.35
606.771	54665.6
607.128	54910.34
607.485	54996.89
607.843	55216.54
608.2	55570.66
608.557	55857.88
608.914	55962.51
609.272	56264.65
609.629	56513.01
609.986	56738.99
610.343	56799.78
610.7	57170.62
611.057	57268.92
611.414	57298.07
611.771	57667.78
612.127	57824.16
612.484	57937.6
612.841	58166.52
613.198	58202
613.554	58289
613.911	58547.53
614.267	58708.65
614.624	58864.36
614.98	59097.57
615.337	59297.11
615.693	59297.34
616.05	59421.63
616.406	59634.05
616.762	59665.01
617.118	59776.2
617.475	59847.61
617.831	60001.95
618.187	60189.52
618.543	60245.11
618.899	60386.8
619.255	60443.3
619.611	60537.98
619.967	60730.75
620.323	60838.09
620.678	60788.15
621.034	60819.11
621.39	60945.88
621.746	60915.83
622.101	61258.87
622.457	61074.92
622.812	61269.72
623.168	61352.88
623.523	61396.27
623.879	61517.39
624.234	61406.89
624.589	61598.52
624.945	61609.37
625.3	61730.04
625.655	61764.84
626.01	61794.22
626.365	61869.7
626.72	61839.87
627.075	61881.9
627.43	61882.13
627.785	61964.39
628.14	61969.13
628.495	62027.89
628.85	62090.26
629.205	62050.49
629.559	62161.22
629.914	62113.99
630.269	62120.99
630.623	62041.22
630.978	62043.48
631.332	62195.34
631.687	62238.73
632.041	62202.35
632.396	62179.75
632.75	62098.85
633.104	62238.28
633.459	62039.41
633.813	62179.98
634.167	62095.91
634.521	62171.39
634.875	62149.24
635.229	62125.06
635.583	62054.1
635.937	62044.84
636.291	62054.55
636.645	62035.57
636.999	61923.26
637.352	62108.56
637.706	61890.04
638.06	61983.37
638.413	61943.37
638.767	61907.44
639.121	61922.58
639.474	61889.81
639.828	61903.6
640.181	61901.34
640.534	61888.68
640.888	61787.9
641.241	61705.19
641.594	61776.6
641.947	61866.76
642.301	61763.71
642.654	61794.45
643.007	61729.14
643.36	61746.77
643.713	61695.47
644.066	61826.09
644.419	61638.97
644.771	61410.28
645.124	61211.19
645.477	61180.68
645.83	61036.5
646.182	61054.36
646.535	61032.21
646.888	61078.76
647.24	60974.36
647.593	61128.93
647.945	61003.96
648.298	60908.82
648.65	60799.67
649.002	60725.1
649.355	60707.92
649.707	60676.51
650.059	60671.54
650.411	60945.43
650.763	61070.63
651.115	61395.59
651.467	61273.78
651.819	61298.42
652.171	61224.29
652.523	61082.15
652.875	61152.88
653.227	61117.4
653.578	61280.11
653.93	61160.34
654.282	61049.38
654.633	61032.66
654.985	61065.43
655.337	61085.77
655.688	61063.85
656.039	61180.68
656.391	60886.22
656.742	60967.8
657.094	60973.91
657.445	61029.5
657.796	60991.08
658.147	60918.77
658.498	61017.52
658.849	61008.48
659.2	60921.48
659.551	60875.15
659.902	61017.07
660.253	60848.94
660.604	60919.44
660.955	60836.51
661.306	60904.53
661.656	60814.36
662.007	60861.82
662.358	60861.82
662.708	60862.95
663.059	60818.43
663.409	60686.68
663.76	60814.59
664.11	60785.89
664.461	60773.68
664.811	60812.1
665.161	60800.58
665.511	60690.07
665.862	60814.59
666.212	60761.93
666.562	60747.92
666.912	60730.97
667.262	60588.15
667.612	60684.42
667.962	60747.47
668.312	60630.19
668.662	60761.03
669.011	60770.75
669.361	60647.59
669.711	60709.28
670.06	60708.15
670.41	60697.3
670.76	60605.78
671.109	60650.75
671.459	60650.52
671.808	60612.56
672.157	60654.82
672.507	60544.54
672.856	60503.41
673.205	60575.5
673.554	60616.85
673.904	60509.74
674.253	60661.82
674.602	60501.83
674.951	60231.33
675.3	60061.39
675.649	60546.8
675.998	60528.04
676.346	60520.13
676.695	60605.55
677.044	60390.42
677.393	60434.26
677.741	60570.75
678.09	60506.8
678.438	60399.68
678.787	60439.91
679.135	60413.02
679.484	60290.76
679.832	60379.8
680.181	60290.53
680.529	60321.27
680.877	60217.31
681.225	60268.61
681.573	60427.25
681.922	60280.82
682.27	60212.34
682.618	60225.68
682.966	60114.27
683.314	60156.75
683.661	60140.03
684.009	60015.51
684.357	59968.51
684.705	59938.45
685.053	59986.59
685.4	59828.85
685.748	59824.56
686.095	59848.06
686.443	59737.78
686.79	59748.63
687.138	59801.28
687.485	59744.79
687.832	59683.32
688.18	59627.5
688.527	59516.77
688.874	59543.43
689.221	59590.89
689.568	59407.84
689.915	59362.2
690.262	59432.48
690.609	59389.31
690.956	59265.25
691.303	59265.02
691.65	59157.91
691.997	59165.14
692.344	59076.78
692.69	59013.96
693.037	59005.37
693.383	58858.48
693.73	58912.49
694.077	58770.57
694.423	58818.26
694.769	58726.28
695.116	58688.32
695.462	58605.61
695.808	58572.61
696.155	58649.45
696.501	58367.87
696.847	58485.16
697.193	58253.75
697.539	58317.48
697.885	58163.13
698.231	58078.39
698.577	58052.4
698.923	58013.08
699.269	57912.52
699.614	57803.82
699.96	57729.7
700.306	57774.44
700.651	57591.85
700.997	57580.77
701.342	57524.96
701.688	57537.16
702.033	57362.02
702.379	57430.72
702.724	57298.75
703.069	57298.97
703.415	57034.35
703.76	57034.8
704.105	57048.81
704.45	56949.15
704.795	56888.14
705.14	56781.02
705.485	56826.22
705.83	56640.23
706.175	56826.22
706.52	56706.22
706.865	56518.66
707.209	56433.23
707.554	56496.06
707.899	56434.36
708.243	56355.5
708.588	56274.37
708.932	56112.34
709.277	56165.67
709.621	56063.98
709.966	55890.2
710.31	55965.68
710.654	55843.19
710.998	55817.2
711.342	55844.77
711.687	55734.72
712.031	55558
712.375	55446.82
712.719	55473.94
713.063	55506.7
713.407	55580.6
713.75	55391
714.094	55380.83
714.438	55231.46
714.782	55282.76
715.125	55104.46
715.469	55205.92
715.812	54988.75
716.156	54902.65
716.499	54896.78
716.843	54955.76
717.186	54759.83
717.53	54965.48
717.873	54795.08
718.216	54725.03
718.559	54689.32
718.902	54421.76
719.246	54486.17
719.589	54439.39
719.932	54338.6
720.275	54328.88
720.617	54302.89
720.96	54238.04
721.303	54316.45
721.646	54273.52
721.989	54003.24
722.331	54127.98
722.674	54014.09
723.016	54074.65
723.359	53955.33
723.701	54031.26
724.044	53836.24
724.386	53749.01
724.729	53832.17
725.071	53824.94
725.413	53710.82
725.755	53683.93
726.097	53584.04
726.439	53453.88
726.782	53465.85
727.124	53546.53
727.465	53423.6
727.807	53384.27
728.149	53394.22
728.491	53198.74
728.833	53352.86
729.175	53280.32
729.516	53106.09
729.858	53076.94
730.199	53208.01
730.541	53118.07
730.882	53015.02
731.224	52998.3
731.565	52962.36
731.906	52971.4
732.248	53009.37
732.589	52713.11
732.93	52748.58
733.271	52737.06
733.612	52681.02
733.953	52758.98
734.294	52670.85
734.635	52541.81
734.976	52675.59
735.317	52511.3
735.658	52573.9
735.999	52410.06
736.339	52437.63
736.68	52439.21
737.021	52444.19
737.361	52265.43
737.702	52434.69
738.042	52290.29
738.383	52293.68
738.723	52357.41
739.063	52195.38
739.404	52280.8
739.744	52121.71
740.084	52014.14
740.424	52090.75
740.764	52014.59
741.104	52177.07
741.444	51941.15
741.784	51876.74
742.124	51957.42
742.464	51832.9
742.804	51702.06
743.143	51653.25
743.483	51666.58
743.823	51559.69
744.162	51582.74
744.502	51711.78
744.841	51396.98
745.181	51615.73
745.52	51315.4
745.86	51514.27
746.199	51318.79
746.538	51312.46
746.877	51432.91
747.216	51194.28
747.556	51314.27
747.895	51314.95
748.234	51141.62
748.573	51082.19
748.911	51047.61
749.25	51000.61
749.589	50835.64
749.928	50897.33
750.267	50833.61
750.605	50735.3
750.944	50647.62
751.283	50497.57
751.621	50612.37
751.96	50395.43
752.298	50372.83
752.636	50368.31
752.975	50347.97
753.313	50227.07
753.651	50349.33
753.989	50187.3
754.327	50178.48
754.666	49815.33
755.004	50039.28
755.342	49940.75
