Data from 17-1436_FLMS001491_008.txt Node
Date: Thu Apr 19 16:29:12 BST 2018
User: hsy
Spectrometer: FLMS00149
Trigger mode: 0
Integration Time (sec): 1.000000E-2
Scans to average: 10
Electric dark correction enabled: true
Nonlinearity correction enabled: false
Boxcar width: 0
XAxis mode: Wavelengths
Number of Pixels in Spectrum: 2048
>>>>>Begin Spectral Data<<<<<
341.393	2.33
341.776	2.33
342.16	2.33
342.543	-65.01
342.927	-71.57
343.31	-72.24
343.693	-62.98
344.077	-75.63
344.46	-68.4
344.843	-57.55
345.226	-48.29
345.61	-29.31
345.993	-4.45
346.376	-3.55
346.759	0.75
347.142	20.64
347.525	38.94
347.908	61.31
348.291	99.73
348.674	79.39
349.057	121.65
349.44	114.87
349.823	138.6
350.206	173.4
350.588	224.7
350.971	228.31
351.354	244.36
351.737	266.05
352.119	274.19
352.502	307.86
352.884	312.6
353.267	306.05
353.65	341.08
354.032	313.96
354.414	345.15
354.797	339.5
355.179	342.43
355.562	374.52
355.944	360.29
356.326	346.28
356.709	341.3
357.091	365.03
357.473	385.37
357.855	394.86
358.238	368.42
358.62	399.83
359.002	369.33
359.384	356.45
359.766	367.97
360.148	361.87
360.53	379.5
360.912	355.54
361.294	361.19
361.676	347.86
362.057	353.73
362.439	359.84
362.821	363.22
363.203	377.24
363.584	363.45
363.966	347.63
364.348	362.55
364.729	345.15
365.111	350.12
365.493	359.16
365.874	374.52
366.256	339.72
366.637	369.1
367.019	366.61
367.4	367.29
367.781	354.64
368.163	364.58
368.544	374.07
368.925	355.77
369.306	360.51
369.688	362.32
370.069	366.16
370.45	380.63
370.831	364.81
371.212	359.38
371.593	376.11
371.974	364.35
372.355	379.95
372.736	375.43
373.117	362.77
373.498	379.04
373.879	377.24
374.26	387.86
374.641	352.6
375.021	358.03
375.402	364.13
375.783	381.98
376.163	394.64
376.544	375.43
376.925	362.09
377.305	384.92
377.686	398.25
378.066	380.63
378.447	377.01
378.827	384.92
379.208	389.44
379.588	394.64
379.968	410.46
380.349	402.77
380.729	405.71
381.109	407.52
381.489	444.13
381.87	413.62
382.25	388.31
382.63	422.88
383.01	408.87
383.39	412.94
383.77	436.9
384.15	430.34
384.53	414.52
384.91	433.51
385.29	432.6
385.67	438.25
386.049	419.27
386.429	434.86
386.809	448.65
387.189	448.19
387.568	450
387.948	467.85
388.328	453.17
388.707	433.73
389.087	453.62
389.466	452.71
389.846	468.53
390.225	475.31
390.605	484.35
390.984	485.03
391.363	507.85
391.743	472.6
392.122	489.1
392.501	470.34
392.881	502.88
393.26	499.27
393.639	527.06
394.018	509.21
394.397	486.16
394.776	523.45
395.155	503.56
395.534	515.31
395.913	496.55
396.292	526.84
396.671	507.63
397.05	514.41
397.429	525.03
397.808	547.4
398.186	537.46
398.565	555.54
398.944	513.5
399.323	538.14
399.701	545.14
400.08	562.77
400.458	563.22
400.837	560.96
401.215	565.03
401.594	563.45
401.972	568.42
402.351	593.95
402.729	577.68
403.107	578.59
403.486	586.95
403.864	586.04
404.242	596.89
404.62	600.51
404.999	584.46
405.377	579.72
405.755	598.47
406.133	654.06
406.511	622.43
406.889	645.25
407.267	628.3
407.645	642.54
408.023	647.74
408.401	665.36
408.779	645.25
409.156	659.04
409.534	672.14
409.912	679.6
410.29	704.91
410.667	705.59
411.045	710.79
411.422	686.38
411.8	735.19
412.178	720.73
412.555	747.85
412.933	758.92
413.31	756.43
413.687	761.18
414.065	758.24
414.442	771.12
414.819	780.84
415.197	765.93
415.574	813.16
415.951	786.72
416.328	802.08
416.705	795.98
417.082	838.92
417.46	809.99
417.837	842.53
418.214	849.31
418.591	878.01
418.967	842.53
419.344	864.68
419.721	860.61
420.098	878.92
420.475	895.41
420.852	885.47
421.228	882.99
421.605	906.26
421.982	905.13
422.358	908.75
422.735	936.77
423.111	934.51
423.488	943.32
423.864	937
424.241	933.83
424.617	955.53
424.994	966.82
425.37	990.1
425.746	981.97
426.123	992.59
426.499	999.82
426.875	995.98
427.251	1043.21
427.627	1025.58
428.003	1021.74
428.379	1053.38
428.756	1073.94
429.132	1078.01
429.507	1080.72
429.883	1098.8
430.259	1110.78
430.635	1139.48
431.011	1123.88
431.387	1146.71
431.763	1156.88
432.138	1186.71
432.514	1181.28
432.89	1199.59
433.265	1220.83
433.641	1229.64
434.016	1256.76
434.392	1272.81
434.767	1287.49
435.143	1242.52
435.518	1285.01
435.894	1331.11
436.269	1345.12
436.644	1359.81
437.02	1354.16
437.395	1346.7
437.77	1366.59
438.145	1394.84
438.52	1404.55
438.895	1412.46
439.271	1405.46
439.646	1424.44
440.021	1432.58
440.395	1478.9
440.77	1448.39
441.145	1460.15
441.52	1485.46
441.895	1499.69
442.27	1484.1
442.645	1480.26
443.019	1524.55
443.394	1518.45
443.769	1509.18
444.143	1511.22
444.518	1522.29
444.892	1536.08
445.267	1542.63
445.641	1566.36
446.016	1590.99
446.39	1590.99
446.764	1597.77
447.139	1628.28
447.513	1597.99
447.887	1587.37
448.262	1612.46
448.636	1625.56
449.01	1684.55
449.384	1688.16
449.758	1688.39
450.132	1696.52
450.506	1736.52
450.88	1721.83
451.254	1713.92
451.628	1730.65
452.002	1759.57
452.376	1758.89
452.75	1796.41
453.123	1780.59
453.497	1840.7
453.871	1846.12
454.244	1893.13
454.618	1907.37
454.992	1927.93
455.365	1945.1
455.739	1982.62
456.112	1990.53
456.486	1978.32
456.859	1995.5
457.232	2070.07
457.606	2068.04
457.979	2042.5
458.352	2117.76
458.725	2140.13
459.099	2189.39
459.472	2178.32
459.845	2228.71
460.218	2230.75
460.591	2275.04
460.964	2247.47
461.337	2329.73
461.71	2344.87
462.083	2393.68
462.456	2384.19
462.829	2408.82
463.201	2437.07
463.574	2428.03
463.947	2468.03
464.32	2510.51
464.692	2493.34
465.065	2570.17
465.438	2615.14
465.81	2604.52
466.183	2622.83
466.555	2682.26
466.928	2666.89
467.3	2697.4
467.672	2720.9
468.045	2812.2
468.417	2774.46
468.789	2816.72
469.161	2841.8
469.534	2939.2
469.906	2942.59
470.278	2952.54
470.65	3024.4
471.022	3035.7
471.394	3081.12
471.766	3105.98
472.138	3149.82
472.51	3207.9
472.882	3237.73
473.253	3262.36
473.625	3354.78
473.997	3403.82
474.369	3412.18
474.74	3422.13
475.112	3488.34
475.484	3551.16
475.855	3607.43
476.227	3617.83
476.598	3757.49
476.97	3784.38
477.341	3842
477.713	3888.1
478.084	3987.99
478.455	4061.88
478.827	4079.74
479.198	4181.2
479.569	4192.28
479.94	4323.35
480.311	4350.46
480.682	4444.93
481.053	4564.24
481.424	4593.4
481.795	4588.42
482.166	4758.14
482.537	4796.1
482.908	4898.47
483.279	4915.65
483.65	5076.32
484.021	5134.4
484.391	5183.44
484.762	5267.5
485.133	5295.98
485.503	5364.9
485.874	5547.5
486.244	5560.83
486.615	5705.01
486.985	5783.42
487.356	5809.86
487.726	5970.76
488.097	6060.93
488.467	6118.1
488.837	6272.9
489.207	6343.41
489.578	6421.37
489.948	6542.05
490.318	6653.45
490.688	6604.42
491.058	6814.35
491.428	6859.33
491.798	7005.99
492.168	7142.93
492.538	7152.65
492.908	7307.45
493.278	7403.04
493.648	7438.75
494.017	7484.85
494.387	7678.51
494.757	7691.85
495.126	7763.03
495.496	7852.97
495.866	7947.88
496.235	8078.05
496.605	8159.86
496.974	8264.49
497.344	8310.81
497.713	8383.13
498.082	8506.29
498.452	8575.66
498.821	8646.17
499.19	8645.04
499.559	8734.53
499.928	8930.23
500.298	8953.51
500.667	9086.39
501.036	9129.77
501.405	9192.37
501.774	9207.96
502.143	9388.52
502.512	9357.34
502.88	9505.36
503.249	9584.23
503.618	9631.46
503.987	9685.01
504.356	9778.34
504.724	9914.84
505.093	9937.21
505.462	9962.75
505.83	10053.59
506.199	10190.09
506.567	10294.49
506.936	10341.49
507.304	10436.41
507.672	10472.79
508.041	10578.1
508.409	10599.34
508.777	10759.79
509.145	10856.06
509.514	10899.45
509.882	10992.32
510.25	10994.81
510.618	11172.66
510.986	11146.44
511.354	11305.08
511.722	11472.54
512.09	11512.76
512.458	11540.33
512.826	11646.77
513.193	11625.08
513.561	11820.32
513.929	11833.43
514.297	12027.1
514.664	12100.09
515.032	12118.62
515.4	12228.9
515.767	12361.55
516.135	12409.01
516.502	12349.35
516.869	12672.28
517.237	12697.59
517.604	12649.23
517.972	12851.94
518.339	12921.31
518.706	12984.81
519.073	13041.99
519.44	13131.7
519.808	13333.28
520.175	13406.05
520.542	13533.5
520.909	13620.28
521.276	13633.38
521.643	13911.34
522.009	13948.18
522.376	14060.04
522.743	14094.16
523.11	14342.74
523.477	14541.38
523.843	14519.69
524.21	14740.7
524.577	14914.25
524.943	14964.42
525.31	14996.06
525.676	15256.84
526.043	15259.1
526.409	15487.12
526.776	15612.54
527.142	15724.18
527.508	15801.01
527.874	15938.18
528.241	16100.21
528.607	16130.27
528.973	16376.14
529.339	16252.3
529.705	16560.54
530.071	16622.23
530.437	16733.19
530.803	16967.99
531.169	17055.89
531.535	17043.69
531.901	17233.74
532.267	17283.01
532.632	17464.47
532.998	17493.85
533.364	17600.51
533.73	17733.39
534.095	17904.68
534.461	17965.47
534.826	18035.75
535.192	18129.31
535.557	18266.93
535.923	18213.6
536.288	18396.42
536.653	18470.32
537.019	18555.97
537.384	18604.55
537.749	18652.24
538.114	18828.73
538.479	18800.03
538.845	18895.17
539.21	18928.61
539.575	18949.63
539.94	19013.81
540.305	19250.86
540.67	19201.83
541.034	19258.55
541.399	19368.83
541.764	19430.07
542.129	19447.69
542.494	19569.05
542.858	19717.52
543.223	19642.49
543.587	19787.12
543.952	19780.12
544.316	19863.5
544.681	19909.15
545.045	20011.97
545.41	20080.22
545.774	20097.4
546.138	20189.14
546.503	20309.82
546.867	20406.99
547.231	20445.18
547.595	20468.23
547.959	20593.2
548.324	20613.31
548.688	20621
549.052	20765.85
549.416	20714.1
549.779	20791.84
550.143	20914.55
550.507	21118.61
550.871	21056.24
551.235	21116.8
551.599	21351.6
551.962	21350.7
552.326	21429.56
552.689	21575.1
553.053	21497.36
553.417	21484.48
553.78	21879.04
554.143	21838.59
554.507	21967.4
554.87	22050.11
555.234	22196.32
555.597	22068.42
555.96	22304.12
556.323	22387.73
556.686	22423.89
557.05	22669.76
557.413	22679.25
557.776	22752.47
558.139	22903.88
558.502	23003.31
558.865	22988.39
559.228	23137.32
559.59	23272.45
559.953	23247.59
560.316	23644.19
560.679	23620.47
561.041	23762.84
561.404	23886.22
561.767	24076.05
562.129	23941.14
562.492	24252.77
562.854	24365.31
563.217	24278.98
563.579	24504.96
563.941	24613.21
564.304	24785.18
564.666	24977.72
565.028	25050.71
565.39	25130.71
565.753	25392.4
566.115	25473.3
566.477	25643.69
566.839	25596.23
567.201	26075.54
567.563	25912.84
567.925	26108.08
568.287	26325.03
568.648	26397.57
569.01	26540.84
569.372	26915.3
569.734	26774.96
570.095	27036.42
570.457	27305.12
570.819	27309.64
571.18	27464.89
571.542	27570.87
571.903	27654.71
572.265	27912.11
572.626	28070.29
572.987	28201.36
573.349	28405.43
573.71	28564.52
574.071	28677.28
574.432	28854
574.794	29051.51
575.155	29098.74
575.516	29023.71
575.877	29272.75
576.238	29402.69
576.599	29483.36
576.96	29745.5
577.32	29745.28
577.681	29945.95
578.042	30208.77
578.403	30263
578.763	30354.53
579.124	30478.82
579.485	30677.68
579.845	30776.89
580.206	30937.34
580.566	30993.61
580.927	31061.17
581.287	31437.21
581.648	31321.96
582.008	31639.92
582.368	31665
582.728	31705.23
583.089	31843.08
583.449	31949.29
583.809	32177.98
584.169	32408.94
584.529	32336.85
584.889	32791.98
585.249	32645.09
585.609	32687.8
585.969	33042.82
586.329	33012.31
586.688	33331.62
587.048	33450.26
587.408	33591.73
587.768	33717.38
588.127	33815.45
588.487	34077.37
588.846	34582.66
589.206	34310.58
589.565	34498.82
589.925	34990.11
590.284	34868.76
590.643	35173.84
591.003	35431.68
591.362	35727.49
591.721	35823.31
592.08	35940.37
592.44	36419.68
592.799	36502.84
593.158	36774.92
593.517	36813.79
593.876	37186.89
594.235	37225.08
594.593	37373.78
594.952	37848.79
595.311	37897.38
595.67	38215.79
596.029	38571.71
596.387	38961.98
596.746	39167.18
597.104	39113.39
597.463	39240.39
597.822	39807.16
598.18	39792.92
598.538	40037.66
598.897	40440.59
599.255	40389.07
599.613	41115.83
599.972	40940.24
600.33	41172.1
600.688	41386.33
601.046	41737.96
601.404	42103.82
601.762	42086.42
602.12	42500.2
602.478	42639.4
602.836	42786.52
603.194	42767.99
603.552	43265.83
603.91	43306.73
604.268	43576.55
604.625	43676.21
604.983	44089.98
605.341	43963.21
605.698	44245.69
606.056	44826.69
606.413	44590.08
606.771	45026.91
607.128	45144.65
607.485	45148.49
607.843	45291.31
608.2	45771.3
608.557	45782.6
608.914	45811.75
609.272	46065.07
609.629	46329.7
609.986	46602.91
610.343	46632.97
610.7	47127.42
611.057	47030.47
611.414	47049.68
611.771	47376.9
612.127	47573.06
612.484	47739.83
612.841	47842.88
613.198	47735.99
613.554	47845.59
613.911	48313.83
614.267	48261.4
614.624	48378.69
614.98	48537.33
615.337	48704.55
615.693	48770.31
616.05	48874.49
616.406	49163.98
616.762	49095.95
617.118	49186.57
617.475	49215.73
617.831	49448.04
618.187	49571.42
618.543	49549.5
618.899	49825.2
619.255	49816.16
619.611	49806.67
619.967	50073.1
620.323	50200.33
620.678	50067.91
621.034	49994.46
621.39	50036.72
621.746	50225.19
622.101	50442.36
622.457	50239.88
622.812	50595.12
623.168	50556.71
623.523	50563.49
623.879	50766.19
624.234	50615.91
624.589	50798.96
624.945	50767.78
625.3	50842.35
625.655	50815.91
626.01	50869.47
626.365	50871.28
626.72	50728.91
627.075	50906.53
627.43	50949.24
627.785	50840.09
628.14	50971.84
628.495	50966.41
628.85	51111.04
629.205	50932.06
629.559	51177.93
629.914	50920.31
630.269	50920.54
630.623	50844.16
630.978	50812.29
631.332	50934.78
631.687	50940.88
632.041	50935.68
632.396	50924.83
632.75	50855
633.104	50978.62
633.459	50758.28
633.813	50747.66
634.167	50743.6
634.521	50829.69
634.875	50770.26
635.229	50714.44
635.583	50554.67
635.937	50610.94
636.291	50607.55
636.645	50576.59
636.999	50546.99
637.352	50572.3
637.706	50250.95
638.06	50464.05
638.413	50298.64
638.767	50205.76
639.121	50394.9
639.474	50118.07
639.828	50201.24
640.181	50052.09
640.534	50188.58
640.888	49948.59
641.241	49919.89
641.594	49996.27
641.947	50050.28
642.301	49879.89
642.654	50039.88
643.007	49880.12
643.36	49985.87
643.713	49884.18
644.066	49802.38
644.419	49690.74
644.771	49273.58
645.124	48931.67
645.477	48826.58
645.83	48833.81
646.182	48700.03
646.535	48602.63
646.888	48675.85
647.24	48552.24
647.593	48805.57
647.945	48487.16
648.298	48468.4
648.65	48220.72
649.002	48081.74
649.355	47994.97
649.707	47796.33
650.059	47935.31
650.411	48474.95
650.763	48645.8
651.115	49148.38
651.467	49013.7
651.819	48948.84
652.171	48856.64
652.523	48675.4
652.875	48744.33
653.227	48602.63
653.578	48887.82
653.93	48799.01
654.282	48538.23
654.633	48455.97
654.985	48559.7
655.337	48592.24
655.688	48570.77
656.039	48580.26
656.391	48220.72
656.742	48442.64
657.094	48420.72
657.445	48465.69
657.796	48410.1
658.147	48194.96
658.498	48439.7
658.849	48504.56
659.2	48276.32
659.551	48217.79
659.902	48434.73
660.253	48131.91
660.604	48375.97
660.955	48129.88
661.306	48295.75
661.656	48057.11
662.007	48244.45
662.358	48200.61
662.708	48128.75
663.059	48074.51
663.409	47905.25
663.76	48025.25
664.11	48031.35
664.461	48023.44
664.811	48141.18
665.161	48106.38
665.511	48015.98
665.862	48018.02
666.212	48040.62
666.562	48044.91
666.912	48101.4
667.262	47873.61
667.612	47945.7
667.962	48026.6
668.312	47864.12
668.662	48119.71
669.011	48092.14
669.361	47832.26
669.711	47989.54
670.06	47891.92
670.41	47779.83
670.76	47811.24
671.109	47948.87
671.459	47877.68
671.808	47860.28
672.157	47914.52
672.507	47735.09
672.856	47733.96
673.205	47802.43
673.554	47899.15
673.904	47722.43
674.253	47952.26
674.602	47815.08
674.951	47279.05
675.3	46991.6
675.649	47822.77
675.998	47697.35
676.346	47775.09
676.695	47721.3
677.044	47491.03
677.393	47582.55
677.741	47662.09
678.09	47546.84
678.438	47536.22
678.787	47671.59
679.135	47544.81
679.484	47391.59
679.832	47472.72
680.181	47424.13
680.529	47349.11
680.877	47346.62
681.225	47351.14
681.573	47481.53
681.922	47228.89
682.27	46981.43
682.618	47117.48
682.966	46977.59
683.314	47055.1
683.661	47029.12
684.009	46847.88
684.357	46677.04
684.705	46645.4
685.053	46632.06
685.4	46406.99
685.748	46470.04
686.095	46393.2
686.443	46279.08
686.79	46312.75
687.138	46293.54
687.485	46235.69
687.832	46103.72
688.18	46153.43
688.527	45968.58
688.874	45861.24
689.221	45968.58
689.568	45659.66
689.915	45662.6
690.262	45652.43
690.609	45589.38
690.956	45500.34
691.303	45455.82
691.65	45235.49
691.997	45096.96
692.344	44937.19
692.69	44859.23
693.037	44899.46
693.383	44680.03
693.73	44708.73
694.077	44515.51
694.423	44486.58
694.769	44333.59
695.116	44284.1
695.462	44132.47
695.808	44130.44
696.155	44041.85
696.501	43861.29
696.847	43856.54
697.193	43624.01
697.539	43720.28
697.885	43461.3
698.231	43284.58
698.577	43258.59
698.923	43275.77
699.269	43034.42
699.614	42758.04
699.96	42755.78
700.306	42760.75
700.651	42662
700.997	42460.88
701.342	42418.84
701.688	42308.34
702.033	42142.24
702.379	42089.81
702.724	41988.57
703.069	42004.16
703.415	41506.55
703.76	41498.64
704.105	41581.8
704.45	41584.06
704.795	41253
705.14	41217.52
705.485	41179.78
705.83	40943.17
706.175	40993.12
706.52	41011.2
706.865	40735.04
707.209	40766.68
707.554	40600.81
707.899	40655.5
708.243	40472.45
708.588	40438.1
708.932	40180.03
709.277	40209.41
709.621	40116.08
709.966	39965.57
710.31	39982.52
710.654	39620.05
710.998	39771.91
711.342	39771.23
711.687	39552.25
712.031	39438.81
712.375	39130.57
712.719	39199.04
713.063	39249.43
713.407	39334.86
713.75	38969.67
714.094	39012.83
714.438	38735.55
714.782	38772.38
715.125	38715.44
715.469	38814.42
715.812	38425.73
716.156	38353.86
716.499	38346.63
716.843	38411.72
717.186	38225.28
717.53	38371.27
717.873	38404.94
718.216	38256.01
718.559	37995.23
718.902	37736.25
719.246	37902.8
719.589	37797.49
719.932	37632.3
720.275	37697.84
720.617	37704.39
720.96	37656.48
721.303	37619.65
721.646	37568.12
721.989	37359.54
722.331	37485.86
722.674	37279.99
723.016	37331.74
723.359	37181.01
723.701	37282.71
724.044	37020.57
724.386	36921.13
724.729	37086.78
725.071	37031.19
725.413	36997.97
725.755	36879.55
726.097	36743.96
726.439	36575.15
726.782	36700.8
727.124	36694.02
727.465	36562.27
727.807	36466.68
728.149	36602.5
728.491	36382.62
728.833	36458.77
729.175	36437.76
729.516	36342.17
729.858	36158.22
730.199	36421.49
730.541	36252
730.882	36131.78
731.224	36041.61
731.565	36019.69
731.906	35986.02
732.248	35922.97
732.589	35698.79
732.93	35667.83
733.271	35845.23
733.612	35739.92
733.953	35953.25
734.294	35730.88
734.635	35397.33
734.976	35793.25
735.317	35423.77
735.658	35404.11
735.999	35288.41
736.339	35378.35
736.68	35330.44
737.021	35144.68
737.361	35179.26
737.702	35246.15
738.042	35109.88
738.383	35178.13
738.723	35171.35
739.063	34952.82
739.404	35165.47
739.744	35044.35
740.084	34843.45
740.424	34779.27
740.764	34928.42
741.104	34971.35
741.444	34708.99
741.784	34676.22
742.124	34746.28
742.464	34623.34
742.804	34624.47
743.143	34583.12
743.483	34627.86
743.823	34312.16
744.162	34267.64
744.502	34408.66
744.841	34203.69
745.181	34405.27
745.52	34237.36
745.86	34209.57
746.199	34125.95
746.538	34255.22
746.877	34320.07
747.216	34178.61
747.556	34044.83
747.895	34032.4
748.234	34073.52
748.573	33969.35
748.911	33869.69
749.25	33839.18
749.589	33737.94
749.928	33837.6
750.267	33757.6
750.605	33571.17
750.944	33573.88
751.283	33545.4
751.621	33599.19
751.96	33439.19
752.298	33396.71
752.636	33369.36
752.975	33274.68
753.313	33142.25
753.651	33333.43
753.989	33114.45
754.327	33111.74
754.666	32711.3
755.004	32916.04
755.342	32863.16
755.679	32955.36
