Data from 17-1456_FLMS001491_010.txt Node
Date: Thu Apr 19 16:30:51 BST 2018
User: hsy
Spectrometer: FLMS00149
Trigger mode: 0
Integration Time (sec): 1.000000E-2
Scans to average: 10
Electric dark correction enabled: true
Nonlinearity correction enabled: false
Boxcar width: 0
XAxis mode: Wavelengths
Number of Pixels in Spectrum: 2048
>>>>>Begin Spectral Data<<<<<
341.393	-0.69
341.776	-0.69
342.16	-0.69
342.543	-37.08
342.927	-77.53
343.31	-61.93
343.693	-70.07
344.077	-76.17
344.46	-50.63
344.843	-56.96
345.226	-50.41
345.61	-40.01
345.993	-27.13
346.376	-1.14
346.759	17.61
347.142	25.07
347.525	76.82
347.908	55.8
348.291	60.78
348.674	94.9
349.057	103.49
349.44	118.63
349.823	135.8
350.206	185.52
350.588	247.66
350.971	253.54
351.354	265.74
351.737	262.58
352.119	317.04
352.502	322.46
352.884	324.27
353.267	334.21
353.65	334.67
354.032	366.08
354.414	357.26
354.797	358.17
355.179	382.35
355.562	362.01
355.944	380.99
356.326	402.24
356.709	378.06
357.091	387.09
357.473	409.01
357.855	382.12
358.238	394.1
358.62	394.1
359.002	385.96
359.384	397.26
359.766	396.36
360.148	394.33
360.53	390.48
360.912	404.95
361.294	402.24
361.676	392.52
362.057	407.88
362.439	372.86
362.821	359.98
363.203	376.7
363.584	399.3
363.966	373.31
364.348	390.48
364.729	371.28
365.111	374.67
365.493	393.65
365.874	382.12
366.256	374.44
366.637	366.08
367.019	403.37
367.4	398.17
367.781	387.09
368.163	391.61
368.544	394.1
368.925	368.56
369.306	393.87
369.688	390.03
370.069	396.81
370.45	400.88
370.831	394.33
371.212	385.74
371.593	383.93
371.974	381.9
372.355	378.73
372.736	403.14
373.117	403.37
373.498	390.71
373.879	393.87
374.26	391.61
374.641	391.84
375.021	388.9
375.402	404.27
375.783	398.62
376.163	407.21
376.544	426.87
376.925	413.31
377.305	427.77
377.686	417.83
378.066	411.05
378.447	439.75
378.827	425.74
379.208	424.83
379.588	422.12
379.968	430.26
380.349	428
380.729	410.37
381.109	450.14
381.489	422.12
381.87	470.93
382.25	459.18
382.63	421.9
383.01	432.06
383.39	457.15
383.77	462.12
384.15	460.31
384.53	430.26
384.91	465.74
385.29	459.18
385.67	448.79
386.049	472.52
386.429	474.32
386.809	475.91
387.189	463.25
387.568	484.04
387.948	485.62
388.328	494.66
388.707	481.1
389.087	491.95
389.466	491.5
389.846	477.04
390.225	476.58
390.605	518.62
390.984	502.57
391.363	508.22
391.743	519.75
392.122	538.05
392.501	520.2
392.881	539.63
393.26	545.28
393.639	521.55
394.018	529.46
394.397	532.63
394.776	558.62
395.155	544.38
395.534	539.18
395.913	562.23
396.292	580.31
396.671	559.97
397.05	573.08
397.429	582.8
397.808	596.35
398.186	589.57
398.565	581.89
398.944	561.55
399.323	597.48
399.701	603.59
400.08	604.26
400.458	585.73
400.837	596.58
401.215	598.16
401.594	622.12
401.972	623.47
402.351	601.1
402.729	602.68
403.107	616.69
403.486	646.97
403.864	648.1
404.242	640.65
404.62	635
404.999	643.36
405.377	644.26
405.755	644.04
406.133	665.73
406.511	658.5
406.889	694.43
407.267	706.63
407.645	700.53
408.023	669.57
408.401	686.07
408.779	698.5
409.156	707.76
409.534	741.66
409.912	711.83
410.29	745.73
410.667	777.82
411.045	756.8
411.422	781.66
411.8	770.14
412.178	787.76
412.555	791.15
412.933	806.29
413.31	793.19
413.687	831.83
414.065	818.72
414.442	797.71
414.819	856.91
415.197	849.23
415.574	867.31
415.951	853.07
416.328	878.83
416.705	850.13
417.082	890.36
417.46	870.02
417.837	918.61
418.214	903.46
418.591	918.15
418.967	923.58
419.344	901.21
419.721	936.46
420.098	949.79
420.475	947.76
420.852	942.56
421.228	950.7
421.605	974.2
421.982	972.39
422.358	976.68
422.735	999.96
423.111	987.53
423.488	1011.48
423.864	1010.35
424.241	1033.63
424.617	1025.04
424.994	1021.65
425.37	1038.6
425.746	1050.81
426.123	1065.27
426.499	1069.56
426.875	1079.73
427.251	1095.32
427.627	1129.22
428.003	1119.05
428.379	1099.39
428.756	1125.61
429.132	1166.96
429.507	1178.49
429.883	1191.37
430.259	1192.5
430.635	1193.17
431.011	1213.29
431.387	1244.7
431.763	1259.84
432.138	1265.72
432.514	1280.63
432.89	1297.35
433.265	1315.88
433.641	1318.14
434.016	1337.13
434.392	1348.65
434.767	1397.92
435.143	1371.93
435.518	1377.12
435.894	1401.76
436.269	1431.59
436.644	1465.03
437.02	1465.94
437.395	1484.92
437.77	1493.96
438.145	1507.74
438.52	1476.56
438.895	1541.19
439.271	1513.62
439.646	1496.9
440.021	1522.66
440.395	1559.04
440.77	1549.78
441.145	1571.7
441.52	1606.5
441.895	1613.73
442.27	1589.77
442.645	1630.68
443.019	1594.52
443.394	1615.99
443.769	1655.31
444.143	1628.42
444.518	1680.17
444.892	1654.18
445.267	1689.66
445.641	1647.63
446.016	1703.22
446.39	1694.4
446.764	1750
447.139	1710.68
447.513	1730.79
447.887	1734.4
448.262	1766.49
448.636	1780.73
449.01	1792.26
449.384	1786.61
449.758	1809.88
450.132	1810.11
450.506	1837.45
450.88	1869.77
451.254	1854.85
451.628	1867.73
452.002	1872.48
452.376	1907.51
452.75	1937.79
453.123	1918.13
453.497	1974.17
453.871	1990.22
454.244	2026.15
454.618	2064.56
454.992	2091.68
455.365	2100.72
455.739	2108.86
456.112	2114.28
456.486	2153.6
456.859	2151.34
457.232	2241.51
457.606	2214.16
457.979	2257.1
458.352	2272.02
458.725	2315.86
459.099	2333.94
459.472	2379.81
459.845	2381.62
460.218	2396.98
460.591	2431.11
460.964	2460.26
461.337	2477.43
461.71	2527.83
462.083	2582.74
462.456	2586.81
462.829	2584.55
463.201	2612.35
463.574	2627.94
463.947	2684.44
464.32	2682.63
464.692	2693.47
465.065	2769.86
465.438	2744.77
465.81	2829.97
466.183	2820.02
466.555	2874.94
466.928	2906.8
467.3	2900.02
467.672	2892.11
468.045	2988.83
468.417	3003.75
468.789	3013.24
469.161	3053.69
469.534	3097.08
469.906	3135.04
470.278	3159.45
470.65	3185.66
471.022	3281.26
471.394	3290.29
471.766	3316.73
472.138	3380.01
472.51	3404.19
472.882	3481.25
473.253	3486.22
473.625	3568.71
473.997	3601.93
474.369	3610.96
474.74	3692.32
475.112	3732.09
475.484	3820.22
475.855	3868.58
476.227	3932.54
476.598	3976.83
476.97	4007.34
477.341	4114.68
477.713	4107.45
478.084	4204.17
478.455	4295.69
478.827	4344.96
479.198	4441.9
479.569	4467.67
479.94	4609.36
480.311	4629.47
480.682	4709.24
481.053	4876.47
481.424	4887.77
481.795	4941.55
482.166	5047.31
482.537	5115.11
482.908	5224.26
483.279	5248.44
483.65	5420.63
484.021	5448.2
484.391	5552.83
484.762	5640.52
485.133	5699.05
485.503	5761.87
485.874	5918.25
486.244	5951.92
486.615	6075.31
486.985	6200.95
487.356	6230.56
487.726	6325.24
488.097	6475.07
488.467	6535.18
488.837	6734.27
489.207	6749.86
489.578	6866.25
489.948	6958.22
490.318	7041.83
490.688	7078.9
491.058	7290.64
491.428	7317.99
491.798	7448.15
492.168	7609.73
492.538	7683.4
492.908	7884.98
493.278	7899.67
493.648	7962.71
494.017	8085.65
494.387	8197.74
494.757	8286.32
495.126	8391.18
495.496	8467.56
495.866	8567.67
496.235	8622.13
496.605	8794.1
496.974	8827.55
497.344	8871.84
497.713	8977.38
498.082	9112.51
498.452	9209.46
498.821	9296.01
499.19	9300.53
499.559	9454.43
499.928	9555.21
500.298	9585.04
500.667	9733.52
501.036	9742.1
501.405	9894.87
501.774	9973.73
502.143	10016.22
502.512	10086.95
502.88	10224.58
503.249	10166.27
503.618	10390.9
503.987	10340.5
504.356	10525.58
504.724	10611.23
505.093	10634.96
505.462	10687.61
505.83	10843.54
506.199	10900.04
506.567	11056.64
506.936	11081.5
507.304	11157.43
507.672	11265.9
508.041	11346.58
508.409	11377.31
508.777	11542.28
509.145	11551.32
509.514	11568.04
509.882	11655.27
510.25	11803.52
510.618	11890.52
510.986	11849.84
511.354	12026.56
511.722	12221.13
512.09	12288.93
512.458	12271.53
512.826	12386.1
513.193	12500.9
513.561	12638.75
513.929	12602.82
514.297	12666.32
514.664	12822.25
515.032	12981.79
515.4	13060.43
515.767	13154.67
516.135	13195.57
516.502	13159.87
516.869	13446.41
517.237	13560.53
517.604	13462
517.972	13646.41
518.339	13668.55
518.706	13790.81
519.073	13898.83
519.44	13920.07
519.808	14146.51
520.175	14127.98
520.542	14326.16
520.909	14460.4
521.276	14404.35
521.643	14676.21
522.009	14698.36
522.376	14831.91
522.743	14986.48
523.11	15106.48
523.477	15225.57
523.843	15376.76
524.21	15579.46
524.577	15645.45
524.943	15757.76
525.31	15799.8
525.676	16050.19
526.043	16103.52
526.409	16282.72
526.776	16469.16
527.142	16524.75
527.508	16710.96
527.874	16923.61
528.241	16859.88
528.607	16938.3
528.973	17212.64
529.339	17172.87
529.705	17428.23
530.071	17536.25
530.437	17615.12
530.803	17755
531.169	17957.25
531.535	17851.95
531.901	17999.06
532.267	18148.66
532.632	18283.57
532.998	18284.93
533.364	18431.14
533.73	18570.8
534.095	18762.2
534.461	18821.19
534.826	18902.31
535.192	18979.6
535.557	19081.52
535.923	19141.63
536.288	19232.93
536.653	19299.59
537.019	19324.22
537.384	19484.22
537.749	19567.15
538.114	19643.54
538.479	19615.29
538.845	19777.32
539.21	19797.43
539.575	19959.91
539.94	20022.74
540.305	20086.24
540.67	20204.88
541.034	20177.08
541.399	20254.14
541.764	20370.52
542.129	20509.96
542.494	20501.37
542.858	20620.91
543.223	20572.33
543.587	20674.92
543.952	20767.35
544.316	20894.35
544.681	20820.23
545.045	20960.11
545.41	21052.77
545.774	21143.61
546.138	21168.24
546.503	21177.06
546.867	21239.43
547.231	21448.01
547.595	21465.64
547.959	21498.4
548.324	21659.76
548.688	21745.63
549.052	21709.25
549.416	21769.36
549.779	21818.17
550.143	21908.56
550.507	22071.5
550.871	22134.77
551.235	22166.86
551.599	22163.7
551.962	22326.4
552.326	22453.18
552.689	22396.23
553.053	22402.11
553.417	22556.23
553.78	22733.85
554.143	22801.65
554.507	22982.21
554.87	22869.22
555.234	23122.77
555.597	22973.85
555.96	23146.72
556.323	23233.73
556.686	23387.85
557.05	23372.03
557.413	23439.82
557.776	23652.7
558.139	23751.9
558.502	23814.05
558.865	23885.91
559.228	24015.63
559.59	24074.16
559.953	24255.85
560.316	24477.53
560.679	24461.72
561.041	24588.72
561.404	24762.95
561.767	24964.08
562.129	24835.27
562.492	25096.28
562.854	25076.39
563.217	25193.9
563.579	25263.5
563.941	25472.99
564.304	25630.05
564.666	25794.34
565.028	25738.52
565.39	25880.21
565.753	26233.65
566.115	26267.32
566.477	26354.77
566.839	26501.66
567.201	26795.67
567.563	26794.31
567.925	27078.14
568.287	27083.34
568.648	27208.31
569.01	27448.3
569.372	27681.97
569.734	27606.94
570.095	27903.88
570.457	28199.47
570.819	28142.52
571.18	28237.89
571.542	28575.73
571.903	28655.96
572.265	28891.66
572.626	29021.6
572.987	29083.51
573.349	29336.16
573.71	29459.78
574.071	29596.72
574.432	29761.24
574.794	29994.9
575.155	29987.67
575.516	30155.13
575.877	30311.51
576.238	30471.05
576.599	30733.42
576.96	30856.35
577.32	30876.46
577.681	31148.77
578.042	31314.19
578.403	31334.53
578.763	31552.83
579.124	31668.98
579.485	31989.2
579.845	32111.91
580.206	32212.47
580.566	32282.07
580.927	32481.17
581.287	32691.56
581.648	32819.01
582.008	33259.22
582.368	33359.11
582.728	33500.8
583.089	33667.12
583.449	33888.36
583.809	34065.08
584.169	34489.47
584.529	34477.27
584.889	35176.46
585.249	35109.35
585.609	35281.09
585.969	35798.14
586.329	35830.91
586.688	36370.33
587.048	36641.06
587.408	37019.13
587.768	37210.53
588.127	37494.59
588.487	37888.93
588.846	38525.3
589.206	38508.13
589.565	38959.64
589.925	39519.85
590.284	39843.23
590.643	40259.72
591.003	40747.39
591.362	41381.27
591.721	41786.46
592.08	42076.17
592.44	42642.71
592.799	42925.64
593.158	43490.82
593.517	43715.9
593.876	44386.16
594.235	44667.29
594.593	45182.75
594.952	45753.13
595.311	46050.53
595.67	46579.33
596.029	47066.77
596.387	47492.52
596.746	48014.32
597.104	48167.31
597.463	48620.4
597.822	49170.22
598.18	49485.01
598.538	49773.59
598.897	50473.91
599.255	50526.34
599.613	51233.67
599.972	51341.69
600.33	51756.59
600.688	51964.27
601.046	52352.28
601.404	52893.96
601.762	53025.94
602.12	53465.47
602.478	53613.04
602.836	53915.4
603.194	54075.4
603.552	54445.79
603.91	54535.5
604.268	55023.17
604.625	55202.83
604.983	55529.15
605.341	55490.5
605.698	56048.23
606.056	56276.47
606.413	56379.07
606.771	56738.38
607.128	56880.98
607.485	56962.1
607.843	57218.14
608.2	57552.6
608.557	57758.47
608.914	57816.54
609.272	58119.14
609.629	58318.23
609.986	58589.41
610.343	58645.45
610.7	58991.2
611.057	59030.3
611.414	59155.94
611.771	59438.2
612.127	59636.16
612.484	59772.65
612.841	59912.08
613.198	59917.28
613.554	60112.3
613.911	60377.16
614.267	60463.71
614.624	60574.44
614.98	60730.59
615.337	61001.09
615.693	60980.98
616.05	61097.36
616.406	61309.79
616.762	61330.58
617.118	61458.26
617.475	61518.82
617.831	61723.79
618.187	61841.98
618.543	61924.91
618.899	62053.5
619.255	62095.53
619.611	62203.77
619.967	62345.92
620.323	62448.51
620.678	62392.47
621.034	62441.96
621.39	62507.72
621.746	62623.65
622.101	62948.16
622.457	62755.4
622.812	62960.36
623.168	63016.41
623.523	63016.63
623.879	63179.79
624.234	63044.88
624.589	63175.27
624.945	63248.94
625.3	63289.17
625.655	63335.5
626.01	63325.55
626.365	63486.9
626.72	63441.48
627.075	63459.11
627.43	63450.97
627.785	63496.17
628.14	63501.59
628.495	63517.64
628.85	63520.8
629.205	63506.11
629.559	63522.16
629.914	63522.16
630.269	63515.38
630.623	63522.16
630.978	63522.16
631.332	63522.16
631.687	63522.16
632.041	63522.16
632.396	63522.16
632.75	63522.16
633.104	63522.16
633.459	63522.16
633.813	63521.25
634.167	63522.16
634.521	63522.16
634.875	63522.16
635.229	63522.16
635.583	63514.93
635.937	63518.32
636.291	63521.93
636.645	63522.16
636.999	63515.15
637.352	63522.16
637.706	63488.71
638.06	63521.93
638.413	63494.36
638.767	63473.8
639.121	63506.79
639.474	63435.83
639.828	63430.18
640.181	63435.61
640.534	63501.14
640.888	63389.05
641.241	63333.01
641.594	63413.91
641.947	63469.73
642.301	63362.61
642.654	63372.78
643.007	63294.59
643.36	63424.53
643.713	63307.93
644.066	63401.93
644.419	63213.46
644.771	63028.16
645.124	62793.36
645.477	62771.44
645.83	62648.51
646.182	62660.03
646.535	62586.81
646.888	62674.27
647.24	62567.61
647.593	62677.43
647.945	62591.56
648.298	62487.16
648.65	62428.63
649.002	62314.73
649.355	62227.28
649.707	62238.12
650.059	62248.74
650.411	62576.19
650.763	62674.72
651.115	62952.23
651.467	62867.49
651.819	62912.68
652.171	62832.01
652.523	62763.31
652.875	62776.64
653.227	62695.96
653.578	62844.21
653.93	62786.36
654.282	62700.71
654.633	62625.46
654.985	62699.35
655.337	62655.97
655.688	62686.47
656.039	62730.77
656.391	62540.71
656.742	62559.7
657.094	62495.74
657.445	62614.38
657.796	62582.52
658.147	62501.17
658.498	62477.67
658.849	62551.56
659.2	62517.66
659.551	62416.88
659.902	62593.82
660.253	62415.52
660.604	62472.69
660.955	62336.65
661.306	62447.38
661.656	62403.32
662.007	62426.82
662.358	62368.74
662.708	62338.23
663.059	62388.18
663.409	62246.26
663.76	62349.53
664.11	62342.08
664.461	62373.49
664.811	62379.59
665.161	62357.44
665.511	62260.5
665.862	62326.71
666.212	62331
666.562	62337.78
666.912	62270.44
667.262	62273.15
667.612	62305.24
667.962	62281.06
668.312	62224.34
668.662	62343.88
669.011	62278.57
669.361	62232.47
669.711	62251.46
670.06	62148.18
670.41	62146.37
670.76	62153.38
671.109	62212.36
671.459	62227.73
671.808	62165.36
672.157	62260.95
672.507	62067.05
672.856	62104.79
673.205	62093.49
673.554	62144.11
673.904	62082.42
674.253	62248.07
674.602	62099.14
674.951	61788.87
675.3	61723.33
675.649	62090.56
675.998	62018.92
676.346	62089.65
676.695	62071.12
677.044	61939.83
677.393	62031.35
677.741	62091.46
678.09	61964.91
678.438	61882.88
678.787	62037
679.135	61984.12
679.484	61876.78
679.832	61976.21
680.181	61838.36
680.529	61867.96
680.877	61824.35
681.225	61821.64
681.573	62024.12
681.922	61781.19
682.27	61723.11
682.618	61740.74
682.966	61695.76
683.314	61704.35
683.661	61708.87
684.009	61583.45
684.357	61516.33
684.705	61525.37
685.053	61554.75
685.4	61470.23
685.748	61413.06
686.095	61394.53
686.443	61261.2
686.79	61230.47
687.138	61324.48
687.485	61327.64
687.832	61165.84
688.18	61191.6
688.527	61126.74
688.874	61143.46
689.221	61117.47
689.568	61066.4
689.915	60986.18
690.262	61004.26
690.609	60951.38
690.956	60919.06
691.303	60921.77
691.65	60776.69
691.997	60743.02
692.344	60651.27
692.69	60636.58
693.037	60631.39
693.383	60437.72
693.73	60525.85
694.077	60451.28
694.423	60451.05
694.769	60326.76
695.116	60337.61
695.462	60232.3
695.808	60190.27
696.155	60208.12
696.501	60007.45
696.847	60070.95
697.193	59880.9
697.539	60035.24
697.885	59765.65
698.231	59752.54
698.577	59757.96
698.923	59718.64
699.269	59492.21
699.614	59436.16
699.96	59445.65
700.306	59412.89
700.651	59348.71
700.997	59275.26
701.342	59248.37
701.688	59216.96
702.033	59090.41
702.379	59073.69
702.724	58929.96
703.069	59022.39
703.415	58715.5
703.76	58764.99
704.105	58788.5
704.45	58643.64
704.795	58633.25
705.14	58529.52
705.485	58541.72
705.83	58320.03
706.175	58451.78
706.52	58395.51
706.865	58216.08
707.209	58209.75
707.554	58190.32
707.899	58240.71
708.243	58046.37
708.588	58009.08
708.932	57911.91
709.277	57911.68
709.621	57795.3
709.966	57609.32
710.31	57681.86
710.654	57558.7
710.998	57559.6
711.342	57661.97
711.687	57529.77
712.031	57403.9
712.375	57336.33
712.719	57281.42
713.063	57225.6
713.407	57317.57
713.75	57177.47
714.094	57176.34
714.438	57078.03
714.782	57078.71
715.125	56874.65
715.469	57026.28
715.812	56848.21
716.156	56701.09
716.499	56718.49
716.843	56819.06
717.186	56682.56
717.53	56774.09
717.873	56697.7
718.216	56647.08
718.559	56556.01
718.902	56371.16
719.246	56421.78
719.589	56279.18
719.932	56256.13
720.275	56253.42
720.617	56287.77
720.96	56218.62
721.303	56185.4
721.646	56197.6
721.989	56017.72
722.331	56067.21
722.674	55961
723.016	55913.09
723.359	55877.16
723.701	55878.06
724.044	55832.87
724.386	55681.23
724.729	55752.87
725.071	55719.42
725.413	55621.12
725.755	55636.94
726.097	55560.11
726.439	55404.63
726.782	55297.97
727.124	55467.91
727.465	55442.6
727.807	55331.41
728.149	55380.45
728.491	55300.9
728.833	55317.85
729.175	55283.5
729.516	55148.37
729.858	55147.01
730.199	55214.81
730.541	55133.9
730.882	54938.65
731.224	54979.33
731.565	54890.29
731.906	54922.84
732.248	54932.1
732.589	54795.16
732.93	54796.96
733.271	54798.09
733.612	54667.48
733.953	54750.86
734.294	54589.51
734.635	54502.28
734.976	54664.54
735.317	54638.78
735.658	54491.66
735.999	54513.81
736.339	54428.61
736.68	54323.53
737.021	54351.1
737.361	54244.21
737.702	54437.65
738.042	54193.59
738.383	54297.54
738.723	54260.48
739.063	54058.9
739.404	54229.75
739.744	54155.85
740.084	54075.85
740.424	54006.25
740.764	53986.36
741.104	54055.06
741.444	54018.23
741.784	53836.31
742.124	53796.99
742.464	53822.98
742.804	53795.41
743.143	53641.97
743.483	53767.61
743.823	53570.33
744.162	53602.87
744.502	53643.55
744.841	53541.4
745.181	53589.09
745.52	53509.99
745.86	53578.01
746.199	53432.03
746.538	53378.24
746.877	53533.27
747.216	53397.9
747.556	53348.19
747.895	53354.97
748.234	53306.83
748.573	53205.14
748.911	53158.36
749.25	53139.15
749.589	52975.09
749.928	52960.18
750.267	53024.13
750.605	52906.84
750.944	52903.91
751.283	52810.57
751.621	52874.53
751.96	52681.54
752.298	52644.7
752.636	52600.18
752.975	52556.8
753.313	52498.72
753.651	52533.75
753.989	52394.09
754.327	52370.81
754.666	52125.62
755.004	52332.17
