Data from 17-1564_FLMS001491_001.txt Node
Date: Thu Apr 19 16:31:13 BST 2018
User: hsy
Spectrometer: FLMS00149
Trigger mode: 0
Integration Time (sec): 1.000000E-2
Scans to average: 10
Electric dark correction enabled: true
Nonlinearity correction enabled: false
Boxcar width: 0
XAxis mode: Wavelengths
Number of Pixels in Spectrum: 2048
>>>>>Begin Spectral Data<<<<<
341.393	0.13
341.776	0.13
342.16	0.13
342.543	-54.79
342.927	-66.09
343.31	-61.34
343.693	-75.35
344.077	-61.11
344.46	-66.31
344.843	-51.62
345.226	-49.59
345.61	-19.53
345.993	-19.08
346.376	-0.78
346.759	15.04
347.142	12.78
347.525	65.66
347.908	62.5
348.291	78.54
348.674	73.35
349.057	96.85
349.44	153.34
349.823	143.63
350.206	161.25
350.588	248.93
350.971	279.22
351.354	284.64
351.737	295.49
352.119	295.94
352.502	309.27
352.884	325.99
353.267	323.96
353.65	361.02
354.032	365.09
354.414	342.72
354.797	363.06
355.179	366.45
355.562	387.69
355.944	374.35
356.326	366.22
356.709	373.22
357.091	390.17
357.473	409.61
357.855	370.96
358.238	392.66
358.62	390.85
359.002	389.04
359.384	409.16
359.766	403.73
360.148	377.52
360.53	403.28
360.912	372.77
361.294	384.98
361.676	380.68
362.057	395.82
362.439	380.91
362.821	398.99
363.203	390.85
363.584	407.8
363.966	376.84
364.348	383.39
364.729	401.25
365.111	391.53
365.493	374.81
365.874	387.46
366.256	398.76
366.637	406.67
367.019	375.03
367.4	378.87
367.781	376.39
368.163	388.59
368.544	374.58
368.925	382.94
369.306	389.04
369.688	384.07
370.069	373.45
370.45	397.86
370.831	397.4
371.212	407.12
371.593	396.5
371.974	386.78
372.355	396.05
372.736	402.15
373.117	389.95
373.498	391.3
373.879	400.12
374.26	400.34
374.641	410.06
375.021	398.99
375.402	397.18
375.783	399.21
376.163	426.33
376.544	417.29
376.925	414.35
377.305	402.15
377.686	417.74
378.066	422.71
378.447	407.35
378.827	419.33
379.208	427.01
379.588	416.16
379.968	397.4
380.349	408.03
380.729	444.18
381.109	435.6
381.489	446.67
381.87	431.98
382.25	431.08
382.63	455.71
383.01	431.53
383.39	433.34
383.77	463.84
384.15	458.42
384.53	454.58
384.91	432.88
385.29	465.43
385.67	445.54
386.049	458.42
386.429	476.72
386.809	486.22
387.189	474.92
387.568	472.66
387.948	484.41
388.328	489.38
388.707	475.59
389.087	491.41
389.466	491.64
389.846	508.81
390.225	495.48
390.605	502.26
390.984	501.36
391.363	499.1
391.743	519.44
392.122	501.81
392.501	511.53
392.881	523.05
393.26	513.79
393.639	531.86
394.018	516.72
394.397	539.55
394.776	561.02
395.155	554.24
395.534	559.43
395.913	549.27
396.292	541.58
396.671	576.84
397.05	552.2
397.429	552.2
397.808	571.86
398.186	581.13
398.565	575.93
398.944	581.58
399.323	582.94
399.701	600.79
400.08	583.61
400.458	599.89
400.837	586.1
401.215	592.2
401.594	575.25
401.972	626.1
402.351	591.75
402.729	600.79
403.107	603.73
403.486	620.22
403.864	641.47
404.242	633.78
404.62	664.06
404.999	645.31
405.377	659.77
405.755	655.7
406.133	652.77
406.511	668.13
406.889	662.48
407.267	665.65
407.645	689.37
408.023	688.02
408.401	700
408.779	714.91
409.156	714.91
409.534	731.41
409.912	735.7
410.29	746.1
410.667	742.71
411.045	735.7
411.422	729.37
411.8	744.51
412.178	794.68
412.555	775.47
412.933	768.47
413.31	780.45
413.687	816.6
414.065	798.07
414.442	816.6
414.819	832.42
415.197	824.96
415.574	849.14
415.951	845.3
416.328	839.2
416.705	869.26
417.082	854.12
417.46	853.21
417.837	859.99
418.214	862.48
418.591	897.28
418.967	857.05
419.344	903.61
419.721	926.2
420.098	925.75
420.475	903.83
420.852	905.87
421.228	932.98
421.605	953.1
421.982	932.08
422.358	955.81
422.735	947.9
423.111	949.25
423.488	972.53
423.864	979.99
424.241	1008.24
424.617	1001.91
424.994	977.05
425.37	1021.8
425.746	1011.63
426.123	1038.52
426.499	1035.35
426.875	1052.53
427.251	1061.12
427.627	1099.76
428.003	1097.05
428.379	1105.63
428.756	1105.41
429.132	1103.83
429.507	1135.46
429.883	1143.15
430.259	1178.4
430.635	1170.49
431.011	1170.94
431.387	1203.71
431.763	1224.5
432.138	1215.91
432.514	1222.47
432.89	1259.76
433.265	1253.65
433.641	1264.73
434.016	1258.63
434.392	1295.46
434.767	1318.06
435.143	1299.3
435.518	1334.78
435.894	1349.02
436.269	1366.19
436.644	1394.21
437.02	1371.62
437.395	1393.54
437.77	1432.41
438.145	1422.69
438.52	1433.76
438.895	1452.52
439.271	1452.07
439.646	1469.47
440.021	1500.88
440.395	1525.28
440.77	1494.1
441.145	1495.68
441.52	1551.05
441.895	1530.71
442.27	1570.93
442.645	1544.27
443.019	1577.03
443.394	1577.94
443.769	1581.1
444.143	1565.51
444.518	1589.69
444.892	1593.53
445.267	1605.51
445.641	1601.21
446.016	1642.8
446.39	1635.79
446.764	1656.13
447.139	1652.29
447.513	1660.2
447.887	1671.5
448.262	1683.7
448.636	1687.31
449.01	1743.58
449.384	1758.5
449.758	1749.69
450.132	1786.29
450.506	1767.99
450.88	1753.3
451.254	1795.11
451.628	1810.47
452.002	1829.91
452.376	1846.18
452.75	1892.51
453.123	1869.23
453.497	1907.65
453.871	1893.64
454.244	1980.19
454.618	1951.26
454.992	2006.18
455.365	2006.4
455.739	2039.4
456.112	2076.91
456.486	2068.55
456.859	2094.54
457.232	2122.33
457.606	2136.34
457.979	2172.73
458.352	2208.2
458.725	2235.55
459.099	2247.3
459.472	2271.03
459.845	2314.19
460.218	2292.27
460.591	2312.83
460.964	2344.7
461.337	2394.64
461.71	2451.59
462.083	2431.93
462.456	2457.69
462.829	2509.67
463.201	2523.45
463.574	2514.41
463.947	2538.37
464.32	2589.66
464.692	2616.78
465.065	2619.72
465.438	2699.04
465.81	2696.1
466.183	2735.87
466.555	2763.44
466.928	2778.13
467.3	2755.31
467.672	2813.61
468.045	2872.37
468.417	2904.68
468.789	2938.13
469.161	2920.95
469.534	2979.26
469.906	3044.11
470.278	3056.77
470.65	3109.88
471.022	3142.87
471.394	3181.29
471.766	3157.78
472.138	3235.52
472.51	3301.96
472.882	3393.26
473.253	3355.97
473.625	3442.75
473.997	3520.71
474.369	3509.64
474.74	3536.98
475.112	3627.83
475.484	3649.75
475.855	3734.72
476.227	3754.38
476.598	3861.49
476.97	3946.46
477.341	4006.12
477.713	4075.05
478.084	3999.34
478.455	4128.15
478.827	4180.81
479.198	4337.41
479.569	4323.86
479.94	4419.9
480.311	4458.77
480.682	4547.8
481.053	4708.7
481.424	4710.74
481.795	4811.98
482.166	4884.52
482.537	4913.9
482.908	5075.47
483.279	5144.4
483.65	5237.05
484.021	5245.41
484.391	5358.63
484.762	5415.8
485.133	5468.68
485.503	5598.62
485.874	5693.31
486.244	5723.37
486.615	5911.84
486.985	5945.28
487.356	6126.07
487.726	6117.93
488.097	6272.5
488.467	6303.92
488.837	6434.99
489.207	6496.68
489.578	6635.21
489.948	6732.38
490.318	6872.26
490.688	6849.89
491.058	7011.02
491.428	7072.48
491.798	7156.1
492.168	7308.86
492.538	7335.98
492.908	7474.05
493.278	7568.29
493.648	7644.67
494.017	7817.32
494.387	7831.11
494.757	7920.37
495.126	7958.56
495.496	8050.99
495.866	8201.49
496.235	8213.7
496.605	8400.58
496.974	8366.69
497.344	8531.43
497.713	8592.44
498.082	8648.04
498.452	8720.8
498.821	8804.42
499.19	8879.67
499.559	8921.47
499.928	9025.65
500.298	9114.92
500.667	9258.19
501.036	9214.12
501.405	9345.42
501.774	9368.47
502.143	9459.09
502.512	9504.74
502.88	9669.93
503.249	9658.4
503.618	9682.81
503.987	9782.02
504.356	9890.26
504.724	9972.52
505.093	10003.71
505.462	10012.07
505.83	10127.54
506.199	10167.32
506.567	10332.96
506.936	10331.61
507.304	10408.67
507.672	10547.19
508.041	10488.66
508.409	10582.22
508.777	10703.12
509.145	10812.95
509.514	10816.11
509.882	10821.99
510.25	11000.97
510.618	11040.51
510.986	11071.47
511.354	11221.08
511.722	11284.8
512.09	11391.01
512.458	11372.94
512.826	11453.84
513.193	11514.63
513.561	11589.2
513.929	11629.2
514.297	11773.38
514.664	11894.5
515.032	11879.81
515.4	12043.2
515.767	12093.37
516.135	12211.11
516.502	12065.8
516.869	12359.58
517.237	12380.14
517.604	12432.57
517.972	12512.34
518.339	12666.01
518.706	12692.9
519.073	12779.45
519.44	12801.15
519.808	12954.14
520.175	13014.47
520.542	13192.55
520.909	13257.63
521.276	13334.69
521.643	13544.86
522.009	13594.8
522.376	13701.69
522.743	13755.92
523.11	13924.51
523.477	14143.94
523.843	14114.56
524.21	14358.62
524.577	14509.12
524.943	14550.7
525.31	14505.96
525.676	14792.73
526.043	14864.82
526.409	15001.09
526.776	15175.32
527.142	15245.83
527.508	15305.49
527.874	15424.81
528.241	15522.43
528.607	15672.03
528.973	15797
529.339	15850.33
529.705	15977.33
530.071	16102.75
530.437	16230.21
530.803	16526.7
531.169	16383.65
531.535	16487.15
531.901	16622.74
532.267	16725.79
532.632	16833.58
532.998	16909.06
533.364	17043.75
533.73	17070.19
534.095	17324.87
534.461	17355.38
534.826	17486.9
535.192	17559.44
535.557	17628.36
535.923	17696.84
536.288	17736.61
536.653	17906.55
537.019	17883.27
537.384	17932.08
537.749	17960.56
538.114	18168.01
538.479	18174.34
538.845	18318.06
539.21	18320.32
539.575	18324.39
539.94	18541.79
540.305	18631.95
540.67	18656.59
541.034	18657.49
541.399	18673.76
541.764	18861.33
542.129	18861.55
542.494	18935
542.858	19004.83
543.223	18946.07
543.587	19103.35
543.952	19173.63
544.316	19222.22
544.681	19253.18
545.045	19407.75
545.41	19443.91
545.774	19413.18
546.138	19449.11
546.503	19579.27
546.867	19673.73
547.231	19817.91
547.595	19861.3
547.959	19934.52
548.324	20021.07
548.688	19991.92
549.052	20188.52
549.416	20082.08
549.779	20156.43
550.143	20235.3
550.507	20413.15
550.871	20387.16
551.235	20480.04
551.599	20654.73
551.962	20614.05
552.326	20750.77
552.689	20772.69
553.053	20715.06
553.417	20783.99
553.78	21030.99
554.143	21100.82
554.507	21155.96
554.87	21235.05
555.234	21482.05
555.597	21267.36
555.96	21496.51
556.323	21572.67
556.686	21644.76
557.05	21751.42
557.413	21788.93
557.776	21978.31
558.139	22005.65
558.502	22161.58
558.865	22113.67
559.228	22403.83
559.59	22452.19
559.953	22465.07
560.316	22817.15
560.679	22667.55
561.041	22929.92
561.404	23095.34
561.767	23181.21
562.129	23274.32
562.492	23375.78
562.854	23444.71
563.217	23532.84
563.579	23619.17
563.941	23764.25
564.304	23873.62
564.666	24088.53
565.028	24309.54
565.39	24194.52
565.753	24568.07
566.115	24649.2
566.477	24764
566.839	24809.64
567.201	24996.98
567.563	25102.74
567.925	25336.18
568.287	25382.28
568.648	25502.51
569.01	25704.99
569.372	25968.03
569.734	25960.8
570.095	26131.87
570.457	26308.81
570.819	26417.06
571.18	26505.64
571.542	26805.52
571.903	26800.78
572.265	27021.34
572.626	27182.46
572.987	27410.25
573.349	27452.51
573.71	27563.7
574.071	27775.89
574.432	28039.16
574.794	28125.72
575.155	28216.11
575.516	28262.21
575.877	28525.03
576.238	28667.17
576.599	28751.69
576.96	28880.27
577.32	29002.75
577.681	29151.45
578.042	29413.37
578.403	29447.49
578.763	29599.12
579.124	29545.11
579.485	29917.53
579.845	30173.8
580.206	30133.57
580.566	30329.27
580.927	30324.08
581.287	30816.49
581.648	30658.53
582.008	30921.35
582.368	31002.7
582.728	31246.99
583.089	31439.3
583.449	31616.7
583.809	31759.97
584.169	31968.55
584.529	32125.38
584.889	32630.68
585.249	32469.1
585.609	32613.28
585.969	33249.2
586.329	33259.82
586.688	33647.83
587.048	33935.28
587.408	34057.54
587.768	34396.74
588.127	34712.43
588.487	34934.8
588.846	35471.51
589.206	35594.22
589.565	35957.83
589.925	36437.81
590.284	36724.13
590.643	36995.76
591.003	37448.18
591.362	38101.5
591.721	38416.74
592.08	38761.59
592.44	39322.71
592.799	39520.67
593.158	40026.42
593.517	40417.82
593.876	41081.76
594.235	41391.81
594.593	41720.61
594.952	42270.65
595.311	42463.19
595.67	43236.5
596.029	43805.75
596.387	44179.76
596.746	44777.25
597.104	44999.62
597.463	45404.36
597.822	46111.01
598.18	46356.42
598.538	46643.19
598.897	47419.22
599.255	47527.24
599.613	48364.96
599.972	48374
600.33	48938.5
600.688	49184.6
601.046	49660.06
601.404	50254.17
601.762	50480.16
602.12	50918.11
602.478	51206.69
602.836	51526.23
603.194	51585.89
603.552	52092.32
603.91	52183.39
604.268	52638.74
604.625	52918.06
604.983	53208.9
605.341	53390.59
605.698	53758.71
606.056	54118.48
606.413	54197.57
606.771	54586.49
607.128	54744.68
607.485	54864
607.843	55111.67
608.2	55363.42
608.557	55644.54
608.914	55809.06
609.272	56035.72
609.629	56287.69
609.986	56548.47
610.343	56682.25
610.7	57030.27
611.057	57077.72
611.414	57167.66
611.771	57526.3
612.127	57682
612.484	57807.87
612.841	58008.55
613.198	58009.22
613.554	58200.18
613.911	58441.75
614.267	58583.22
614.624	58699.83
614.98	58853.95
615.337	59174.39
615.693	59101.85
616.05	59272.69
616.406	59420.94
616.762	59486.92
617.118	59551.33
617.475	59667.71
617.831	59852.11
618.187	59952.68
618.543	60095.27
618.899	60271.54
619.255	60277.86
619.611	60372.55
619.967	60470.85
620.323	60661.36
620.678	60662.03
621.034	60685.09
621.39	60775.03
621.746	60838.08
622.101	61087.79
622.457	60986.77
622.812	61182.25
623.168	61182.7
623.523	61262.92
623.879	61396.7
624.234	61252.08
624.589	61478.74
624.945	61510.15
625.3	61592.63
625.655	61638.28
626.01	61634.21
626.365	61650.94
626.72	61622.46
627.075	61737.03
627.43	61763.7
627.785	61810.03
628.14	61808.45
628.495	61907.43
628.85	61885.51
629.205	61828.33
629.559	61954.43
629.914	61942
630.269	61961.66
630.623	61873.08
630.978	61892.74
631.332	62045.5
631.687	62024.48
632.041	61984.71
632.396	62006.86
632.75	61927.99
633.104	62014.99
633.459	61904.04
633.813	61915.56
634.167	61919.85
634.521	61922.11
634.875	61980.64
635.229	61920.53
635.583	61858.84
635.937	61902.23
636.291	61880.53
636.645	61823.13
636.999	61799.63
637.352	61854.77
637.706	61688
638.06	61836.24
638.413	61744.94
638.767	61673.08
639.121	61722.12
639.474	61638.28
639.828	61668.79
640.181	61611.39
640.534	61694.1
640.888	61641.9
641.241	61508.79
641.594	61597.38
641.947	61702.69
642.301	61587.66
642.654	61611.61
643.007	61494.33
643.36	61572.29
643.713	61477.61
644.066	61639.41
644.419	61416.37
644.771	61185.41
645.124	60953.1
645.477	60969.37
645.83	60874.46
646.182	60871.75
646.535	60823.39
646.888	60880.56
647.24	60762.37
647.593	60918.98
647.945	60806.66
648.298	60759.89
648.65	60696.61
649.002	60469.05
649.355	60517.86
649.707	60431.31
650.059	60467.92
650.411	60724.18
650.763	60835.59
651.115	61123.04
651.467	61086.66
651.819	61033.55
652.171	61059.31
652.523	60968.69
652.875	60955.59
653.227	60919.2
653.578	61072.87
653.93	60954.91
654.282	60848.7
654.633	60896.83
654.985	60916.04
655.337	60904.97
655.688	60889.6
656.039	60929.37
656.391	60763.73
656.742	60775.48
657.094	60813.67
657.445	60821.58
657.796	60806.89
658.147	60744.52
658.498	60809.15
658.849	60866.1
659.2	60752.88
659.551	60700.9
659.902	60878.07
660.253	60667.91
660.604	60864.29
660.955	60627.69
661.306	60709.72
661.656	60665.88
662.007	60676.95
662.358	60719.21
662.708	60723.05
663.059	60703.84
663.409	60494.81
663.76	60688.02
664.11	60673.11
664.461	60678.53
664.811	60638.98
665.161	60598.31
665.511	60549.27
665.862	60611.41
666.212	60624.75
666.562	60627.23
666.912	60624.75
667.262	60532.09
667.612	60580
667.962	60568.93
668.312	60523.96
668.662	60618.19
669.011	60507.24
669.361	60483.06
669.711	60606.9
670.06	60456.84
670.41	60480.57
670.76	60461.59
671.109	60534.35
671.459	60511.3
671.808	60450.52
672.157	60514.92
672.507	60361.7
672.856	60395.6
673.205	60450.52
673.554	60395.38
673.904	60348.14
674.253	60554.24
674.602	60434.92
674.951	60152.67
675.3	59977.53
675.649	60407.8
675.998	60375.94
676.346	60419.1
676.695	60436.73
677.044	60302.04
677.393	60328.48
677.741	60375.26
678.09	60333.23
678.438	60268.6
678.787	60352.21
679.135	60323.96
679.484	60130.3
679.832	60181.14
680.181	60176.62
680.529	60214.82
680.877	60116.74
681.225	60061.15
681.573	60287.36
681.922	60049.4
682.27	60010.07
682.618	60020.02
682.966	60008.94
683.314	60057.76
683.661	59971.43
684.009	59871.1
684.357	59845.33
684.705	59768.73
685.053	59817.09
685.4	59691.66
685.748	59703.87
686.095	59668.84
686.443	59534.38
686.79	59498
687.138	59621.61
687.485	59568.05
687.832	59469.3
688.18	59491.9
688.527	59436.98
688.874	59339.36
689.221	59378.23
689.568	59180.49
689.915	59208.97
690.262	59247.61
690.609	59168.97
690.956	59122.87
691.303	59079.93
691.65	59005.13
691.997	58921.06
692.344	58899.14
692.69	58743.22
693.037	58882.19
693.383	58677.68
693.73	58681.07
694.077	58585.25
694.423	58585.93
694.769	58534.41
695.116	58442.66
695.462	58326.5
695.808	58333.96
696.155	58363.34
696.501	58165.15
696.847	58221.2
697.193	58034.99
697.539	58056.23
697.885	57867.53
698.231	57842.45
698.577	57860.07
698.923	57840.87
699.269	57630.93
699.614	57586.64
699.96	57455.34
700.306	57541.89
700.651	57362.69
700.997	57308
701.342	57287.89
701.688	57235.23
702.033	57110.49
702.379	57079.08
702.724	56951.62
703.069	57058.97
703.415	56778.07
703.76	56705.3
704.105	56754.34
704.45	56661.91
704.795	56525.42
705.14	56495.82
705.485	56487
705.83	56296.05
706.175	56443.39
706.52	56201.59
706.865	56164.98
707.209	56061.03
707.554	56067.81
707.899	56041.59
708.243	55912.56
708.588	55922.27
708.932	55750.07
709.277	55734.25
709.621	55646.57
709.966	55481.61
710.31	55502.17
710.654	55391.67
710.998	55359.58
711.342	55362.74
711.687	55258.34
712.031	55236.64
712.375	55138.56
712.719	55011.56
713.063	55010.21
713.407	55120.71
713.75	54927.04
714.094	54928.63
714.438	54776.99
714.782	54810.44
715.125	54607.05
715.469	54870.55
715.812	54575.64
716.156	54517.11
716.499	54446.61
716.843	54552.14
717.186	54289.32
717.53	54531.12
717.873	54426.49
718.216	54312.82
718.559	54297
718.902	53982.66
719.246	54076.45
719.589	54008.65
719.932	53887.07
720.275	53981.98
720.617	53927.75
720.96	53832.61
721.303	53799.84
721.646	53869.22
721.989	53673.97
722.331	53709
722.674	53593.97
723.016	53530.47
723.359	53433.07
723.701	53459.96
724.044	53399.4
724.386	53262.46
724.729	53436.91
725.071	53324.37
725.413	53336.58
725.755	53185.17
726.097	53119.18
726.439	53000.77
726.782	53113.31
727.124	53249.35
727.465	53027.66
727.807	52962.8
728.149	52954.21
728.491	52940.43
728.833	52912.63
729.175	52892.07
729.516	52745.86
729.858	52739.53
730.199	52836.25
730.541	52716.71
730.882	52650.27
731.224	52696.82
731.565	52490.5
731.906	52535.92
732.248	52519.42
732.589	52446.66
732.93	52436.26
733.271	52396.94
733.612	52324.63
733.953	52483.72
734.294	52363.95
734.635	52186.33
734.976	52409.82
735.317	52196.27
735.658	52137.51
735.999	52071.07
736.339	52155.59
736.68	52151.75
737.021	52057.29
737.361	51978.42
737.702	52108.36
738.042	51970.96
738.383	52041.47
738.723	52090.73
739.063	51925.32
739.404	51989.72
739.744	51930.29
740.084	51826.56
740.424	51953.34
740.764	51856.84
741.104	51961.7
741.444	51629.05
741.784	51625.44
742.124	51881.7
742.464	51703.85
742.804	51675.15
743.143	51545.44
743.483	51580.47
743.823	51508.38
744.162	51540.24
744.502	51523.97
744.841	51404.88
745.181	51560.35
745.52	51423.86
745.86	51629.73
746.199	51453.24
746.538	51339.34
746.877	51511.32
747.216	51561.71
747.556	51326.91
747.895	51271.77
748.234	51398.32
748.573	51306.8
748.911	51229.74
749.25	51266.58
749.589	51069.52
749.928	51177.31
750.267	51300.93
750.605	51071.78
750.944	51049.63
751.283	50959.24
751.621	51028.62
751.96	50931.67
752.298	50780.71
752.636	50967.15
752.975	50886.7
753.313	50770.54
753.651	50923.53
753.989	50728.74
754.327	50766.25
754.666	50410.55
755.004	50608.74
755.342	50531.23
755.679	50534.62
