Data from 17-5722_FLMS001491_007.txt Node
Date: Thu Apr 19 15:14:42 BST 2018
User: hsy
Spectrometer: FLMS00149
Trigger mode: 0
Integration Time (sec): 1.000000E-2
Scans to average: 10
Electric dark correction enabled: true
Nonlinearity correction enabled: false
Boxcar width: 0
XAxis mode: Wavelengths
Number of Pixels in Spectrum: 2048
>>>>>Begin Spectral Data<<<<<
341.393	-15.18
341.776	-15.18
342.16	-15.18
342.543	-41.62
342.927	-62.41
343.31	-82.07
343.693	-59.02
344.077	-70.1
344.46	-65.58
344.843	-49.31
345.226	-42.75
345.61	-33.71
345.993	-29.87
346.376	3.8
346.759	14.19
347.142	19.17
347.525	41.54
347.908	52.84
348.291	74.31
348.674	106.62
349.057	119.95
349.44	134.64
349.823	154.08
350.206	177.13
350.588	245.83
350.971	242.89
351.354	282.89
351.737	278.37
352.119	279.5
352.502	286.05
352.884	299.38
353.267	314.75
353.65	319.72
354.032	343.23
354.414	356.11
354.797	350.68
355.179	347.52
355.562	357.24
355.944	377.57
356.326	377.12
356.709	380.96
357.091	374.19
357.473	395.2
357.855	371.7
358.238	386.39
358.62	392.49
359.002	362.43
359.384	346.39
359.766	387.29
360.148	402.66
360.53	394.98
360.912	382.32
361.294	370.8
361.676	370.57
362.057	386.16
362.439	374.19
362.821	354.07
363.203	353.62
363.584	395.2
363.966	367.18
364.348	360.85
364.729	366.28
365.111	362.21
365.493	387.97
365.874	365.15
366.256	370.8
366.637	366.95
367.019	351.13
367.4	361.3
367.781	360.85
368.163	372.6
368.544	369.67
368.925	372.6
369.306	382.32
369.688	374.86
370.069	356.56
370.45	370.34
370.831	371.25
371.212	371.7
371.593	362.43
371.974	365.37
372.355	361.98
372.736	386.84
373.117	392.26
373.498	369.21
373.879	360.63
374.26	383.45
374.641	376.44
375.021	349.1
375.402	390.91
375.783	385.03
376.163	394.3
376.544	402.88
376.925	407.4
377.305	390
377.686	396.11
378.066	393.85
378.447	401.98
378.827	391.13
379.208	385.03
379.588	382.09
379.968	392.49
380.349	427.97
380.729	421.42
381.109	394.07
381.489	418.25
381.87	417.57
382.25	379.61
382.63	432.26
383.01	436.1
383.39	411.02
383.77	436.78
384.15	420.74
384.53	451.47
384.91	436.78
385.29	434.97
385.67	445.37
386.049	432.49
386.429	438.36
386.809	454.41
387.189	454.18
387.568	433.62
387.948	456.89
388.328	464.58
388.707	443.79
389.087	452.83
389.466	457.12
389.846	478.82
390.225	482.88
390.605	476.33
390.984	479.04
391.363	471.36
391.743	476.1
392.122	499.83
392.501	490.79
392.881	482.88
393.26	504.8
393.639	505.93
394.018	484.24
394.397	529.89
394.776	534.41
395.155	514.29
395.534	533.28
395.913	539.38
396.292	547.06
396.671	524.24
397.05	532.15
397.429	533.28
397.808	533.5
398.186	522.66
398.565	531.24
398.944	561.52
399.323	535.76
399.701	560.17
400.08	560.17
400.458	562.2
400.837	552.71
401.215	592.48
401.594	571.24
401.972	578.25
402.351	581.64
402.729	604.01
403.107	588.42
403.486	612.14
403.864	600.39
404.242	608.3
404.62	619.83
404.999	632.71
405.377	619.6
405.755	637
406.133	646.04
406.511	622.31
406.889	631.13
407.267	654.4
407.645	682.88
408.023	673.84
408.401	690.11
408.779	681.3
409.156	697.57
409.534	709.32
409.912	695.08
410.29	717
410.667	725.81
411.045	724.23
411.422	762.65
411.8	745.47
412.178	768.75
412.555	762.88
412.933	780.05
413.31	809.2
413.687	799.94
414.065	796.32
414.442	814.17
414.819	819.82
415.197	818.47
415.574	829.54
415.951	833.83
416.328	812.37
416.705	855.53
417.082	862.99
417.46	829.54
417.837	864.34
418.214	862.53
418.591	860.05
418.967	877
419.344	917.67
419.721	884.45
420.098	919.03
420.475	917.67
420.852	938.01
421.228	958.8
421.605	960.61
421.982	969.88
422.358	963.55
422.735	971.23
423.111	978.46
423.488	982.98
423.864	1004.23
424.241	1008.29
424.617	1013.04
424.994	1021.17
425.37	1052.81
425.746	1046.26
426.123	1037.9
426.499	1058.01
426.875	1074.05
427.251	1072.02
427.627	1090.1
428.003	1110.89
428.379	1132.13
428.756	1133.94
429.132	1133.26
429.507	1142.07
429.883	1181.4
430.259	1167.16
430.635	1209.19
431.011	1192.47
431.387	1222.52
431.763	1220.72
432.138	1249.64
432.514	1274.05
432.89	1262.98
433.265	1310.43
433.641	1313.14
434.016	1334.39
434.392	1340.49
434.767	1381.39
435.143	1390.43
435.518	1375.51
435.894	1410.99
436.269	1418.45
436.644	1431.33
437.02	1430.43
437.395	1466.36
437.77	1451.67
438.145	1475.63
438.52	1506.36
438.895	1524.66
439.271	1524.66
439.646	1536.87
440.021	1541.84
440.395	1585.23
440.77	1555.17
441.145	1581.16
441.52	1592.46
441.895	1601.5
442.27	1608.5
442.645	1602.85
443.019	1615.73
443.394	1671.78
443.769	1625.9
444.143	1659.8
444.518	1680.37
444.892	1681.04
445.267	1691.21
445.641	1698.9
446.016	1708.84
446.39	1727.37
446.764	1761.95
447.139	1725.34
447.513	1745.67
447.887	1766.46
448.262	1767.59
448.636	1770.31
449.01	1813.92
449.384	1820.47
449.758	1777.09
450.132	1874.03
450.506	1903.86
450.88	1844.43
451.254	1863.19
451.628	1889.17
452.002	1910.87
452.376	1952.67
452.75	1960.58
453.123	1971.88
453.497	1992.9
453.871	2036.51
454.244	2078.77
454.618	2078.55
454.992	2087.81
455.365	2098.21
455.739	2127.13
456.112	2165.32
456.486	2186.79
456.859	2198.09
457.232	2258.43
457.606	2255.27
457.979	2320.8
458.352	2348.37
458.725	2351.31
459.099	2366
459.472	2442.83
459.845	2454.81
460.218	2500.23
460.591	2508.37
460.964	2505.65
461.337	2558.99
461.71	2605.54
462.083	2692.32
462.456	2597.63
462.829	2647.8
463.201	2701.58
463.574	2727.12
463.947	2748.13
464.32	2824.06
464.692	2812.54
465.065	2850.05
465.438	2875.81
465.81	2911.29
466.183	2926.66
466.555	2962.14
466.928	3037.39
467.3	2995.13
467.672	3058.41
468.045	3099.99
468.417	3145.19
468.789	3142.93
469.161	3193.32
469.534	3251.4
469.906	3277.16
470.278	3310.15
470.65	3381.34
471.022	3431.51
471.394	3482.58
471.766	3475.35
472.138	3542.92
472.51	3642.8
472.882	3629.69
473.253	3678.28
473.625	3729.8
473.997	3819.29
474.369	3813.42
474.74	3885.51
475.112	3921.21
475.484	4013.64
475.855	4105.61
476.227	4114.43
476.598	4233.97
476.97	4240.3
477.341	4332.27
477.713	4417.47
478.084	4482.1
478.455	4559.61
478.827	4580.4
479.198	4729.55
479.569	4812.26
479.94	4868.53
480.311	4945.14
480.682	5088.41
481.053	5185.13
481.424	5280.5
481.795	5255.19
482.166	5416.09
482.537	5461.06
482.908	5582.86
483.279	5675.06
483.65	5758.45
484.021	5843.42
484.391	5969.29
484.762	6048.84
485.133	6131.32
485.503	6193.24
485.874	6364.99
486.244	6432.33
486.615	6614.02
486.985	6714.13
487.356	6732.21
487.726	6911.41
488.097	7054.01
488.467	7131.52
488.837	7307.79
489.207	7445.41
489.578	7566.76
489.948	7650.38
490.318	7760.21
490.688	7863.03
491.058	8028.22
491.428	8183.7
491.798	8286.29
492.168	8489.9
492.538	8502.78
492.908	8760.18
493.278	8836.79
493.648	8917.46
494.017	9093.28
494.387	9216.44
494.757	9319.94
495.126	9446.26
495.496	9536.66
495.866	9705.92
496.235	9813.48
496.605	9980.49
496.974	10108.62
497.344	10291.21
497.713	10354.49
498.082	10383.41
498.452	10629.06
498.821	10790.86
499.19	10819.56
499.559	10928.03
499.928	11122.6
500.298	11217.06
500.667	11342.48
501.036	11438.53
501.405	11571.86
501.774	11674
502.143	11787.67
502.512	11886.65
502.88	12134.55
503.249	12160.54
503.618	12321.67
503.987	12394.66
504.356	12539.97
504.724	12680.3
505.093	12773.86
505.462	12927.98
505.83	13045.26
506.199	13233.96
506.567	13343.11
506.936	13380.17
507.304	13585.14
507.672	13673.04
508.041	13779.48
508.409	13814.96
508.777	14061.06
509.145	14182.18
509.514	14202.52
509.882	14324.78
510.25	14427.37
510.618	14450.88
510.986	14594.83
511.354	14720.93
511.722	14919.11
512.09	14983.29
512.458	15099.45
512.826	15172.21
513.193	15209.95
513.561	15369.27
513.929	15521.13
514.297	15571.07
514.664	15617.4
515.032	15779.43
515.4	15885.19
515.767	15913.66
516.135	16010.16
516.502	15998.86
516.869	16343.26
517.237	16371.05
517.604	16197.72
517.972	16425.51
518.339	16524.04
518.706	16596.36
519.073	16726.52
519.44	16816.01
519.808	17048.1
520.175	16973.75
520.542	17231.37
520.909	17221.65
521.276	17318.6
521.643	17393.85
522.009	17398.82
522.376	17667.29
522.743	17736.44
523.11	17959.49
523.477	17987.28
523.843	18055.3
524.21	18249.2
524.577	18357.67
524.943	18375.29
525.31	18605.8
525.676	18749.75
526.043	18930.99
526.409	18872.46
526.776	19129.85
527.142	19161.94
527.508	19167.82
527.874	19364.65
528.241	19366.23
528.607	19349.51
528.973	19678.54
529.339	19614.36
529.705	19819.78
530.071	19984.52
530.437	19960.34
530.803	20027
531.169	20139.32
531.535	20187
531.901	20165.08
532.267	20295.47
532.632	20392.42
532.998	20462.24
533.364	20549.47
533.73	20612.07
534.095	20776.59
534.461	20738.4
534.826	20753.31
535.192	20818.39
535.557	20971.84
535.923	20826.75
536.288	20914.21
536.653	21006.41
537.019	20959.18
537.384	21047.99
537.749	21022.46
538.114	21139.29
538.479	21053.64
538.845	21086.18
539.21	21021.1
539.575	21158.95
539.94	21220.42
540.305	21267.42
540.67	21225.84
541.034	21235.33
541.399	21222.45
541.764	21320.08
542.129	21257.48
542.494	21227.42
542.858	21281.88
543.223	21216.8
543.587	21303.13
543.952	21266.07
544.316	21320.53
544.681	21105.62
545.045	21298.38
545.41	21342.67
545.774	21243.47
546.138	21257.93
546.503	21353.75
546.867	21294.76
547.231	21398.04
547.595	21418.6
547.959	21465.61
548.324	21385.61
548.688	21367.53
549.052	21434.87
549.416	21286.4
549.779	21431.48
550.143	21425.83
550.507	21377.93
550.871	21415.21
551.235	21306.06
551.599	21544.02
551.962	21523.46
552.326	21397.14
552.689	21497.25
553.053	21339.28
553.417	21476
553.78	21687.07
554.143	21572.5
554.507	21599.16
554.87	21590.58
555.234	21633.29
555.597	21481.2
555.96	21570.46
556.323	21598.26
556.686	21570.01
557.05	21689.78
557.413	21665.15
557.776	21729.78
558.139	21818.59
558.502	21725.71
558.865	21809.55
559.228	21987.18
559.59	21873.05
559.953	21899.72
560.316	22085.03
560.679	21972.04
561.041	22234.18
561.404	22203.89
561.767	22289.54
562.129	22229.43
562.492	22383.32
562.854	22452.93
563.217	22329.99
563.579	22417.9
563.941	22633.26
564.304	22596.65
564.666	22820.37
565.028	22725.69
565.39	22777.21
565.753	22914.38
566.115	22924.55
566.477	23006.81
566.839	23063.53
567.201	23375.16
567.563	23287.48
567.925	23464.43
568.287	23481.6
568.648	23531.09
569.01	23641.37
569.372	23862.83
569.734	23691.76
570.095	24018.54
570.457	24020.57
570.819	24035.26
571.18	24047.46
571.542	24205.2
571.903	24238.42
572.265	24395.7
572.626	24536.49
572.987	24564.51
573.349	24631.85
573.71	24735.13
574.071	24778.52
574.432	24944.39
574.794	25106.64
575.155	25066.42
575.516	25022.58
575.877	25152.74
576.238	25090.6
576.599	25269.35
576.96	25343.7
577.32	25454.88
577.681	25464.37
578.042	25592.73
578.403	25702.33
578.763	25587.53
579.124	25613.3
579.485	25824.14
579.845	25856.68
580.206	25800.64
580.566	25879.5
580.927	25860.75
581.287	26002.66
581.648	25906.85
582.008	26064.13
582.368	25958.82
582.728	26021.87
583.089	26220.74
583.449	26096.9
583.809	26091.93
584.169	26087.63
584.529	26116.79
584.889	26296.44
585.249	26213.51
585.609	26125.6
585.969	26279.94
586.329	26287.85
586.688	26310.9
587.048	26291.02
587.408	26332.15
587.768	26177.57
588.127	26294.18
588.487	26330.34
588.846	26523.55
589.206	26307.06
589.565	26338.47
589.925	26394.74
590.284	26531.69
590.643	26369.21
591.003	26475.87
591.362	26576.21
591.721	26691.69
592.08	26602.42
592.44	26754.51
592.799	26635.42
593.158	26578.92
593.517	26594.29
593.876	26739.82
594.235	26791.8
594.593	26697.56
594.952	26701.85
595.311	26676.77
595.67	26728.75
596.029	26879.7
596.387	26807.84
596.746	26985.24
597.104	26860.49
597.463	26774.85
597.822	26901.4
598.18	26777.56
598.538	26805.58
598.897	26962.19
599.255	26734.4
599.613	27125.35
599.972	26822.76
600.33	27012.35
600.688	27026.82
601.046	26910.44
601.404	27168.28
601.762	27059.59
602.12	27268.85
602.478	27133.03
602.836	27228.17
603.194	27087.83
603.552	27115.18
603.91	27168.73
604.268	27214.61
604.625	27229.75
604.983	27387.03
605.341	27112.01
605.698	27322.86
606.056	27397.88
606.413	27328.05
606.771	27391.1
607.128	27371.67
607.485	27332.35
607.843	27379.8
608.2	27509.29
608.557	27582.51
608.914	27464.09
609.272	27653.92
609.629	27699.79
609.986	27828.83
610.343	27842.39
610.7	27895.27
611.057	27879.22
611.414	27854.82
611.771	27846.68
612.127	27943.4
612.484	27902.27
612.841	28002.39
613.198	27897.98
613.554	28004.19
613.911	28128.94
614.267	28187.69
614.624	27968.49
614.98	28076.96
615.337	28393.11
615.693	28266.33
616.05	28358.31
616.406	28362.38
616.762	28348.82
617.118	28335.94
617.475	28401.7
617.831	28634.68
618.187	28618.87
618.543	28623.61
618.899	28912.87
619.255	28689.15
619.611	28681.46
619.967	28804.62
620.323	28797.84
620.678	28757.85
621.034	28732.54
621.39	28749.71
621.746	28687.56
622.101	29039.65
622.457	28762.59
622.812	28925.75
623.168	28975.69
623.523	29088.46
623.879	28982.02
624.234	28940.21
624.589	29005.07
624.945	28976.14
625.3	29001.68
625.655	29007.78
626.01	29054.11
626.365	29051.85
626.72	28991.06
627.075	28936.82
627.43	28989.48
627.785	29021.34
628.14	28966.2
628.495	29045.52
628.85	29097.27
629.205	28897.05
629.559	29026.77
629.914	28992.87
630.269	28958.97
630.623	28879.65
630.978	28818.86
631.332	28880.1
631.687	28992.87
632.041	28906.99
632.396	29044.84
632.75	28822.25
633.104	28808.69
633.459	28817.73
633.813	28711.75
634.167	28706.55
634.521	28511.3
634.875	28626.32
635.229	28457.06
635.583	28369.83
635.937	28375.26
636.291	28418.19
636.645	28445.76
636.999	28251.87
637.352	28419.78
637.706	28418.65
638.06	28328.7
638.413	28296.39
638.767	28128.94
639.121	28260.23
639.474	28137.3
639.828	27976.62
640.181	28094.36
640.534	28144.98
640.888	28023.85
641.241	27903.63
641.594	28000.8
641.947	28005.1
642.301	27919.22
642.654	27897.98
643.007	27855.5
643.36	27967.13
643.713	27872.9
644.066	28010.97
644.419	27858.21
644.771	27458.67
645.124	27264.1
645.477	27234.95
645.83	27154.05
646.182	27212.8
646.535	27092.13
646.888	27243.31
647.24	27135.97
647.593	27227.26
647.945	27154.5
648.298	27094.39
648.65	26949.53
649.002	26891.91
649.355	26784.79
649.707	26567.62
650.059	26706.83
650.411	26957.67
650.763	27258
651.115	27754.71
651.467	27547.93
651.819	27595.16
652.171	27427.03
652.523	27414.15
652.875	27617.08
653.227	27387.26
653.578	27626.8
653.93	27632.45
654.282	27470.42
654.633	27403.3
654.985	27510.65
655.337	27543.19
655.688	27545.67
656.039	27556.75
656.391	27320.6
656.742	27554.04
657.094	27445.56
657.445	27526.01
657.796	27600.81
658.147	27601.27
658.498	27607.59
658.849	27631.1
659.2	27594.71
659.551	27574.37
659.902	27781.83
660.253	27703.18
660.604	27794.71
660.955	27638.1
661.306	27812.33
661.656	27761.04
662.007	27800.81
662.358	27787.48
662.708	27825.44
663.059	27866.8
663.409	27732.11
663.76	27864.54
664.11	27919
664.461	27884.2
664.811	28022.27
665.161	27992.67
665.511	28005.77
665.862	27890.52
666.212	27981.37
666.562	27968.04
666.912	27969.17
667.262	27931.65
667.612	27977.3
667.962	28011.88
668.312	27958.32
668.662	28075.6
669.011	28020.24
669.361	27989.05
669.711	28016.85
670.06	27903.86
670.41	27867.47
670.76	27821.15
671.109	28066.34
671.459	27966.91
671.808	27961.48
672.157	28021.14
672.507	27713.58
672.856	27728.95
673.205	27874.03
673.554	27861.15
673.904	27761.94
674.253	27948.83
674.602	27825.67
674.951	27497.99
675.3	27152.46
675.649	27776.18
675.998	27654.37
676.346	27730.08
676.695	27745.44
677.044	27535.96
677.393	27632.23
677.741	27696.63
678.09	27611.44
678.438	27606.01
678.787	27487.37
679.135	27549.06
679.484	27496.86
679.832	27434.26
680.181	27286.7
680.529	27367.15
680.877	27331.44
681.225	27237.43
681.573	27431.1
681.922	27121.28
682.27	27214.84
682.618	27041.05
682.966	26956.99
683.314	26996.99
683.661	27036.99
684.009	26835.86
684.357	26824.56
684.705	26705.24
685.053	26754.28
685.4	26640.16
685.748	26531.24
686.095	26498.24
686.443	26280.4
686.79	26410.11
687.138	26325.82
687.485	26458.7
687.832	26242.21
688.18	26113.62
688.527	26073.17
688.874	26100.97
689.221	25952.04
689.568	25870.01
689.915	25687.87
690.262	25752.5
690.609	25677.7
690.956	25441.55
691.303	25521.09
691.65	25398.16
691.997	25402.91
692.344	25202.91
692.69	24988.45
693.037	25184.83
693.383	24859.87
693.73	24874.56
694.077	24848.57
694.423	24744.62
694.769	24570.84
695.116	24548.24
695.462	24383.27
695.808	24271.18
696.155	24355.48
696.501	24171.3
696.847	24162.71
697.193	23934.47
697.539	24014.24
697.885	23761.82
698.231	23714.36
698.577	23662.16
698.923	23563.18
699.269	23376.29
699.614	23267.37
699.96	23126.58
700.306	23169.74
700.651	23052.68
700.997	23033.93
701.342	22890.2
701.688	22901.5
702.033	22654.73
702.379	22693.15
702.724	22503.09
703.069	22541.06
703.415	22324.79
703.76	22287.96
704.105	22233.95
704.45	22151.69
704.795	21942.66
705.14	21964.8
705.485	21913.51
705.83	21720.97
706.175	21905.82
706.52	21839.61
706.865	21682.1
707.209	21524.14
707.554	21422.67
707.899	21523.46
708.243	21284.82
708.588	21290.7
708.932	21135.9
709.277	21163.92
709.621	21070.59
709.966	21045.73
710.31	20942.01
710.654	20767.1
710.998	20807.09
711.342	20906.07
711.687	20719.64
712.031	20738.85
712.375	20654.33
712.719	20543.82
713.063	20620.43
713.407	20606.65
713.75	20610.26
714.094	20527.1
714.438	20491.62
714.782	20467.89
715.125	20278.07
715.469	20473.09
715.812	20341.34
716.156	20324.85
716.499	20239.2
716.843	20268.13
717.186	20226.77
717.53	20289.82
717.873	20387.67
718.216	20265.41
718.559	20167.11
718.902	20058.41
719.246	20055.02
719.589	20028.36
719.932	20043.27
720.275	20036.04
720.617	20024.29
720.96	19939.09
721.303	20017.06
721.646	20032.2
721.989	19988.36
722.331	19992.2
722.674	19961.92
723.016	20044.18
723.359	19980.45
723.701	19934.57
724.044	19898.42
724.386	19827.23
724.729	19927.57
725.071	19908.13
725.413	19963.05
725.755	19913.78
726.097	19848.25
726.439	19865.42
726.782	19815.26
727.124	19996.72
727.465	19870.4
727.807	19947.91
728.149	19962.37
728.491	19877.18
728.833	19984.52
729.175	19984.29
729.516	19936.61
729.858	19930.28
730.199	19920.56
730.541	20013.67
730.882	19959.21
731.224	20001.01
731.565	19989.71
731.906	20031.97
732.248	20091.86
732.589	20060.67
732.93	20083.72
733.271	20148.81
733.612	20119.88
733.953	20266.09
734.294	20142.25
734.635	20243.72
734.976	20420.66
735.317	20276.26
735.658	20310.84
735.999	20361
736.339	20309.93
736.68	20515.8
737.021	20473.77
737.361	20426.99
737.702	20713.99
738.042	20648.68
738.383	20641.67
738.723	20720.77
739.063	20707.66
739.404	20906.53
739.744	20907.88
740.084	20931.84
740.424	21093.41
740.764	21174.09
741.104	21313.75
741.444	21299.96
741.784	21256.57
742.124	21439.85
742.464	21489.56
742.804	21540.41
743.143	21739.27
743.483	21816.79
743.823	21778.14
744.162	22021.3
744.502	22072.82
744.841	22207.28
745.181	22332.7
745.52	22423.32
745.86	22631.68
746.199	22608.63
746.538	22898.11
746.877	23096.3
747.216	23241.83
747.556	23252.23
747.895	23488.83
748.234	23673.91
748.573	23826.22
748.911	23894.47
749.25	24068.25
749.589	24193.22
749.928	24470.05
750.267	24718.86
750.605	24742.13
750.944	24971.5
751.283	25178.96
751.621	25417.59
751.96	25529.91
752.298	25773.52
752.636	25981.65
752.975	26141.42
753.313	26350.45
753.651	26768.29
753.989	26909.31
754.327	27314.95
754.666	27129.64
755.004	27638.33
755.342	27765.78
