Data from 17-5722_FLMS001491_010.txt Node
Date: Thu Apr 19 15:14:50 BST 2018
User: hsy
Spectrometer: FLMS00149
Trigger mode: 0
Integration Time (sec): 1.000000E-2
Scans to average: 10
Electric dark correction enabled: true
Nonlinearity correction enabled: false
Boxcar width: 0
XAxis mode: Wavelengths
Number of Pixels in Spectrum: 2048
>>>>>Begin Spectral Data<<<<<
341.393	-6.16
341.776	-6.16
342.16	-6.16
342.543	-69.21
342.927	-66.04
343.31	-59.72
343.693	-60.62
344.077	-57
344.46	-60.85
344.843	-65.37
345.226	-40.96
345.61	-34.86
345.993	-7.74
346.376	-9.55
346.759	29.55
347.142	14.18
347.525	33.61
347.908	63.22
348.291	51.24
348.674	102.31
349.057	102.54
349.44	119.26
349.823	128.98
350.206	162.88
350.588	218.92
350.971	207.17
351.354	230.45
351.737	253.5
352.119	276.55
352.502	291.91
352.884	281.29
353.267	333.72
353.65	299.37
354.032	314.29
354.414	311.12
354.797	362.65
355.179	355.41
355.562	349.99
355.944	356.32
356.326	366.71
356.709	367.39
357.091	374.62
357.473	363.78
357.855	359.48
358.238	380.95
358.62	378.92
359.002	382.08
359.384	385.47
359.766	360.39
360.148	353.61
360.53	351.35
360.912	379.14
361.294	378.01
361.676	399.71
362.057	362.65
362.439	382.76
362.821	378.24
363.203	379.14
363.584	374.62
363.966	366.04
364.348	361.06
364.729	373.27
365.111	362.19
365.493	359.93
365.874	350.89
366.256	351.8
366.637	368.3
367.019	350.89
367.4	359.71
367.781	356.54
368.163	352.93
368.544	352.02
368.925	342.76
369.306	370.78
369.688	340.27
370.069	368.3
370.45	366.26
370.831	347.28
371.212	359.03
371.593	350.44
371.974	355.64
372.355	360.61
372.736	363.32
373.117	369.65
373.498	358.13
373.879	369.88
374.26	374.4
374.641	360.61
375.021	359.48
375.402	359.26
375.783	385.24
376.163	375.07
376.544	390.67
376.925	380.95
377.305	385.7
377.686	388.86
378.066	368.3
378.447	387.05
378.827	374.62
379.208	414.17
379.588	388.86
379.968	402.19
380.349	415.07
380.729	396.09
381.109	394.74
381.489	416.66
381.87	411.91
382.25	425.92
382.63	421.85
383.01	407.84
383.39	423.89
383.77	421.4
384.15	419.14
384.53	418.24
384.91	420.05
385.29	443.55
385.67	416.88
386.049	432.02
386.429	425.24
386.809	432.47
387.189	424.11
387.568	427.73
387.948	421.18
388.328	461.4
388.707	441.51
389.087	441.06
389.466	451.23
389.846	472.47
390.225	457.78
390.605	455.07
390.984	473.38
391.363	468.18
391.743	486.48
392.122	492.59
392.501	477.22
392.881	499.14
393.26	465.92
393.639	472.25
394.018	481.74
394.397	499.59
394.776	510.89
395.155	507.27
395.534	493.72
395.913	506.37
396.292	499.37
396.671	502.3
397.05	527.16
397.429	522.42
397.808	519.03
398.186	541.62
398.565	545.92
398.944	561.96
399.323	569.42
399.701	548.63
400.08	545.24
400.458	570.1
400.837	546.82
401.215	550.89
401.594	574.39
401.972	586.59
402.351	562.41
402.729	602.64
403.107	577.78
403.486	578.69
403.864	588.4
404.242	582.08
404.62	593.6
404.999	617.78
405.377	591.11
405.755	602.87
406.133	629.98
406.511	614.16
406.889	626.37
407.267	655.29
407.645	662.3
408.023	679.7
408.401	666.14
408.779	682.64
409.156	686.48
409.534	703.43
409.912	688.06
410.29	722.64
410.667	708.4
411.045	722.41
411.422	723.77
411.8	753.37
412.178	730.09
412.555	754.95
412.933	771.45
413.31	766.03
413.687	769.64
414.065	793.37
414.442	789.53
414.819	792.69
415.197	807.15
415.574	824.78
415.951	826.81
416.328	827.94
416.705	844.22
417.082	833.82
417.46	834.27
417.837	849.86
418.214	828.85
418.591	864.1
418.967	875.85
419.344	871.78
419.721	902.74
420.098	877.89
420.475	900.71
420.852	914.72
421.228	916.98
421.605	915.85
421.982	958.79
422.358	951.56
422.735	961.27
423.111	965.79
423.488	961.95
423.864	948.17
424.241	980.48
424.617	996.53
424.994	992.46
425.37	1008.96
425.746	993.82
426.123	1013.02
426.499	1037.66
426.875	1031.33
427.251	1076.3
427.627	1071.55
428.003	1062.29
428.379	1111.55
428.756	1137.09
429.132	1097.09
429.507	1137.77
429.883	1117.88
430.259	1154.94
430.635	1172.12
431.011	1163.08
431.387	1206.01
431.763	1223.41
432.138	1185.9
432.514	1248.5
432.89	1241.27
433.265	1259.57
433.641	1276.29
434.016	1290.76
434.392	1307.71
434.767	1351.55
435.143	1338.67
435.518	1360.36
435.894	1352.22
436.269	1366.01
436.644	1396.97
437.02	1400.58
437.395	1435.39
437.77	1434.93
438.145	1460.02
438.52	1457.08
438.895	1459.34
439.271	1470.64
439.646	1514.03
440.021	1515.61
440.395	1508.38
440.77	1519
441.145	1562.16
441.52	1558.32
441.895	1565.78
442.27	1566.68
442.645	1576.63
443.019	1582.5
443.394	1621.6
443.769	1591.09
444.143	1609.17
444.518	1670.18
444.892	1642.84
445.267	1650.07
445.641	1672.89
446.016	1677.19
446.39	1669.28
446.764	1704.31
447.139	1709.28
447.513	1694.59
447.887	1765.32
448.262	1735.27
448.636	1750.63
449.01	1741.82
449.384	1784.76
449.758	1766.9
450.132	1812.1
450.506	1801.03
450.88	1833.34
451.254	1814.13
451.628	1848.26
452.002	1880.12
452.376	1937.97
452.75	1921.47
453.123	1936.39
453.497	1966.22
453.871	1967.8
454.244	2002.15
454.618	2041.25
454.992	2086.44
455.365	2043.73
455.739	2115.14
456.112	2135.03
456.486	2152.88
456.859	2184.29
457.232	2221.81
457.606	2221.58
457.979	2249.83
458.352	2269.04
458.725	2321.69
459.099	2324.4
459.472	2348.58
459.845	2380.22
460.218	2422.7
460.591	2417.06
460.964	2464.51
461.337	2523.94
461.71	2504.51
462.083	2580.44
462.456	2575.02
462.829	2589.71
463.201	2664.51
463.574	2661.12
463.947	2687.56
464.32	2702.02
464.692	2781.11
465.065	2789.93
465.438	2829.25
465.81	2855.91
466.183	2882.13
466.555	2919.87
466.928	2935.69
467.3	2946.76
467.672	2956.7
468.045	3052.74
468.417	3055
468.789	3046.87
469.161	3119.64
469.534	3208.45
469.906	3202.35
470.278	3249.8
470.65	3268.56
471.022	3382.23
471.394	3403.7
471.766	3422.9
472.138	3464.49
472.51	3560.08
472.882	3556.69
473.253	3587.87
473.625	3661.54
473.997	3775.44
474.369	3738.6
474.74	3773.18
475.112	3855.89
475.484	3904.93
475.855	3996.45
476.227	4062.21
476.598	4080.51
476.97	4146.05
477.341	4240.28
477.713	4280.73
478.084	4396.66
478.455	4463.55
478.827	4510.56
479.198	4624.91
479.569	4648.63
479.94	4726.37
480.311	4787.16
480.682	4918.23
481.053	5023.99
481.424	5067.83
481.795	5233.03
482.166	5249.97
482.537	5422.85
482.908	5475.05
483.279	5526.13
483.65	5672.11
484.021	5745.33
484.391	5846.8
484.762	5921.37
485.133	5999.33
485.503	6106.9
485.874	6280
486.244	6371.98
486.615	6413.79
486.985	6591.18
487.356	6690.84
487.726	6782.82
488.097	6948.69
488.467	7043.37
488.837	7156.59
489.207	7250.6
489.578	7413.53
489.948	7490.59
490.318	7657.6
490.688	7761.77
491.058	7917.7
491.428	8032.27
491.798	8069.56
492.168	8277.69
492.538	8342.55
492.908	8569.89
493.278	8707.51
493.648	8766.04
494.017	8916.55
494.387	9076.54
494.757	9204.67
495.126	9286.25
495.496	9417.77
495.866	9590.43
496.235	9717.2
496.605	9807.14
496.974	9928.27
497.344	10003.75
497.713	10210.75
498.082	10314.7
498.452	10523.73
498.821	10611.87
499.19	10639.21
499.559	10818.19
499.928	10993.1
500.298	11096.37
500.667	11228.8
501.036	11347.44
501.405	11441.9
501.774	11594.21
502.143	11624.95
502.512	11838.5
502.88	11914.88
503.249	11965.73
503.618	12183.13
503.987	12278.26
504.356	12426.06
504.724	12522.33
505.093	12725.71
505.462	12770.23
505.83	12842.54
506.199	13002.09
506.567	13187.17
506.936	13288.41
507.304	13454.5
507.672	13543.32
508.041	13674.84
508.409	13762.52
508.777	13900.82
509.145	14006.35
509.514	14100.14
509.882	14193.69
510.25	14280.25
510.618	14479.79
510.986	14414.71
511.354	14628.26
511.722	14701.25
512.09	14906.22
512.458	14939.89
512.826	15130.17
513.193	15059.43
513.561	15207.91
513.929	15310.05
514.297	15456.94
514.664	15483.6
515.032	15617.39
515.4	15815.57
515.767	15888.34
516.135	15996.81
516.502	15866.87
516.869	16174.89
517.237	16261.89
517.604	16181.66
517.972	16401.77
518.339	16483.58
518.706	16533.29
519.073	16609.22
519.44	16688.77
519.808	16873.62
520.175	16856.22
520.542	17145.48
520.909	17171.47
521.276	17314.29
521.643	17321.52
522.009	17501.86
522.376	17596.54
522.743	17655.07
523.11	17824.56
523.477	17938.68
523.843	18001.05
524.21	18153.36
524.577	18272.68
524.943	18359.23
525.31	18521.26
525.676	18658.66
526.043	18653.01
526.409	18688.94
526.776	18984.3
527.142	19047.13
527.508	19124.41
527.874	19161.93
528.241	19314.92
528.607	19299.55
528.973	19559.66
529.339	19574.34
529.705	19743.38
530.071	19831.29
530.437	19839.2
530.803	20052.3
531.169	20071.28
531.535	20144.05
531.901	20176.36
532.267	20242.35
532.632	20380.88
532.998	20429.91
533.364	20495.22
533.73	20475.34
534.095	20675.11
534.461	20657.93
534.826	20661.77
535.192	20809.34
535.557	20812.73
535.923	20830.13
536.288	20923.91
536.653	20956.91
537.019	20880.75
537.384	20974.31
537.749	21148.77
538.114	20974.31
538.479	20966.17
538.845	21133.63
539.21	20994.65
539.575	21083
539.94	21094.3
540.305	21122.33
540.67	21210.69
541.034	21145.6
541.399	21160.74
541.764	21233.74
542.129	21202.32
542.494	21211.14
542.858	21260.63
543.223	21029.9
543.587	21196.45
543.952	21225.37
544.316	21188.31
544.681	21112.16
545.045	21274.41
545.41	21325.26
545.774	21312.6
546.138	21212.49
546.503	21268.99
546.867	21188.31
547.231	21336.78
547.595	21223.57
547.959	21205.26
548.324	21221.76
548.688	21228.54
549.052	21214.53
549.416	21249.1
549.779	21276.22
550.143	21223.11
550.507	21302.66
550.871	21400.28
551.235	21144.02
551.599	21464.92
551.962	21362.09
552.326	21454.52
552.689	21334.75
553.053	21160.29
553.417	21263.11
553.78	21520.51
554.143	21526.16
554.507	21433.28
554.87	21413.17
555.234	21659.49
555.597	21435.99
555.96	21506.5
556.323	21488.87
556.686	21595.31
557.05	21678.24
557.413	21657
557.776	21574.29
558.139	21688.86
558.502	21808.86
558.865	21689.99
559.228	21880.95
559.59	21822.19
559.953	21844.57
560.316	22066.26
560.679	22015.64
561.041	22098.57
561.404	22146.03
561.767	22249.75
562.129	22087.27
562.492	22330.88
562.854	22264.44
563.217	22263.76
563.579	22471.22
563.941	22465.12
564.304	22555.06
564.666	22731.32
565.028	22718.89
565.39	22738.78
565.753	22885.9
566.115	22834.82
566.477	22949.4
566.839	23012.67
567.201	23197.07
567.563	23162.95
567.925	23282.04
568.287	23393.23
568.648	23417.18
569.01	23547.8
569.372	23752.77
569.734	23561.36
570.095	23828.92
570.457	23905.3
570.819	23845.42
571.18	23862.14
571.542	24055.58
571.903	24158.86
572.265	24168.12
572.626	24247.67
572.987	24187.56
573.349	24390.49
573.71	24386.19
574.071	24539.19
574.432	24737.37
574.794	24803.59
575.155	24833.87
575.516	24774.21
575.877	24929.91
576.238	24936.69
576.599	25017.82
576.96	25022.56
577.32	25143.92
577.681	25292.39
578.042	25350.24
578.403	25174.2
578.763	25274.99
579.124	25383
579.485	25484.25
579.845	25391.59
580.206	25504.81
580.566	25513.85
580.927	25550.23
581.287	25663.9
581.648	25657.35
582.008	25663
582.368	25766.72
582.728	25706.61
583.089	25684.24
583.449	25762.2
583.809	25819.15
584.169	25873.84
584.529	25816.21
584.889	26013.72
585.249	25787.06
585.609	25713.39
585.969	25949.54
586.329	25934.63
586.688	26074.51
587.048	25940.28
587.408	25909.77
587.768	26010.56
588.127	25929.88
588.487	25958.36
588.846	26210.78
589.206	26075.19
589.565	25970.56
589.925	26122.42
590.284	26177.56
590.643	26106.38
591.003	26103.66
591.362	26344.56
591.721	26302.53
592.08	26229.54
592.44	26321.74
592.799	26258.01
593.158	26166.94
593.517	26255.75
593.876	26420.49
594.235	26216.43
594.593	26221.17
594.952	26239.03
595.311	26276.77
595.67	26336.65
596.029	26330.55
596.387	26387.72
596.746	26530.32
597.104	26299.14
597.463	26311.57
597.822	26472.69
598.18	26494.84
598.538	26395.41
598.897	26597.89
599.255	26409.42
599.613	26720.14
599.972	26371
600.33	26554.05
600.688	26493.03
601.046	26555.86
601.404	26619.81
601.762	26611
602.12	26719.47
602.478	26676.53
602.836	26851.89
603.194	26627.27
603.552	26675.17
603.91	26657.55
604.268	26785
604.625	26775.06
604.983	26861.38
605.341	26682.86
605.698	26829.29
606.056	27055.5
606.413	26908.39
606.771	27079.46
607.128	26996.3
607.485	26827.94
607.843	27004.88
608.2	27012.57
608.557	27026.35
608.914	26916.3
609.272	27119.91
609.629	27315.84
609.986	27345.21
610.343	27229.28
610.7	27358.77
611.057	27455.94
611.414	27296.85
611.771	27426.57
612.127	27406.23
612.484	27563.06
612.841	27523.74
613.198	27487.13
613.554	27491.65
613.911	27650.52
614.267	27603.29
614.624	27642.38
614.98	27689.16
615.337	27864.52
615.693	27854.58
616.05	27940
616.406	27927.8
616.762	27939.1
617.118	27826.78
617.475	27836.73
617.831	28010.96
618.187	28000.56
618.543	28064.29
618.899	28362.59
619.255	27995.37
619.611	28008.25
619.967	28328.24
620.323	28443.49
620.678	28110.84
621.034	28227
621.39	28145.64
621.746	28258.86
622.101	28482.81
622.457	28272.87
622.812	28464.05
623.168	28387.45
623.523	28437.84
623.879	28501.34
624.234	28345.86
624.589	28374.34
624.945	28438.29
625.3	28363.72
625.655	28438.07
626.01	28459.99
626.365	28376.37
626.72	28363.04
627.075	28429.25
627.43	28409.59
627.785	28369.82
628.14	28351.06
628.495	28496.82
628.85	28502.24
629.205	28319.2
629.559	28513.77
629.914	28268.13
630.269	28534.56
630.623	28398.74
630.978	28195.36
631.332	28375.24
631.687	28345.19
632.041	28201.69
632.396	28276.04
632.75	28161.24
633.104	28344.28
633.459	28158.75
633.813	28098.19
634.167	28094.57
634.521	28091.41
634.875	28192.65
635.229	27935.71
635.583	27841.92
635.937	27904.75
636.291	27809.38
636.645	27715.37
636.999	27699.33
637.352	27798.31
637.706	27728.48
638.06	27806.44
638.413	27782.49
638.767	27695.49
639.121	27575.49
639.474	27561.93
639.828	27588.37
640.181	27548.82
640.534	27573.46
640.888	27514.47
641.241	27359.9
641.594	27411.88
641.947	27487.36
642.301	27337.98
642.654	27482.16
643.007	27338.21
643.36	27487.58
643.713	27376.4
644.066	27400.13
644.419	27225.44
644.771	26924.66
645.124	26756.53
645.477	26738.68
645.83	26603.99
646.182	26820.03
646.535	26776.64
646.888	26712.91
647.24	26715.63
647.593	26735.06
647.945	26648.28
648.298	26653.48
648.65	26557.21
649.002	26321.06
649.355	26315.86
649.707	26048.07
650.059	26111.57
650.411	26512.92
650.763	26672.24
651.115	27168.04
651.467	27135.05
651.819	27090.3
652.171	27089.85
652.523	26931.44
652.875	27098.89
653.227	27026.58
653.578	27226.12
653.93	27099.12
654.282	26954.26
654.633	27031.1
654.985	27147.7
655.337	27142.28
655.688	27050.53
656.039	27259.11
656.391	26910.2
656.742	27005.34
657.094	26822.74
657.445	27155.61
657.796	27079.23
658.147	27058.22
658.498	27166.23
658.849	27184.09
659.2	27205.78
659.551	27159.91
659.902	27210.53
660.253	27139.34
660.604	27282.39
660.955	27083.07
661.306	27310.41
661.656	27169.62
662.007	27252.56
662.358	27365.33
662.708	27383.86
663.059	27327.59
663.409	27181.6
663.76	27358.55
664.11	27249.62
664.461	27451.88
664.811	27395.61
665.161	27370.52
665.511	27433.57
665.862	27445.55
666.212	27467.02
666.562	27499.33
666.912	27486.45
667.262	27452.33
667.612	27416.85
667.962	27336.63
668.312	27371.43
668.662	27565.32
669.011	27484.64
669.361	27509.5
669.711	27471.31
670.06	27437.19
670.41	27445.55
670.76	27441.48
671.109	27445.32
671.459	27405.32
671.808	27398.32
672.157	27363.74
672.507	27230.87
672.856	27320.58
673.205	27305.21
673.554	27341.37
673.904	27228.38
674.253	27299.79
674.602	27230.19
674.951	26800.37
675.3	26841.05
675.649	27283.52
675.998	27192
676.346	27269.96
676.695	27247.36
677.044	27048.5
677.393	27192.45
677.741	27125.56
678.09	27020.48
678.438	27002.62
678.787	27041.49
679.135	27070.87
679.484	26896.19
679.832	26953.13
680.181	26839.46
680.529	26864.77
680.877	26725.79
681.225	26599.7
681.573	26937.54
681.922	26778.45
682.27	26564.22
682.618	26698.9
682.966	26447.16
683.314	26600.83
683.661	26477.67
684.009	26496.87
684.357	26380.27
684.705	26222.3
685.053	26272.93
685.4	26092.14
685.748	26021.41
686.095	25977.57
686.443	25868.64
686.79	25886.95
687.138	26008.07
687.485	25972.37
687.832	25698.25
688.18	25769.89
688.527	25629.55
688.874	25608.99
689.221	25402.67
689.568	25433.63
689.915	25292.61
690.262	25331.25
690.609	25241.31
690.956	25088.55
691.303	25114.99
691.65	25054.65
691.997	24972.85
692.344	24812.85
692.69	24706.41
693.037	24770.59
693.383	24499.41
693.73	24536.02
694.077	24336.25
694.423	24354.33
694.769	24161.79
695.116	24211.96
695.462	24031.18
695.808	23942.36
696.155	23918.64
696.501	23673.67
696.847	23761.35
697.193	23524.97
697.539	23696.04
697.885	23323.62
698.231	23338.76
698.577	23198.66
698.923	23275.04
699.269	23002.73
699.614	22875.73
699.96	22861.49
700.306	22887.7
700.651	22699.23
700.997	22654.94
701.342	22467.15
701.688	22478.9
702.033	22355.51
702.379	22333.82
702.724	22205.01
703.069	22212.24
703.415	21962.08
703.76	21913.94
704.105	21896.32
704.45	21849.54
704.795	21762.54
705.14	21590.56
705.485	21532.26
705.83	21361.64
706.175	21538.13
706.52	21319.38
706.865	21291.36
707.209	21240.29
707.554	21208.43
707.899	21115.55
708.243	21058.15
708.588	21016.79
708.932	20883.24
709.277	20910.81
709.621	20904.03
709.966	20694.54
710.31	20730.7
710.654	20603.7
710.998	20620.19
711.342	20568.44
711.687	20395.79
712.031	20444.15
712.375	20340.65
712.719	20298.84
713.063	20205.51
713.407	20314.44
713.75	20260.2
714.094	20284.61
714.438	20222.46
714.782	20133.2
715.125	20008.23
715.469	20110.15
715.812	20023.37
716.156	19868.35
716.499	19943.37
716.843	19921.23
717.186	19845.98
717.53	20044.39
717.873	19950.38
718.216	19880.78
718.559	19819.31
718.902	19652.31
719.246	19674.45
719.589	19793.55
719.932	19699.31
720.275	19717.17
720.617	19741.35
720.96	19702.48
721.303	19767.79
721.646	19791.97
721.989	19624.51
722.331	19659.09
722.674	19648.47
723.016	19688.69
723.359	19584.06
723.701	19667.9
724.044	19463.84
724.386	19510.39
724.729	19613.21
725.071	19621.35
725.413	19618.18
725.755	19678.97
726.097	19626.55
726.439	19524.18
726.782	19571.63
727.124	19654.12
727.465	19652.31
727.807	19526.44
728.149	19571.63
728.491	19550.16
728.833	19622.93
729.175	19629.71
729.516	19662.48
729.858	19639.43
730.199	19761.91
730.541	19692.99
730.882	19586.77
731.224	19685.75
731.565	19667
731.906	19723.72
732.248	19765.75
732.589	19709.48
732.93	19689.14
733.271	19699.09
733.612	19829.7
733.953	19923.04
734.294	19847.33
734.635	19781.57
734.976	20001.45
735.317	19914
735.658	20001.9
735.999	19916.71
736.339	19967.55
736.68	19987.44
737.021	20051.17
737.361	19989.7
737.702	20298.39
738.042	20135.69
738.383	20159.64
738.723	20437.15
739.063	20269.92
739.404	20517.82
739.744	20610.02
740.084	20488.44
740.424	20741.77
740.764	20695.67
741.104	20821.09
741.444	20779.74
741.784	20829.23
742.124	20979.05
742.464	21033.29
742.804	21082.55
743.143	21263.34
743.483	21379.95
743.823	21391.25
744.162	21552.37
744.502	21698.58
744.841	21762.99
745.181	21996.65
745.52	21995.3
745.86	22140.83
746.199	22268.74
746.538	22354.61
746.877	22636.86
747.216	22801.83
747.556	22898.1
747.895	23079.34
748.234	23255.6
748.573	23433
748.911	23451.08
749.25	23702.15
749.589	23776.72
749.928	24003.83
750.267	24333.99
750.605	24379.87
750.944	24560.2
751.283	24887.42
751.621	25111.37
751.96	25178.49
752.298	25296.68
752.636	25554.07
752.975	25744.13
753.313	25940.5
753.651	26331
753.989	26427.27
754.327	26655.29
754.666	26790.43
755.004	27191.77
