Data from 17-5722_FLMS001491_001.txt Node
Date: Thu Apr 19 15:14:10 BST 2018
User: hsy
Spectrometer: FLMS00149
Trigger mode: 0
Integration Time (sec): 1.000000E-2
Scans to average: 10
Electric dark correction enabled: true
Nonlinearity correction enabled: false
Boxcar width: 0
XAxis mode: Wavelengths
Number of Pixels in Spectrum: 2048
>>>>>Begin Spectral Data<<<<<
341.393	-4.31
341.776	-4.31
342.16	-4.31
342.543	-53.57
342.927	-62.39
343.31	-57.64
343.693	-62.39
344.077	-64.19
344.46	-56.74
344.843	-51.99
345.226	-30.07
345.61	-46.79
345.993	-21.48
346.376	-22.39
346.759	8.12
347.142	20.1
347.525	30.49
347.908	71.85
348.291	69.14
348.674	99.19
349.057	114.79
349.44	136.93
349.823	136.48
350.206	167.67
350.588	218.06
350.971	245.18
351.354	253.99
351.737	254.89
352.119	279.75
352.502	306.19
352.884	315.23
353.267	320.2
353.65	339.41
354.032	329.69
354.414	361.11
354.797	362.69
355.179	373.31
355.562	350.03
355.944	361.33
356.326	359.52
356.709	357.49
357.091	383.48
357.473	384.83
357.855	372.18
358.238	391.84
358.62	386.64
359.002	382.8
359.384	415.79
359.766	375.8
360.148	385.51
360.53	386.87
360.912	379.18
361.294	394.1
361.676	366.08
362.057	371.95
362.439	385.29
362.821	399.98
363.203	398.17
363.584	371.5
363.966	371.95
364.348	373.99
364.729	386.87
365.111	350.71
365.493	349.58
365.874	370.82
366.256	366.53
366.637	370.15
367.019	363.14
367.4	351.16
367.781	362.69
368.163	378.96
368.544	354.55
368.925	384.38
369.306	374.67
369.688	389.81
370.069	369.02
370.45	366.76
370.831	365.17
371.212	355.46
371.593	363.14
371.974	388.68
372.355	379.86
372.736	385.51
373.117	380.77
373.498	370.82
373.879	389.81
374.26	374.21
374.641	380.31
375.021	378.73
375.402	386.19
375.783	392.97
376.163	380.09
376.544	383.03
376.925	396.36
377.305	393.42
377.686	386.87
378.066	385.74
378.447	379.41
378.827	392.74
379.208	404.95
379.588	393.87
379.968	400.65
380.349	393.42
380.729	421.9
381.109	400.43
381.489	424.38
381.87	421.44
382.25	437.94
382.63	446.98
383.01	427.32
383.39	442.91
383.77	413.08
384.15	426.87
384.53	441.78
384.91	438.62
385.29	428
385.67	439.3
386.049	446.53
386.429	432.52
386.809	454.89
387.189	444.95
387.568	451.5
387.948	455.79
388.328	445.17
388.707	475.91
389.087	472.06
389.466	466.41
389.846	489.01
390.225	465.74
390.605	483.81
390.984	472.06
391.363	496.92
391.743	490.59
392.122	477.49
392.501	482.01
392.881	512.06
393.26	485.85
393.639	497.6
394.018	503.48
394.397	498.5
394.776	510.03
395.155	529.24
395.534	534.21
395.913	503.25
396.292	521.78
396.671	538.28
397.05	527.2
397.429	541.21
397.808	545.73
398.186	548.9
398.565	538.5
398.944	556.81
399.323	548.67
399.701	566.52
400.08	568.33
400.458	545.73
400.837	558.39
401.215	559.07
401.594	559.97
401.972	569.91
402.351	578.73
402.729	585.96
403.107	605.17
403.486	591.83
403.864	587.32
404.242	606.75
404.62	596.13
404.999	597.26
405.377	607.65
405.755	608.11
406.133	653.53
406.511	644.26
406.889	633.42
407.267	646.75
407.645	652.17
408.023	694.43
408.401	677.03
408.779	692.85
409.156	675
409.534	688.78
409.912	697.37
410.29	739.4
410.667	738.05
411.045	728.55
411.422	745.5
411.8	736.01
412.178	769.46
412.555	747.99
412.933	751.15
413.31	786.63
413.687	772.62
414.065	804.03
414.442	804.94
414.819	827.76
415.197	821.43
415.574	820.98
415.951	836.12
416.328	830.02
416.705	832.73
417.082	834.09
417.46	849
417.837	862.56
418.214	883.8
418.591	869.57
418.967	869.34
419.344	879.74
419.721	923.35
420.098	912.5
420.475	903.01
420.852	940.98
421.228	926.97
421.605	952.5
421.982	951.37
422.358	963.35
422.735	989.79
423.111	953.86
423.488	960.41
423.864	992.05
424.241	1004.71
424.617	997.7
424.994	991.82
425.37	1023.24
425.746	1013.52
426.123	1050.58
426.499	1038.38
426.875	1095.1
427.251	1071.37
427.627	1095.78
428.003	1113.85
428.379	1100.52
428.756	1149.33
429.132	1137.81
429.507	1156.79
429.883	1176.9
430.259	1180.75
430.635	1192.72
431.011	1197.24
431.387	1213.51
431.763	1271.36
432.138	1243.12
432.514	1272.72
432.89	1252.83
433.265	1292.16
433.641	1320.4
434.016	1323.57
434.392	1342.1
434.767	1344.13
435.143	1363.11
435.518	1400.4
435.894	1432.49
436.269	1425.94
436.644	1421.42
437.02	1431.81
437.395	1435.65
437.77	1463.9
438.145	1487.18
438.52	1494.41
438.895	1516.33
439.271	1524.24
439.646	1546.16
440.021	1562.2
440.395	1554.3
440.77	1559.04
441.145	1526.5
441.52	1581.41
441.895	1593.16
442.27	1651.02
442.645	1612.6
443.019	1628.42
443.394	1652.82
443.769	1645.82
444.143	1634.29
444.518	1645.37
444.892	1674.97
445.267	1677.68
445.641	1722.88
446.016	1724.91
446.39	1714.29
446.764	1728.08
447.139	1739.38
447.513	1745.25
447.887	1770.79
448.262	1773.05
448.636	1784.8
449.01	1808.75
449.384	1805.36
449.758	1818.02
450.132	1859.37
450.506	1860.28
450.88	1883.55
451.254	1892.59
451.628	1914.74
452.002	1936.21
452.376	1947.73
452.75	1973.72
453.123	1947.96
453.497	2022.76
453.871	2013.94
454.244	2072.25
454.618	2061.63
454.992	2111.12
455.365	2125.81
455.739	2159.03
456.112	2157.22
456.486	2206.93
456.859	2185.24
457.232	2218.46
457.606	2269.76
457.979	2313.6
458.352	2377.55
458.725	2334.39
459.099	2411
459.472	2424.33
459.845	2471.79
460.218	2503.42
460.591	2504.55
460.964	2518.34
461.337	2566.47
461.71	2610.76
462.083	2625.68
462.456	2632.46
462.829	2662.74
463.201	2687.15
463.574	2726.69
463.947	2749.29
464.32	2789.74
464.692	2822.51
465.065	2849.4
465.438	2876.75
465.81	2955.16
466.183	2932.56
466.555	3010.75
466.928	3043.75
467.3	3009.62
467.672	3017.76
468.045	3101.6
468.417	3150.64
468.789	3147.02
469.161	3182.95
469.534	3251.43
469.906	3304.98
470.278	3299.33
470.65	3377.3
471.022	3410.29
471.394	3500.68
471.766	3495.94
472.138	3544.75
472.51	3626.78
472.882	3654.35
473.253	3738.64
473.625	3730.06
473.997	3817.74
474.369	3810.28
474.74	3853.9
475.112	3946.77
475.484	4056.83
475.855	4107
476.227	4114
476.598	4259.08
476.97	4238.29
477.341	4393.77
477.713	4445.29
478.084	4458.63
478.455	4598.28
478.827	4635.8
479.198	4747.21
479.569	4795.79
479.94	4874.43
480.311	4953.98
480.682	5107.42
481.053	5212.5
481.424	5285.95
481.795	5323.69
482.166	5425.83
482.537	5495.43
482.908	5582.44
483.279	5672.15
483.65	5778.37
484.021	5912.82
484.391	6071.46
484.762	6098.36
485.133	6181.52
485.503	6264.91
485.874	6434.84
486.244	6542.64
486.615	6649.75
486.985	6673.71
487.356	6863.53
487.726	6960.03
488.097	7139.91
488.467	7185.33
488.837	7320.47
489.207	7459.45
489.578	7616.96
489.948	7733.12
490.318	7844.53
490.688	7903.05
491.058	8086.1
491.428	8297.39
491.798	8308.24
492.168	8512.08
492.538	8696.71
492.908	8806.31
493.278	8874.78
493.648	8955.91
494.017	9141.44
494.387	9230.25
494.757	9339.4
495.126	9463.69
495.496	9593.18
495.866	9683.8
496.235	9906.17
496.605	10000.4
496.974	10086.95
497.344	10332.6
497.713	10396.32
498.082	10409.88
498.452	10659.37
498.821	10776.88
499.19	10821.62
499.559	11083.76
499.928	11157.21
500.298	11220.48
500.667	11322.63
501.036	11434.94
501.405	11579.34
501.774	11643.52
502.143	11846.91
502.512	11961.25
502.88	12127.12
503.249	12153.11
503.618	12357.85
503.987	12371.41
504.356	12587.45
504.724	12702.7
505.093	12828.8
505.462	12862.47
505.83	13036.25
506.199	13207.32
506.567	13314.21
506.936	13396.02
507.304	13523.47
507.672	13593.07
508.041	13754.2
508.409	13807.53
508.777	13914.2
509.145	14131.59
509.514	14091.59
509.882	14263.34
510.25	14347.18
510.618	14500.17
510.986	14481.64
511.354	14732.71
511.722	14900.39
512.09	14932.47
512.458	15005.47
512.826	15091.79
513.193	15150.1
513.561	15299.92
513.929	15392.8
514.297	15441.39
514.664	15610.87
515.032	15641.38
515.4	15801.15
515.767	15932.9
516.135	15975.16
516.502	15957.53
516.869	16300.12
517.237	16253.34
517.604	16200.69
517.972	16391.87
518.339	16548.93
518.706	16659.66
519.073	16688.13
519.44	16742.82
519.808	16970.39
520.175	17020.56
520.542	17207.22
520.909	17240.66
521.276	17265.07
521.643	17407.89
522.009	17545.51
522.376	17651.05
522.743	17749.8
523.11	17804.49
523.477	17999.29
523.843	18024.37
524.21	18212.39
524.577	18338.26
524.943	18433.4
525.31	18470.01
525.676	18704.8
526.043	18766.27
526.409	18759.49
526.776	18995.64
527.142	19032.25
527.508	19114.29
527.874	19303.89
528.241	19286.26
528.607	19410.55
528.973	19610.09
529.339	19567.15
529.705	19730.77
530.071	19834.94
530.437	19919.69
530.803	20054.15
531.169	20140.7
531.535	20074.49
531.901	20166.24
532.267	20158.55
532.632	20281.71
532.998	20306.57
533.364	20535.27
533.73	20482.39
534.095	20568.48
534.461	20574.81
534.826	20670.18
535.192	20685.09
535.557	20874.69
535.923	20804.64
536.288	20848.93
536.653	20926.89
537.019	20935.03
537.384	20929.61
537.749	20937.29
538.114	20967.12
538.479	20941.13
538.845	20968.02
539.21	20960.34
539.575	20971.19
539.94	20949.27
540.305	21172.76
540.67	21105.42
541.034	21264.51
541.399	21176.83
541.764	21078.98
542.129	21076.95
542.494	21225.19
542.858	21142.03
543.223	21184.29
543.587	21251.4
543.952	21138.41
544.316	21130.73
544.681	20996.95
545.045	21296.15
545.41	21303.38
545.774	21055.48
546.138	21170.28
546.503	21142.48
546.867	21278.75
547.231	21289.6
547.595	21320.56
547.959	21216.6
548.324	21285.98
548.688	21148.13
549.052	21222.93
549.416	21158.53
549.779	21163.27
550.143	21189.26
550.507	21232.2
550.871	21257.28
551.235	21243.27
551.599	21345.19
551.962	21308.58
552.326	21276.71
552.689	21299.99
553.053	21099.32
553.417	21267.45
553.78	21479.65
554.143	21387.9
554.507	21384.96
554.87	21437.39
555.234	21523.26
555.597	21384.51
555.96	21523.49
556.323	21505.64
556.686	21565.52
557.05	21586.08
557.413	21554.45
557.776	21600.77
558.139	21707.44
558.502	21713.54
558.865	21570.72
559.228	21879.18
559.59	21844.16
559.953	21852.07
560.316	21975.68
560.679	21938.17
561.041	22076.47
561.404	22196.92
561.767	22297.25
562.129	22102.91
562.492	22232.85
562.854	22242.56
563.217	22346.52
563.579	22391.49
563.941	22423.35
564.304	22476.91
564.666	22737.92
565.028	22763.68
565.39	22752.61
565.753	22849.33
566.115	22817.01
566.477	22954.64
566.839	22940.85
567.201	23130.45
567.563	23033.73
567.925	23206.61
568.287	23289.32
568.648	23370.9
569.01	23405.02
569.372	23712.81
569.734	23565.92
570.095	23723.66
570.457	23845.69
570.819	23895.18
571.18	23829.19
571.542	24040.26
571.903	24104.44
572.265	24159.8
572.626	24273.25
572.987	24279.35
573.349	24356.63
573.71	24490.64
574.071	24585.78
574.432	24585.78
574.794	24738.32
575.155	24783.06
575.516	24848.82
575.877	24816.28
576.238	24852.21
576.599	24995.71
576.96	25018.76
577.32	25126.33
577.681	25144.64
578.042	25262.37
578.403	25232.54
578.763	25278.42
579.124	25274.35
579.485	25513.89
579.845	25470.73
580.206	25474.57
580.566	25490.39
580.927	25511.86
581.287	25623.72
581.648	25630.72
582.008	25713.89
582.368	25772.19
582.728	25785.3
583.089	25712.76
583.449	25695.81
583.809	25763.83
584.169	25914.11
584.529	25863.49
584.889	26036.14
585.249	25884.5
585.609	25639.54
585.969	25978.74
586.329	25844.96
586.688	26033.43
587.048	25955.01
587.408	25904.39
587.768	25939.19
588.127	26005.86
588.487	25975.57
588.846	26224.16
589.206	26025.74
589.565	25978.51
589.925	26241.33
590.284	26082.46
590.643	26069.58
591.003	26194.1
591.362	26350.71
591.721	26269.58
592.08	26256.92
592.44	26293.31
592.799	26308.45
593.158	26266.41
593.517	26215.79
593.876	26175.34
594.235	26173.31
594.593	26285.85
594.952	26390.25
595.311	26304.38
595.67	26276.36
596.029	26490.14
596.387	26524.49
596.746	26557.03
597.104	26366.52
597.463	26471.15
597.822	26523.81
598.18	26387.54
598.538	26430.03
598.897	26631.6
599.255	26452.17
599.613	26778.04
599.972	26515.22
600.33	26566.74
600.688	26526.07
601.046	26684.71
601.404	26748.66
601.762	26615.33
602.12	26760.19
602.478	26682
602.836	26747.31
603.194	26604.26
603.552	26717.25
603.91	26600.64
604.268	26743.01
604.625	26781.88
604.983	26915.44
605.341	26736.23
605.698	26917.24
606.056	26924.48
606.413	26799.51
606.771	27056.45
607.128	26994.76
607.485	26889.45
607.843	26934.42
608.2	27032.5
608.557	27165.83
608.914	27025.49
609.272	27221.42
609.629	27374.63
609.986	27400.17
610.343	27370.11
610.7	27475.2
611.057	27396.55
611.414	27365.37
611.771	27559.04
612.127	27522.65
612.484	27571.46
612.841	27699.6
613.198	27510.9
613.554	27564.91
613.911	27790.67
614.267	27761.74
614.624	27818.69
614.98	27848.75
615.337	27915.41
615.693	27905.47
616.05	27987.05
616.406	28010.1
616.762	27923.77
617.118	28029.31
617.475	27914.96
617.831	28149.08
618.187	28088.06
618.543	28132.13
618.899	28267.49
619.255	28299.81
619.611	28181.84
619.967	28441.5
620.323	28409.86
620.678	28443.31
621.034	28352.46
621.39	28225.23
621.746	28389.75
622.101	28513.36
622.457	28363.99
622.812	28444.44
623.168	28597.43
623.523	28455.51
623.879	28508.39
624.234	28376.19
624.589	28636.97
624.945	28462.97
625.3	28630.19
625.655	28581.83
626.01	28531.89
626.365	28552.46
626.72	28432.46
627.075	28472.91
627.43	28476.3
627.785	28525.56
628.14	28617.09
628.495	28468.39
628.85	28599.69
629.205	28437.2
629.559	28610.76
629.914	28437.88
630.269	28460.48
630.623	28324.89
630.978	28286.02
631.332	28423.65
631.687	28401.95
632.041	28204.44
632.396	28323.76
632.75	28348.17
633.104	28349.3
633.459	28227.27
633.813	28124.44
634.167	28180.71
634.521	28116.31
634.875	28243.76
635.229	28150.21
635.583	27991.34
635.937	27991.79
636.291	27915.64
636.645	27993.6
636.999	27802.87
637.352	27975.07
637.706	27735.53
638.06	27966.71
638.413	27742.99
638.767	27774.85
639.121	27691.01
639.474	27664.34
639.828	27661.18
640.181	27622.54
640.534	27777.56
640.888	27552.71
641.241	27480.85
641.594	27438.13
641.947	27520.39
642.301	27415.31
642.654	27555.65
643.007	27465.03
643.36	27409.89
643.713	27422.99
644.066	27542.54
644.419	27430
644.771	27100.97
645.124	26791.15
645.477	26778.26
645.83	26639.74
646.182	26722.45
646.535	26724.48
646.888	26920.18
647.24	26806.74
647.593	26960.18
647.945	26774.42
648.298	26651.94
648.65	26516.58
649.002	26340.54
649.355	26249.92
649.707	26228.45
650.059	26204.27
650.411	26571.26
650.763	26713.86
651.115	27255.54
651.467	27084.02
651.819	27141.42
652.171	27140.97
652.523	27032.5
652.875	27121.08
653.227	26952.72
653.578	27159.95
653.93	27131.7
654.282	26980.29
654.633	26999.95
654.985	27001.31
655.337	27118.82
655.688	27023
656.039	27257.57
656.391	26967.86
656.742	26995.21
657.094	27035.21
657.445	27112.04
657.796	27117.46
658.147	27045.83
658.498	27183.23
658.849	27219.84
659.2	27166.73
659.551	27165.15
659.902	27258.03
660.253	27076.11
660.604	27228.42
660.955	27113.4
661.306	27343.67
661.656	27312.71
662.007	27202.66
662.358	27252.83
662.708	27343.9
663.059	27469.55
663.409	27202.21
663.76	27478.81
664.11	27357.23
664.461	27466.38
664.811	27416.89
665.161	27392.94
665.511	27454.18
665.862	27392.71
666.212	27492.6
666.562	27637.23
666.912	27410.34
667.262	27424.58
667.612	27528.3
667.962	27455.54
668.312	27350
668.662	27582.76
669.011	27598.13
669.361	27591.12
669.711	27546.38
670.06	27537.57
670.41	27500.51
670.76	27449.66
671.109	27563.33
671.459	27495.31
671.808	27493.5
672.157	27418.93
672.507	27335.54
672.856	27303.45
673.205	27401.98
673.554	27443.78
673.904	27354.75
674.253	27505.48
674.602	27411.92
674.951	26982.78
675.3	26902.56
675.649	27327.85
675.998	27341.41
676.346	27205.15
676.695	27204.69
677.044	27128.31
677.393	27133.28
677.741	27126.73
678.09	27144.13
678.438	27138.93
678.787	27155.66
679.135	27202.89
679.484	26940.52
679.832	27100.74
680.181	26977.81
680.529	27014.42
680.877	26824.59
681.225	26849.45
681.573	27011.25
681.922	26799.51
682.27	26649.68
682.618	26725.38
682.966	26606.07
683.314	26509.8
683.661	26577.82
684.009	26425.51
684.357	26348.67
684.705	26334.21
685.053	26454.66
685.4	26260.54
685.748	26330.82
686.095	26148.45
686.443	26021.22
686.79	26073.2
687.138	26045.18
687.485	26059.87
687.832	25914.11
688.18	25823.94
688.527	25826.43
688.874	25648.8
689.221	25709.37
689.568	25524.29
689.915	25402.93
690.262	25370.17
690.609	25298.53
690.956	25154.13
691.303	25141.47
691.65	25096.28
691.997	24947.58
692.344	24891.31
692.69	24725.66
693.037	24870.52
693.383	24459.91
693.73	24521.83
694.077	24334.71
694.423	24326.35
694.769	24205
695.116	24285.45
695.462	24014.04
695.808	23993.48
696.155	23954.61
696.501	23839.59
696.847	23734.05
697.193	23594.85
697.539	23558.01
697.885	23377
698.231	23292.48
698.577	23318.69
698.923	23228.53
699.269	22930.46
699.614	22928.87
699.96	22848.65
700.306	22781.99
700.651	22743.79
700.997	22524.14
701.342	22636.9
701.688	22555.78
702.033	22412.5
702.379	22367.99
702.724	22186.75
703.069	22178.16
703.415	21930.93
703.76	21899.75
704.105	21916.92
704.45	21906.53
704.795	21772.75
705.14	21594.67
705.485	21597.84
705.83	21421.57
706.175	21645.52
706.52	21488.69
706.865	21341.12
707.209	21316.94
707.554	21264.06
707.899	21216.6
708.243	21122.59
708.588	20961.02
708.932	20864.3
709.277	21000.34
709.621	20832.66
709.966	20731.42
710.31	20849.61
710.654	20592.89
710.998	20626.56
711.342	20575.49
711.687	20523.06
712.031	20613.46
712.375	20344.08
712.719	20379.79
713.063	20349.06
713.407	20430.86
713.75	20283.75
714.094	20309.06
714.438	20171.88
714.782	20267.25
715.125	20168.72
715.469	20276.51
715.812	20077.42
716.156	20053.7
716.499	19968.73
716.843	20088.05
717.186	19963.98
717.53	19990.65
717.873	20072.68
718.216	19914.94
718.559	19954.49
718.902	19782.97
719.246	19852.12
719.589	19794.95
719.932	19732.57
720.275	19676.08
720.617	19775.06
720.96	19761.05
721.303	19830.42
721.646	19849.86
721.989	19663.42
722.331	19652.8
722.674	19696.64
723.016	19654.16
723.359	19688.73
723.701	19682.18
724.044	19618.68
724.386	19664.55
724.729	19699.81
725.071	19638.34
725.413	19741.16
725.755	19669.07
726.097	19576.65
726.439	19630.88
726.782	19614.61
727.124	19620.49
727.465	19666.81
727.807	19610.32
728.149	19617.32
728.491	19509.3
728.833	19739.13
729.175	19682.63
729.516	19567.61
729.858	19673.82
730.199	19715.85
730.541	19724.21
730.882	19713.37
731.224	19738.45
731.565	19629.3
731.906	19798.79
732.248	19816.19
732.589	19782.52
732.93	19659.13
733.271	19767.38
733.612	19866.13
733.953	19982.96
734.294	19889.63
734.635	19846.92
734.976	19917.65
735.317	19962.85
735.658	19940.48
735.999	20019.8
736.339	20143.86
736.68	20106.12
737.021	20149.29
737.361	20133.69
737.702	20393.12
738.042	20303.63
738.383	20304.08
738.723	20441.26
739.063	20434.02
739.404	20608.03
739.744	20647.8
740.084	20618.43
740.424	20725.09
740.764	20720.12
741.104	20984.97
741.444	20948.14
741.784	20931.41
742.124	21146.1
742.464	21261.35
742.804	21265.19
743.143	21321.23
743.483	21502.47
743.823	21526.65
744.162	21615.69
744.502	21653.2
744.841	21787.44
745.181	22009.58
745.52	22081.21
745.86	22240.53
746.199	22375.89
746.538	22520.98
746.877	22705.38
747.216	22767.07
747.556	22880.51
747.895	22986.73
748.234	23200.96
748.573	23383.55
748.911	23446.6
749.25	23758.01
749.589	23807.72
749.928	23927.72
750.267	24261.95
750.605	24297.2
750.944	24510.53
751.283	24767.7
751.621	25071.87
751.96	25090.85
752.298	25310.28
752.636	25686.54
752.975	25861.23
753.313	25884.05
753.651	26335.11
753.989	26401.33
754.327	26583.24
754.666	26712.5
755.004	27172.6
