Data from 17-5722_FLMS001491_002.txt Node
Date: Thu Apr 19 15:14:27 BST 2018
User: hsy
Spectrometer: FLMS00149
Trigger mode: 0
Integration Time (sec): 1.000000E-2
Scans to average: 10
Electric dark correction enabled: true
Nonlinearity correction enabled: false
Boxcar width: 0
XAxis mode: Wavelengths
Number of Pixels in Spectrum: 2048
>>>>>Begin Spectral Data<<<<<
341.393	-10.31
341.776	-10.31
342.16	-10.31
342.543	-57.77
342.927	-56.64
343.31	-62.96
343.693	-83.98
344.077	-57.99
344.46	-41.5
344.843	-46.92
345.226	-49.86
345.61	-34.72
345.993	-22.29
346.376	6.64
346.759	0.54
347.142	27.88
347.525	40.31
347.908	63.81
348.291	64.72
348.674	89.8
349.057	106.52
349.44	118.95
349.823	151.95
350.206	164.6
350.588	225.84
350.971	242.79
351.354	252.06
351.737	261.09
352.119	264.48
352.502	287.99
352.884	284.15
353.267	316.91
353.65	330.47
354.032	334.54
354.414	350.58
354.797	349
355.179	343.13
355.562	386.06
355.944	370.47
356.326	358.49
356.709	354.2
357.091	366.85
357.473	356.01
357.855	382.9
358.238	369.57
358.62	381.32
359.002	379.06
359.384	353.52
359.766	350.58
360.148	377.93
360.53	379.74
360.912	360.98
361.294	370.24
361.676	369.34
362.057	374.76
362.439	372.28
362.821	369.57
363.203	350.36
363.584	360.75
363.966	367.31
364.348	349.23
364.729	351.26
365.111	351.49
365.493	365.27
365.874	392.62
366.256	350.58
366.637	367.98
367.019	333.64
367.4	343.8
367.781	340.64
368.163	356.69
368.544	360.08
368.925	377.93
369.306	354.88
369.688	341.77
370.069	359.4
370.45	337.03
370.831	379.06
371.212	357.36
371.593	353.97
371.974	364.14
372.355	341.32
372.736	368.21
373.117	392.84
373.498	363.01
373.879	356.46
374.26	373.18
374.641	358.95
375.021	386.52
375.402	377.7
375.783	384.26
376.163	384.48
376.544	384.26
376.925	386.52
377.305	388.55
377.686	390.58
378.066	365.95
378.447	385.61
378.827	396.23
379.208	386.74
379.588	403.01
379.968	397.59
380.349	383.8
380.729	408.89
381.109	404.82
381.489	395.78
381.87	405.5
382.25	410.92
382.63	386.74
383.01	400.07
383.39	400.75
383.77	412.73
384.15	413.18
384.53	436.01
384.91	421.54
385.29	438.94
385.67	408.21
386.049	461.09
386.429	441.88
386.809	421.99
387.189	457.7
387.568	452.95
387.948	459.06
388.328	441.2
388.707	422.45
389.087	441.2
389.466	432.62
389.846	446.85
390.225	464.48
390.605	464.03
390.984	451.15
391.363	477.81
391.743	474.87
392.122	501.54
392.501	480.52
392.881	463.35
393.26	465.84
393.639	473.74
394.018	506.96
394.397	497.47
394.776	501.54
395.155	524.59
395.534	498.38
395.913	540.41
396.292	535.21
396.671	507.42
397.05	513.29
397.429	533.18
397.808	523.01
398.186	540.64
398.565	559.84
398.944	544.03
399.323	543.57
399.701	516
400.08	546.96
400.458	538.15
400.837	554.65
401.215	569.79
401.594	564.14
401.972	580.41
402.351	586.06
402.729	572.73
403.107	568.43
403.486	571.82
403.864	572.73
404.242	575.44
404.62	587.41
404.999	610.69
405.377	612.95
405.755	633.51
406.133	621.31
406.511	661.08
406.889	627.41
407.267	633.06
407.645	651.14
408.023	654.08
408.401	669.22
408.779	645.94
409.156	676.45
409.534	703.12
409.912	685.04
410.29	676.23
410.667	730.46
411.045	730.01
411.422	707.18
411.8	704.02
412.178	752.61
412.555	751.93
412.933	758.71
413.31	740.86
413.687	781.08
414.065	796.9
414.442	767.3
414.819	785.83
415.197	816.56
415.574	814.53
415.951	822.21
416.328	833.51
416.705	823.57
417.082	828.76
417.46	851.81
417.837	875.99
418.214	832.83
418.591	875.77
418.967	857.69
419.344	875.77
419.721	880.74
420.098	891.59
420.475	894.98
420.852	889.1
421.228	907.18
421.605	913.96
421.982	911.02
422.358	937.24
422.735	955.77
423.111	943.11
423.488	973.84
423.864	958.48
424.241	977.46
424.617	979.27
424.994	971.36
425.37	1004.13
425.746	1002.32
426.123	999.83
426.499	1023.79
426.875	1024.69
427.251	1066.05
427.627	1056.33
428.003	1072.6
428.379	1115.08
428.756	1075.08
429.132	1074.18
429.507	1131.13
429.883	1144.46
430.259	1168.64
430.635	1156.89
431.011	1198.92
431.387	1188.75
431.763	1211.35
432.138	1199.6
432.514	1265.14
432.89	1239.37
433.265	1243.67
433.641	1291.8
434.016	1266.49
434.392	1327.96
434.767	1337.22
435.143	1319.6
435.518	1353.5
435.894	1351.46
436.269	1389.88
436.644	1390.1
437.02	1383.33
437.395	1433.49
437.77	1443.44
438.145	1439.82
438.52	1463.1
438.895	1471.23
439.271	1450.22
439.646	1484.57
440.021	1520.27
440.395	1533.83
440.77	1507.39
441.145	1535.86
441.52	1543.32
441.895	1570.21
442.27	1605.47
442.645	1597.1
443.019	1590.33
443.394	1593.04
443.769	1617.44
444.143	1647.73
444.518	1648.63
444.892	1611.34
445.267	1643.66
445.641	1645.01
446.016	1679.59
446.39	1686.82
446.764	1732.24
447.139	1687.05
447.513	1714.39
447.887	1735.41
448.262	1720.04
448.636	1729.76
449.01	1765.24
449.384	1749.87
449.758	1807.04
450.132	1788.51
450.506	1810.66
450.88	1845.01
451.254	1822.64
451.628	1856.99
452.002	1851.34
452.376	1876.65
452.75	1938.56
453.123	1907.61
453.497	1920.03
453.871	1972.91
454.244	2032.57
454.618	1979.47
454.992	2082.74
455.365	2064.89
455.739	2093.14
456.112	2122.06
456.486	2155.51
456.859	2211.1
457.232	2201.16
457.606	2249.97
457.979	2237.77
458.352	2271.89
458.725	2299.91
459.099	2329.06
459.472	2364.99
459.845	2428.27
460.218	2393.69
460.591	2462.62
460.964	2468.95
461.337	2471.66
461.71	2555.5
462.083	2551.88
462.456	2588.27
462.829	2548.94
463.201	2672.56
463.574	2628.49
463.947	2661.48
464.32	2727.24
464.692	2722.5
465.065	2798.66
465.438	2777.41
465.81	2837.98
466.183	2842.5
466.555	2883.4
466.928	2919.1
467.3	2903.96
467.672	2949.61
468.045	3022.38
468.417	3035.94
468.789	3063.51
469.161	3091.08
469.534	3157.74
469.906	3207.01
470.278	3233.67
470.65	3317.06
471.022	3310.96
471.394	3361.8
471.766	3405.64
472.138	3454.01
472.51	3492.87
472.882	3571.97
473.253	3581.23
473.625	3659.65
473.997	3717.28
474.369	3752.3
474.74	3841.11
475.112	3831.17
475.484	3890.15
475.855	3984.84
476.227	4031.84
476.598	4148.68
476.97	4181.22
477.341	4249.92
477.713	4289.01
478.084	4368.11
478.455	4482
478.827	4473.41
479.198	4578.5
479.569	4601.77
479.94	4785.95
480.311	4826.85
480.682	4948.2
481.053	5032.27
481.424	5108.88
481.795	5170.12
482.166	5292.83
482.537	5358.81
482.908	5422.09
483.279	5544.35
483.65	5638.81
484.021	5754.96
484.391	5817.33
484.762	5887.84
485.133	5989.31
485.503	6084.67
485.874	6207.15
486.244	6248.28
486.615	6439.01
486.985	6460.93
487.356	6686.24
487.726	6741.15
488.097	6958.32
488.467	6992.67
488.837	7154.47
489.207	7250.97
489.578	7420.91
489.948	7526.21
490.318	7635.36
490.688	7704.74
491.058	7841.46
491.428	7991.06
491.798	8116.26
492.168	8295.69
492.538	8361.9
492.908	8533.19
493.278	8637.82
493.648	8706.97
494.017	8935.22
494.387	9040.3
494.757	9123.91
495.126	9239.39
495.496	9311.93
495.866	9514.64
496.235	9653.39
496.605	9791.92
496.974	9874.85
497.344	9989.2
497.713	10154.62
498.082	10245.47
498.452	10420.83
498.821	10529.53
499.19	10662.18
499.559	10751.89
499.928	10925.67
500.298	11104.43
500.667	11171.54
501.036	11257.42
501.405	11280.24
501.774	11498.77
502.143	11561.14
502.512	11741.02
502.88	11905.53
503.249	11989.37
503.618	12112.76
503.987	12200.67
504.356	12369.03
504.724	12520.43
505.093	12565.18
505.462	12699.86
505.83	12753.87
506.199	12910.48
506.567	13041.1
506.936	13161.09
507.304	13326.29
507.672	13472.05
508.041	13491.93
508.409	13703.91
508.777	13839.49
509.145	13914.3
509.514	13972.15
509.882	14154.29
510.25	14225.25
510.618	14304.12
510.986	14359.48
511.354	14451.46
511.722	14613.71
512.09	14745.91
512.458	14806.48
512.826	14943.87
513.193	15051.67
513.561	15164.88
513.929	15213.02
514.297	15391.32
514.664	15392.22
515.032	15474.93
515.4	15549.51
515.767	15724.64
516.135	15851.42
516.502	15816.84
516.869	15914.69
517.237	16094.35
517.604	15922.15
517.972	16260.67
518.339	16290.73
518.706	16430.16
519.073	16389.71
519.44	16525.98
519.808	16683.49
520.175	16795.12
520.542	16885.29
520.909	17021.78
521.276	17136.13
521.643	17278.73
522.009	17346.75
522.376	17451.6
522.743	17525.5
523.11	17744.93
523.477	17806.62
523.843	17933.85
524.21	17986.96
524.577	18242.09
524.943	18239.38
525.31	18247.97
525.676	18546.04
526.043	18566.6
526.409	18601.86
526.776	18792.36
527.142	18836.43
527.508	18937.21
527.874	19077.78
528.241	19043.2
528.607	19215.85
528.973	19343.98
529.339	19274.83
529.705	19521.61
530.071	19722.05
530.437	19611.77
530.803	19826
531.169	19856.29
531.535	19887.25
531.901	19897.19
532.267	20033.23
532.632	20081.14
532.998	20135.6
533.364	20234.81
533.73	20162.94
534.095	20333.56
534.461	20388.25
534.826	20396.38
535.192	20421.24
535.557	20604.74
535.923	20582.82
536.288	20623.05
536.653	20642.93
537.019	20635.47
537.384	20651.97
537.749	20702.14
538.114	20642.93
538.479	20617.62
538.845	20786.2
539.21	20712.76
539.575	20690.84
539.94	20748.24
540.305	20941.68
540.67	20822.14
541.034	20868.01
541.399	20844.73
541.764	20785.98
542.129	20863.26
542.494	20785.3
542.858	20858.52
543.223	20793.66
543.587	20925.64
543.952	20850.38
544.316	20873.89
544.681	20751.4
545.045	20977.84
545.41	20892.64
545.774	20921.57
546.138	20938.97
546.503	20865.98
546.867	20856.49
547.231	20921.79
547.595	20944.62
547.959	20917.5
548.324	20962.02
548.688	20895.13
549.052	21020.55
549.416	20797.96
549.779	20888.58
550.143	20914.56
550.507	20987.78
550.871	20935.35
551.235	20875.92
551.599	21078.17
551.962	20918.4
552.326	20999.08
552.689	21102.58
553.053	20974.45
553.417	20969.7
553.78	21094.9
554.143	21015.13
554.507	21031.4
554.87	21113.2
555.234	21103.71
555.597	20905.75
555.96	21031.4
556.323	21124.05
556.686	21136.48
557.05	21188.23
557.413	21198.17
557.776	21278.85
558.139	21309.13
558.502	21263.25
558.865	21193.88
559.228	21395
559.59	21345.51
559.953	21426.64
560.316	21548.22
560.679	21520.42
561.041	21671.83
561.404	21673.19
561.767	21834.09
562.129	21655.56
562.492	21962.22
562.854	21817.59
563.217	21924.93
563.579	21924.93
563.941	22140.52
564.304	22097.13
564.666	22270.01
565.028	22227.3
565.39	22248.54
565.753	22463.22
566.115	22421.87
566.477	22510.68
566.839	22618.7
567.201	22763.33
567.563	22814.85
567.925	22881.74
568.287	22879.48
568.648	22949.99
569.01	23050.55
569.372	23237.21
569.734	23204.45
570.095	23360.83
570.457	23396.31
570.819	23540.93
571.18	23461.16
571.542	23681.5
571.903	23674.26
572.265	23921.26
572.626	23897.99
572.987	23971.88
573.349	24098.89
573.71	24155.61
574.071	24316.51
574.432	24367.35
574.794	24481.25
575.155	24448.03
575.516	24481.7
575.877	24462.72
576.238	24727.12
576.599	24809.38
576.96	24720.56
577.32	24843.95
577.681	24917.85
578.042	25023.38
578.403	24958.52
578.763	25098.41
579.124	25067.9
579.485	25229.25
579.845	25413.2
580.206	25259.08
580.566	25374.33
580.927	25299.53
581.287	25390.15
581.648	25298.85
582.008	25458.62
582.368	25499.53
582.728	25503.82
583.089	25504.5
583.449	25584.5
583.809	25532.97
584.169	25607.77
584.529	25559.19
584.889	25826.52
585.249	25677.38
585.609	25517.15
585.969	25723.7
586.329	25625.4
586.688	25797.15
587.048	25791.72
587.408	25781.1
587.768	25762.35
588.127	25749.46
588.487	25741.33
588.846	26033.98
589.206	25820.42
589.565	25814.55
589.925	25978.16
590.284	25946.52
590.643	25962.57
591.003	25887.09
591.362	26049.12
591.721	25958.95
592.08	25935
592.44	26102.9
592.799	26018.16
593.158	25966.86
593.517	26133.63
593.876	26150.58
594.235	26107.87
594.593	26131.15
594.952	26165.95
595.311	26070.13
595.67	26013.86
596.029	26385.61
596.387	26207.31
596.746	26331.6
597.104	26205.05
597.463	26110.58
597.822	26361.2
598.18	26226.29
598.538	26201.66
598.897	26339.96
599.255	26248.89
599.613	26469.45
599.972	26375.44
600.33	26481.65
600.688	26344.25
601.046	26478.26
601.404	26546.28
601.762	26511.48
602.12	26652.94
602.478	26630.57
602.836	26611.36
603.194	26499.95
603.552	26603.91
603.91	26525.49
604.268	26560.52
604.625	26641.64
604.983	26886.84
605.341	26525.94
605.698	26837.12
606.056	26851.36
606.413	26651.36
606.771	26814.75
607.128	26834.63
607.485	26742.66
607.843	26728.65
608.2	26817.46
608.557	26939.04
608.914	26874.18
609.272	27134.74
609.629	27121.18
609.986	27148.52
610.343	27069.88
610.7	27374.28
611.057	27190.56
611.414	27216.54
611.771	27316.43
612.127	27327.28
612.484	27243.44
612.841	27315.3
613.198	27317.11
613.554	27353.26
613.911	27571.56
614.267	27554.84
614.624	27543.09
614.98	27554.16
615.337	27764.33
615.693	27625.35
616.05	27621.96
616.406	27795.29
616.762	27772.01
617.118	27705.57
617.475	27750.77
617.831	27996.18
618.187	27933.59
618.543	27930.2
618.899	28040.03
619.255	28022.62
619.611	27984.43
619.967	28094.04
620.323	28123.41
620.678	28078.67
621.034	28033.47
621.39	27976.3
621.746	27977.65
622.101	28352.33
622.457	28006.58
622.812	28244.99
623.168	28269.85
623.523	28242.51
623.879	28440.47
624.234	28294.26
624.589	28375.61
624.945	28400.69
625.3	28350.3
625.655	28450.86
626.01	28368.83
626.365	28420.58
626.72	28421.03
627.075	28247.93
627.43	28317.08
627.785	28265.33
628.14	28310.75
628.495	28324.99
628.85	28299.45
629.205	28208.83
629.559	28337.19
629.914	28183.98
630.269	28237.53
630.623	28118.89
630.978	28054.26
631.332	28336.51
631.687	28165.45
632.041	28075.73
632.396	28059.23
632.75	28156.18
633.104	28148.5
633.459	27918.22
633.813	28010.42
634.167	27978.33
634.521	27960.48
634.875	27896.07
635.229	27863.76
635.583	27889.29
635.937	27828.96
636.291	27746.47
636.645	27711.67
636.999	27536.76
637.352	27736.76
637.706	27550.32
638.06	27638
638.413	27632.35
638.767	27453.83
639.121	27467.39
639.474	27441.17
639.828	27350.1
640.181	27416.99
640.534	27460.83
640.888	27330.44
641.241	27162.76
641.594	27275.07
641.947	27304.9
642.301	27174.74
642.654	27122.08
643.007	27089.77
643.36	27298.12
643.713	27204.12
644.066	27314.85
644.419	26927.29
644.771	26660.4
645.124	26515.32
645.477	26495.66
645.83	26434.19
646.182	26486.62
646.535	26415.89
646.888	26742.21
647.24	26466.28
647.593	26593.06
647.945	26587.63
648.298	26449.78
648.65	26264.03
649.002	26129.79
649.355	26159.4
649.707	25949.46
650.059	25917.37
650.411	26400.07
650.763	26647.52
651.115	27016.78
651.467	26855.65
651.819	27040.28
652.171	26900.39
652.523	26910.11
652.875	26872.6
653.227	26816.1
653.578	27032.82
653.93	26980.39
654.282	26794.63
654.633	26919.83
654.985	26980.17
655.337	26991.01
655.688	26987.85
656.039	27073.95
656.391	26716.22
656.742	26792.15
657.094	26878.25
657.445	26971.58
657.796	26960.28
658.147	26897.23
658.498	26977.68
658.849	27089.77
659.2	26951.24
659.551	26927.74
659.902	27198.24
660.253	27049.54
660.604	27097.23
660.955	27056.77
661.306	27314.85
661.656	27049.54
662.007	27162.99
662.358	27253.61
662.708	27271.91
663.059	27116.43
663.409	27107.85
663.76	27248.86
664.11	27349.42
664.461	27346.26
664.811	27325.92
665.161	27377.9
665.511	27258.58
665.862	27376.54
666.212	27385.35
666.562	27438.69
666.912	27396.65
667.262	27277.79
667.612	27335.86
667.962	27325.24
668.312	27382.42
668.662	27530.66
669.011	27421.28
669.361	27477.1
669.711	27394.17
670.06	27285.92
670.41	27345.81
670.76	27309.2
671.109	27360.5
671.459	27361.63
671.808	27298.12
672.157	27345.58
672.507	27224.91
672.856	27172.7
673.205	27228.75
673.554	27313.72
673.904	27164.34
674.253	27350.1
674.602	27163.89
674.951	26835.99
675.3	26721.87
675.649	27179.48
675.998	27166.6
676.346	27056.1
676.695	27177
677.044	26995.76
677.393	26930
677.741	27098.81
678.09	26948.75
678.438	26882.54
678.787	27006.38
679.135	26921.41
679.484	26746.27
679.832	26838.7
680.181	26703.79
680.529	26658.14
680.877	26543.34
681.225	26542.44
681.573	26685.26
681.922	26598.48
682.27	26465.15
682.618	26470.58
682.966	26413.85
683.314	26346.74
683.661	26285.72
684.009	26317.36
684.357	26204.82
684.705	26085.27
685.053	26169.34
685.4	25977.71
685.748	25852.96
686.095	25889.12
686.443	25850.48
686.79	25737.94
687.138	25760.99
687.485	25614.78
687.832	25507.44
688.18	25593.08
688.527	25381.79
688.874	25359.87
689.221	25324.16
689.568	25288.91
689.915	25032.65
690.262	25139.76
690.609	25064.51
690.956	24893.44
691.303	24926.89
691.65	24719.66
691.997	24789.04
692.344	24629.72
692.69	24556.05
693.037	24493.68
693.383	24253.01
693.73	24379.56
694.077	24206.23
694.423	24143.86
694.769	24067.02
695.116	24058.89
695.462	23949.74
695.808	23744.32
696.155	23843.3
696.501	23576.64
696.847	23719.69
697.193	23470.88
697.539	23420.49
697.885	23201.73
698.231	23177.1
698.577	23110.89
698.923	23063.89
699.269	22841.97
699.614	22740.73
699.96	22644.24
700.306	22641.75
700.651	22539.38
700.997	22425.48
701.342	22434.07
701.688	22387.74
702.033	22187.3
702.379	22177.35
702.724	22176.22
703.069	21988.43
703.415	21838.15
703.76	21721.55
704.105	21775.11
704.45	21628.67
704.795	21631.15
705.14	21499.41
705.485	21426.41
705.83	21296.7
706.175	21312.07
706.52	21275.01
706.865	21210.6
707.209	21099.64
707.554	21053.32
707.899	20988.91
708.243	20874.34
708.588	20787.33
708.932	20776.71
709.277	20722.03
709.621	20717.28
709.966	20631.86
710.31	20543.73
710.654	20441.13
710.998	20464.41
711.342	20428.47
711.687	20384.18
712.031	20382.6
712.375	20177.18
712.719	20278.42
713.063	20150.29
713.407	20308.25
713.75	20195.94
714.094	20097.18
714.438	19960.01
714.782	20079.1
715.125	19988.03
715.469	19960.46
715.812	19894.48
716.156	19848.83
716.499	19879.11
716.843	19854.03
717.186	19764.08
717.53	19752.11
717.873	19771.54
718.216	19747.81
718.559	19724.54
718.902	19536.75
719.246	19635.27
719.589	19679.12
719.932	19543.07
720.275	19719.34
720.617	19734.26
720.96	19583.75
721.303	19524.32
721.646	19626.46
721.989	19561.38
722.331	19594.82
722.674	19523.41
723.016	19559.8
723.359	19532.9
723.701	19526.8
724.044	19504.2
724.386	19429.4
724.729	19520.25
725.071	19480.7
725.413	19447.48
725.755	19467.6
726.097	19407.03
726.439	19372.91
726.782	19348.73
727.124	19470.53
727.465	19538.1
727.807	19502.85
728.149	19431.44
728.491	19361.38
728.833	19551.44
729.175	19594.37
729.516	19464.21
729.858	19428.27
730.199	19581.94
730.541	19452
730.882	19500.59
731.224	19575.39
731.565	19447.71
731.906	19595.05
732.248	19610.19
732.589	19574.26
732.93	19635.73
733.271	19721.37
733.612	19631.21
733.953	19907.81
734.294	19818.32
734.635	19823.07
734.976	19781.03
735.317	19803.41
735.658	19996.17
735.999	19920.46
736.339	19902.61
736.68	20061.25
737.021	20096.05
737.361	19989.84
737.702	20162.94
738.042	20206.11
738.383	20304.18
738.723	20193.68
739.063	20115.04
739.404	20477.29
739.744	20556.83
740.084	20477.29
740.424	20649.03
740.764	20584.4
741.104	20769.71
741.444	20762.48
741.784	20770.39
742.124	21044.28
742.464	20980.55
742.804	21084.73
743.143	21193.65
743.483	21319.07
743.823	21290.6
744.162	21421.44
744.502	21559.52
744.841	21742.34
745.181	21914.99
745.52	21913.86
745.86	22036.34
746.199	22171.71
746.538	22348.2
746.877	22527.4
747.216	22684.46
747.556	22829.54
747.895	23018.69
748.234	23048.52
748.573	23133.49
748.911	23312.47
749.25	23549.07
749.589	23696.41
749.928	23953.13
750.267	24155.61
750.605	24302.5
750.944	24408.93
751.283	24685.76
751.621	24935.02
751.96	25083.72
752.298	25254.79
752.636	25565.51
752.975	25702.01
753.313	25850.03
753.651	26209.57
753.989	26360.07
754.327	26657.69
754.666	26675.32
755.004	27010.45
