Data from 17-5722_FLMS001491_006.txt Node
Date: Thu Apr 19 15:14:39 BST 2018
User: hsy
Spectrometer: FLMS00149
Trigger mode: 0
Integration Time (sec): 1.000000E-2
Scans to average: 10
Electric dark correction enabled: true
Nonlinearity correction enabled: false
Boxcar width: 0
XAxis mode: Wavelengths
Number of Pixels in Spectrum: 2048
>>>>>Begin Spectral Data<<<<<
341.393	-18.5
341.776	-18.5
342.16	-18.5
342.543	-63.25
342.927	-67.31
343.31	-81.33
343.693	-68.67
344.077	-65.73
344.46	-48.78
344.843	-42.68
345.226	-44.94
345.61	-4.49
345.993	-12.4
346.376	-5.17
346.759	-2.68
347.142	5.9
347.525	33.25
347.908	42.96
348.291	85.68
348.674	93.13
349.057	115.96
349.44	134.94
349.823	156.86
350.206	172.68
350.588	215.84
350.971	247.25
351.354	275.28
351.737	267.82
352.119	292.45
352.502	294.48
352.884	314.14
353.267	323.41
353.65	314.14
354.032	344.43
354.414	366.12
354.797	357.98
355.179	338.55
355.562	349.17
355.944	360.7
356.326	357.08
356.709	369.51
357.091	367.7
357.473	381.26
357.855	379.23
358.238	372
358.62	387.14
359.002	371.54
359.384	360.24
359.766	395.05
360.148	371.09
360.53	386.91
360.912	384.42
361.294	349.17
361.676	375.84
362.057	351.43
362.439	364.31
362.821	388.94
363.203	362.5
363.584	370.64
363.966	394.82
364.348	368.83
364.729	372.45
365.111	375.61
365.493	364.99
365.874	357.76
366.256	357.76
366.637	345.56
367.019	376.97
367.4	369.74
367.781	347.14
368.163	377.19
368.544	366.12
368.925	368.38
369.306	348.27
369.688	376.29
370.069	363.18
370.45	369.74
370.831	345.56
371.212	361.6
371.593	371.32
371.974	368.83
372.355	372
372.736	374.26
373.117	378.78
373.498	383.97
373.879	374.93
374.26	342.39
374.641	378.1
375.021	383.3
375.402	391.2
375.783	407.48
376.163	412.45
376.544	409.28
376.925	387.36
377.305	380.13
377.686	387.36
378.066	393.92
378.447	416.06
378.827	402.05
379.208	409.06
379.588	419.23
379.968	407.02
380.349	422.84
380.729	398.66
381.109	419.23
381.489	406.8
381.87	458.55
382.25	420.58
382.63	413.35
383.01	434.82
383.39	440.92
383.77	425.33
384.15	441.6
384.53	432.33
384.91	440.24
385.29	438.66
385.67	433.24
386.049	438.21
386.429	449.96
386.809	451.32
387.189	458.1
387.568	468.49
387.948	451.09
388.328	457.42
388.707	482.5
389.087	483.86
389.466	484.08
389.846	496.06
390.225	484.76
390.605	491.77
390.984	495.61
391.363	478.89
391.743	490.86
392.122	487.02
392.501	503.52
392.881	496.29
393.26	502.61
393.639	520.92
394.018	531.99
394.397	529.51
394.776	522.5
395.155	528.38
395.534	574.02
395.913	543.74
396.292	534.03
396.671	541.26
397.05	577.19
397.429	550.75
397.808	550.97
398.186	533.8
398.565	574.93
398.944	571.76
399.323	564.99
399.701	583.52
400.08	583.52
400.458	574.02
400.837	597.75
401.215	574.48
401.594	584.65
401.972	588.71
402.351	613.35
402.729	614.48
403.107	627.13
403.486	611.54
403.864	626.23
404.242	631.42
404.62	646.11
404.999	651.99
405.377	632.78
405.755	648.15
406.133	671.87
406.511	659.45
406.889	656.06
407.267	685.21
407.645	683.85
408.023	698.31
408.401	703.29
408.779	726.34
409.156	717.52
409.534	721.37
409.912	734.7
410.29	757.07
410.667	738.99
411.045	748.03
411.422	772.89
411.8	786.45
412.178	794.58
412.555	805.2
412.933	811.53
413.31	833.45
413.687	821.25
414.065	855.82
414.442	816.73
414.819	856.5
415.197	870.74
415.574	888.37
415.951	877.29
416.328	888.37
416.705	880.91
417.082	898.99
417.46	915.03
417.837	885.43
418.214	914.13
418.591	924.07
418.967	938.76
419.344	937.18
419.721	914.81
420.098	940.57
420.475	961.36
420.852	953.9
421.228	963.84
421.605	1019.21
421.982	989.15
422.358	1002.49
422.735	1006.1
423.111	1020.11
423.488	1029.61
423.864	1049.27
424.241	1034.13
424.617	1058.53
424.994	1055.14
425.37	1079.77
425.746	1091.98
426.123	1110.06
426.499	1105.76
426.875	1145.76
427.251	1142.6
427.627	1166.55
428.003	1178.98
428.379	1210.84
428.756	1208.81
429.132	1196.61
429.507	1255.36
429.883	1226.66
430.259	1257.85
430.635	1266.66
431.011	1303.5
431.387	1294.23
431.763	1306.21
432.138	1335.36
432.514	1345.53
432.89	1343.72
433.265	1400.22
433.641	1394.34
434.016	1390.73
434.392	1419.43
434.767	1434.79
435.143	1458.97
435.518	1457.62
435.894	1490.84
436.269	1522.47
436.644	1513.21
437.02	1531.06
437.395	1513.21
437.77	1568.57
438.145	1569.03
438.52	1588.91
438.895	1590.04
439.271	1605.41
439.646	1673.43
440.021	1658.06
440.395	1656.71
440.77	1677.05
441.145	1679.08
441.52	1715.46
441.895	1690.38
442.27	1708.01
442.645	1723.15
443.019	1729.47
443.394	1729.7
443.769	1743.94
444.143	1743.71
444.518	1754.78
444.892	1779.87
445.267	1761.79
445.641	1789.59
446.016	1831.17
446.39	1821.45
446.764	1845.63
447.139	1856.48
447.513	1879.98
447.887	1905.51
448.262	1890.37
448.636	1912.97
449.01	1912.75
449.384	1936.93
449.758	1942.12
450.132	1971.73
450.506	1985.96
450.88	1997.72
451.254	1986.19
451.628	2056.47
452.002	2054.66
452.376	2037.26
452.75	2082.46
453.123	2127.2
453.497	2127.43
453.871	2140.54
454.244	2213.08
454.618	2216.92
454.992	2258.05
455.365	2276.58
455.739	2288.56
456.112	2304.83
456.486	2327.65
456.859	2375.11
457.232	2413.07
457.606	2449.68
457.979	2426.41
458.352	2499.17
458.725	2561.09
459.099	2566.29
459.472	2620.07
459.845	2619.62
460.218	2651.71
460.591	2662.56
460.964	2717.92
461.337	2759.5
461.71	2774.42
462.083	2811.93
462.456	2822.1
462.829	2894.87
463.201	2905.26
463.574	2928.54
463.947	2979.16
464.32	2991.36
464.692	3040.4
465.065	3019.38
465.438	3108.87
465.81	3125.82
466.183	3130.57
466.555	3223.22
466.928	3259.38
467.3	3243.11
467.672	3274.29
468.045	3356.55
468.417	3354.06
468.789	3392.03
469.161	3463.67
469.534	3518.35
469.906	3534.62
470.278	3556.54
470.65	3601.97
471.022	3674.73
471.394	3748.86
471.766	3784.56
472.138	3821.62
472.51	3889.87
472.882	3908.4
473.253	3996.76
473.625	4033.82
473.997	4145.46
474.369	4146.81
474.74	4226.81
475.112	4285.79
475.484	4327.6
475.855	4371.44
476.227	4461.83
476.598	4516.75
476.97	4629.29
477.341	4685.1
477.713	4759
478.084	4805.55
478.455	4983.17
478.827	4974.81
479.198	5143.85
479.569	5152.21
479.94	5277.18
480.311	5346.33
480.682	5458.87
481.053	5550.16
481.424	5674.23
481.795	5750.16
482.166	5832.87
482.537	5934.34
482.908	6088
483.279	6128.91
483.65	6296.81
484.021	6398.05
484.391	6462.46
484.762	6543.36
485.133	6666.75
485.503	6789
485.874	6943.57
486.244	7002.33
486.615	7134.53
486.985	7243.91
487.356	7394.86
487.726	7499.04
488.097	7724.57
488.467	7762.99
488.837	7989.65
489.207	8089.76
489.578	8221.96
489.948	8373.37
490.318	8506.25
490.688	8470.54
491.058	8786.01
491.428	8900.59
491.798	8953.92
492.168	9246.34
492.538	9320.91
492.908	9456.73
493.278	9627.12
493.648	9668.7
494.017	9802.93
494.387	9967.45
494.757	10105.3
495.126	10265.3
495.496	10366.54
495.866	10575.8
496.235	10642.23
496.605	10875
496.974	10994.77
497.344	11103.92
497.713	11284.93
498.082	11411.71
498.452	11572.38
498.821	11663
499.19	11743.45
499.559	11910.9
499.928	12014.4
500.298	12161.74
500.667	12288.97
501.036	12370.55
501.405	12523.77
501.774	12705.91
502.143	12966.92
502.512	13006.24
502.88	13162.17
503.249	13210.53
503.618	13361.48
503.987	13502.5
504.356	13585.66
504.724	13806.67
505.093	13839.66
505.462	13992.2
505.83	14128.47
506.199	14257.05
506.567	14474
506.936	14502.92
507.304	14701.11
507.672	14846.64
508.041	14914.66
508.409	15080.08
508.777	15221.55
509.145	15327.53
509.514	15456.8
509.882	15564.59
510.25	15624.25
510.618	15811.36
510.986	15787.86
511.354	16018.14
511.722	16138.81
512.09	16323.21
512.458	16310.56
512.826	16540.16
513.193	16566.82
513.561	16691.79
513.929	16791.45
514.297	17011.78
514.664	17068.05
515.032	17229.63
515.4	17326.8
515.767	17404.99
516.135	17457.65
516.502	17306.47
516.869	17836.62
517.237	17781.48
517.604	17788.26
517.972	18068.25
518.339	18023.28
518.706	18212.66
519.073	18151.42
519.44	18305.76
519.808	18530.84
520.175	18519.54
520.542	18778.74
520.909	18870.04
521.276	18865.07
521.643	19132.86
522.009	19322.46
522.376	19248.56
522.743	19357.03
523.11	19627.31
523.477	19744.59
523.843	19743.92
524.21	19917.47
524.577	20104.36
524.943	20189.78
525.31	20232.94
525.676	20452.37
526.043	20643.78
526.409	20681.52
526.776	20916.54
527.142	20950.44
527.508	20989.76
527.874	21069.76
528.241	21349.3
528.607	21321.28
528.973	21560.37
529.339	21497.99
529.705	21718.1
530.071	21774.37
530.437	21901.15
530.803	22077.19
531.169	22039.45
531.535	22067.92
531.901	22210.97
532.267	22262.95
532.632	22377.29
532.998	22537.97
533.364	22508.81
533.73	22557.18
534.095	22740.9
534.461	22729.6
534.826	22770.5
535.192	22800.56
535.557	22941.35
535.923	22850.05
536.288	22945.19
536.653	23086.65
537.019	22972.31
537.384	23074.22
537.749	23098.63
538.114	23026.09
538.479	23041.68
538.845	23076.71
539.21	23107.44
539.575	23192.19
539.94	23157.39
540.305	23422.01
540.67	23350.6
541.034	23307.21
541.399	23322.35
541.764	23295.23
542.129	23350.37
542.494	23413.88
542.858	23417.72
543.223	23390.15
543.587	23455.46
543.952	23379.3
544.316	23368
544.681	23359.19
545.045	23447.32
545.41	23484.83
545.774	23409.36
546.138	23493.2
546.503	23438.06
546.867	23447.32
547.231	23657.71
547.595	23586.3
547.959	23559.86
548.324	23623.36
548.688	23564.83
549.052	23589.69
549.416	23608.67
549.779	23568.9
550.143	23577.49
550.507	23668.33
550.871	23712.85
551.235	23667.2
551.599	23761.66
551.962	23672.17
552.326	23719.18
552.689	23814.09
553.053	23522.8
553.417	23711.27
553.78	23856.58
554.143	23847.76
554.507	23803.02
554.87	23924.82
555.234	23973.18
555.597	23755.34
555.96	23871.49
556.323	23946.97
556.686	23928.66
557.05	24010.7
557.413	24030.81
557.776	24045.95
558.139	24195.1
558.502	24182.44
558.865	24118.94
559.228	24346.73
559.59	24323.68
559.953	24216.34
560.316	24562.09
560.679	24467.63
561.041	24555.54
561.404	24635.09
561.767	24743.78
562.129	24691.36
562.492	24819.71
562.854	24745.14
563.217	24824.01
563.579	24809.09
563.941	25034.4
564.304	25149.65
564.666	25287.72
565.028	25273.04
565.39	25282.75
565.753	25448.62
566.115	25368.4
566.477	25605.46
566.839	25615.85
567.201	25926.35
567.563	25786.24
567.925	26020.81
568.287	26002.28
568.648	26031.21
569.01	26235.95
569.372	26289.28
569.734	26368.6
570.095	26554.58
570.457	26611.08
570.819	26669.16
571.18	26651.3
571.542	26906.21
571.903	26891.07
572.265	26962.71
572.626	27072.31
572.987	27070.05
573.349	27125.87
573.71	27330.38
574.071	27459.19
574.432	27620.54
574.794	27757.94
575.155	27779.41
575.516	27680.2
575.877	27877.71
576.238	27868.22
576.599	27850.6
576.96	27953.64
577.32	28068.89
577.681	28191.15
578.042	28240.64
578.403	28155.22
578.763	28168.78
579.124	28319.28
579.485	28521.76
579.845	28552.5
580.206	28493.29
580.566	28594.76
580.927	28529.9
581.287	28673.17
581.648	28629.33
582.008	28732.83
582.368	28748.42
582.728	28777.58
583.089	28843.34
583.449	28846.28
583.809	28787.52
584.169	28895.77
584.529	28836.33
584.889	29034.29
585.249	28875.2
585.609	28766.96
585.969	29006.72
586.329	28871.13
586.688	28981.64
587.048	29030.68
587.408	28935.31
587.768	28985.48
588.127	29003.56
588.487	28939.15
588.846	29118.81
589.206	28950.23
589.565	29007.4
589.925	29264.8
590.284	29138.92
590.643	29137.34
591.003	29126.27
591.362	29373.95
591.721	29207.85
592.08	29151.8
592.44	29271.12
592.799	29197.9
593.158	29258.24
593.517	29200.84
593.876	29351.57
594.235	29300.05
594.593	29242.65
594.952	29289.2
595.311	29227.73
595.67	29331.91
596.029	29413.49
596.387	29536.2
596.746	29510.66
597.104	29354.74
597.463	29384.57
597.822	29566.26
598.18	29466.6
598.538	29349.99
598.897	29571.91
599.255	29422.53
599.613	29847.38
599.972	29573.26
600.33	29630.21
600.688	29393.15
601.046	29594.05
601.404	29835.85
601.762	29678.34
602.12	29812.8
602.478	29741.85
602.836	29770.54
603.194	29648.06
603.552	29785.69
603.91	29634.96
604.268	29858
604.625	29761.73
604.983	29870.43
605.341	29736.87
605.698	29983.42
606.056	30145.45
606.413	29855.74
606.771	30020.71
607.128	30005.79
607.485	29951.11
607.843	30011.89
608.2	30175.28
608.557	30215.73
608.914	30098.22
609.272	30189.52
609.629	30274.03
609.986	30458.89
610.343	30365.33
610.7	30429.96
611.057	30619.56
611.414	30424.99
611.771	30568.26
612.127	30681.48
612.484	30711.54
612.841	30727.36
613.198	30682.16
613.554	30492.11
613.911	30819.33
614.267	30802.83
614.624	30769.61
614.98	30956.05
615.337	31163.05
615.693	30912.89
616.05	30914.47
616.406	31049.83
616.762	31106.55
617.118	31100
617.475	31040.57
617.831	31158.53
618.187	31244.86
618.543	31177.51
618.899	31496.83
619.255	31311.3
619.611	31247.57
619.967	31369.6
620.323	31450.05
620.678	31397.17
621.034	31264.97
621.39	31326.44
621.746	31438.52
622.101	31789.47
622.457	31388.13
622.812	31644.62
623.168	31636.26
623.523	31647.56
623.879	31770.04
624.234	31614.79
624.589	31729.14
624.945	31627.45
625.3	31692.53
625.655	31737.05
626.01	31804.16
626.365	31845.52
626.72	31649.14
627.075	31503.83
627.43	31546.77
627.785	31602.14
628.14	31489.37
628.495	31662.92
628.85	31657.73
629.205	31673.55
629.559	31678.52
629.914	31481.91
630.269	31560.1
630.623	31333.89
630.978	31445.08
631.332	31758.29
631.687	31526.2
632.041	31442.14
632.396	31552.42
632.75	31495.02
633.104	31457.73
633.459	31332.31
633.813	31253.9
634.167	31137.06
634.521	31309.71
634.875	31247.34
635.229	31168.93
635.583	30979.1
635.937	31066.78
636.291	31045.09
636.645	30942.04
636.999	30883.51
637.352	30938.2
637.706	30767.13
638.06	30797.41
638.413	30851.42
638.767	30728.94
639.121	30789.05
639.474	30620.92
639.828	30610.07
640.181	30687.81
640.534	30651.43
640.888	30564.87
641.241	30279.01
641.594	30337.08
641.947	30476.74
642.301	30420.02
642.654	30416.18
643.007	30276.07
643.36	30487.14
643.713	30365.11
644.066	30508.15
644.419	30243.75
644.771	29961.5
645.124	29715.63
645.477	29764.22
645.83	29602.19
646.182	29636.76
646.535	29679.02
646.888	29594.05
647.24	29449.65
647.593	29681.06
647.945	29563.09
648.298	29585.47
648.65	29406.26
649.002	29213.95
649.355	29174.18
649.707	28990.9
650.059	28963.79
650.411	29466.37
650.763	29652.58
651.115	30145
651.467	30076.98
651.819	30068.62
652.171	29981.84
652.523	29989.75
652.875	29949.75
653.227	29906.13
653.578	30204.43
653.93	30021.16
654.282	29874.72
654.633	29976.64
654.985	29894.38
655.337	29997.66
655.688	29953.36
656.039	30121.04
656.391	29886.25
656.742	29894.61
657.094	29984.32
657.445	30050.76
657.796	30163.53
658.147	30179.8
658.498	30026.36
658.849	30177.54
659.2	30095.06
659.551	30118.78
659.902	30340.47
660.253	30112.23
660.604	30304.32
660.955	30031.1
661.306	30319.68
661.656	30203.08
662.007	30253.47
662.358	30255.96
662.708	30193.81
663.059	30222.06
663.409	30057.77
663.76	30249.4
664.11	30470.87
664.461	30386.12
664.811	30409.85
665.161	30348.61
665.511	30392.9
665.862	30314.03
666.212	30397.42
666.562	30580.47
666.912	30406.69
667.262	30372.79
667.612	30385.9
667.962	30341.38
668.312	30248.5
668.662	30612.78
669.011	30443.52
669.361	30290.31
669.711	30455.72
670.06	30328.72
670.41	30243.98
670.76	30270.19
671.109	30438.32
671.459	30291.66
671.808	30400.36
672.157	30381.38
672.507	30212.12
672.856	30281.49
673.205	30157.43
673.554	30315.16
673.904	30216.18
674.253	30392.9
674.602	30124.43
674.951	29860.26
675.3	29612.13
675.649	29941.61
675.998	30011.44
676.346	30018.22
676.695	30072.01
677.044	30114.26
677.393	30032.91
677.741	30063.87
678.09	29909.07
678.438	29806.02
678.787	29979.13
679.135	29928.96
679.484	29676.54
679.832	29802.18
680.181	29691.45
680.529	29813.03
680.877	29556.09
681.225	29542.3
681.573	29818.68
681.922	29549.53
682.27	29392.7
682.618	29487.39
682.966	29375.75
683.314	29403.77
683.661	29368.07
684.009	29175.08
684.357	29103.22
684.705	29055.31
685.053	29183.67
685.4	28982.32
685.748	28855.77
686.095	28906.39
686.443	28730.8
686.79	28605.38
687.138	28659.84
687.485	28598.37
687.832	28579.84
688.18	28509.11
688.527	28378.72
688.874	28422.33
689.221	28304.14
689.568	28201.09
689.915	28073.41
690.262	28087.88
690.609	27978.73
690.956	27772.18
691.303	27796.36
691.65	27636.82
691.997	27540.1
692.344	27493.54
692.69	27387.33
693.037	27235.7
693.383	27085.19
693.73	27278.63
694.077	27063.5
694.423	26945.31
694.769	26739.89
695.116	26757.29
695.462	26519.78
695.808	26490.41
696.155	26444.08
696.501	26170.41
696.847	26311.88
697.193	26056.74
697.539	26034.15
697.885	25771.33
698.231	25755.74
698.577	25710.31
698.923	25685.23
699.269	25385.35
699.614	25435.07
699.96	25254.05
700.306	25334.5
700.651	25030.56
700.997	25024.68
701.342	24892.71
701.688	24886.61
702.033	24731.81
702.379	24646.61
702.724	24525.26
703.069	24627.86
703.415	24173.4
703.76	24220.86
704.105	24217.7
704.45	24153.52
704.795	24013.41
705.14	23837.82
705.485	23936.57
705.83	23660.88
706.175	23723.02
706.52	23715.79
706.865	23605.51
707.209	23537.49
707.554	23393.31
707.899	23489.81
708.243	23217.5
708.588	23289.59
708.932	23134.56
709.277	23173.43
709.621	23027.22
709.966	22907.67
710.31	22979.99
710.654	22712.65
710.998	22888.92
711.342	22845.76
711.687	22627
712.031	22693.67
712.375	22553.56
712.719	22478.31
713.063	22544.97
713.407	22564.41
713.75	22456.39
714.094	22430.85
714.438	22357.18
714.782	22298.88
715.125	22179.11
715.469	22288.26
715.812	22195.15
716.156	22189.5
716.499	22153.12
716.843	22148.37
717.186	22082.84
717.53	22126.45
717.873	22117.41
718.216	22187.92
718.559	21925.55
718.902	21895.95
719.246	21879.45
719.589	21852.56
719.932	21832.9
720.275	21912.22
720.617	21937.08
720.96	21753.13
721.303	21827.93
721.646	21914.71
721.989	21721.27
722.331	21858.21
722.674	21731.89
723.016	21703.19
723.359	21750.19
723.701	21733.24
724.044	21761.26
724.386	21656.18
724.729	21808.72
725.071	21837.19
725.413	21745.67
725.755	21675.16
726.097	21769.17
726.439	21560.14
726.782	21590.65
727.124	21764.65
727.465	21686.46
727.807	21717.2
728.149	21851.66
728.491	21684.2
728.833	21728.04
729.175	21741.6
729.516	21690.98
729.858	21842.62
730.199	21856.4
730.541	21767.59
730.882	21830.41
731.224	21820.47
731.565	21723.52
731.906	21845.78
732.248	22009.85
732.589	21839.45
732.93	21781.15
733.271	21814.37
733.612	21898.89
733.953	22010.52
734.294	21827.25
734.635	21994.03
734.976	22060.69
735.317	22047.81
735.658	22088.71
735.999	22053.23
736.339	22156.28
736.68	22201.25
737.021	22276.05
737.361	22214.81
737.702	22385.43
738.042	22354.47
738.383	22443.73
738.723	22553.33
739.063	22526.22
739.404	22597.85
739.744	22784.06
740.084	22749.94
740.424	22813.44
740.764	22802.82
741.104	22934.34
741.444	22965.07
741.784	22962.81
742.124	23105.18
742.464	23213.43
742.804	23245.97
743.143	23318.51
743.483	23654.77
743.823	23545.17
744.162	23588.56
744.502	23770.25
744.841	23852.73
745.181	24114.87
745.52	24049.34
745.86	24220.18
746.199	24268.99
746.538	24476.67
746.877	24694.07
747.216	24825.82
747.556	24961.18
747.895	25108.07
748.234	25316.65
748.573	25360.72
748.911	25665.57
749.25	25797.77
749.589	25931.1
749.928	26194.82
750.267	26310.52
750.605	26593.68
750.944	26735.82
751.283	26731.98
751.621	27152.08
751.96	27220.78
752.298	27522.24
752.636	27715.23
752.975	27913.19
753.313	28069.35
753.651	28468.88
753.989	28491.71
754.327	28878.59
754.666	28764.92
