Data from 17-5722_FLMS001491_003.txt Node
Date: Thu Apr 19 15:14:31 BST 2018
User: hsy
Spectrometer: FLMS00149
Trigger mode: 0
Integration Time (sec): 1.000000E-2
Scans to average: 10
Electric dark correction enabled: true
Nonlinearity correction enabled: false
Boxcar width: 0
XAxis mode: Wavelengths
Number of Pixels in Spectrum: 2048
>>>>>Begin Spectral Data<<<<<
341.393	-22.88
341.776	-22.88
342.16	-22.88
342.543	-68.76
342.927	-50.22
343.31	-69.43
343.693	-65.37
344.077	-60.39
344.46	-62.88
344.843	-26.04
345.226	-33.05
345.61	-30.34
345.993	-11.13
346.376	-37.8
346.759	3.79
347.142	24.12
347.525	30.9
347.908	75.87
348.291	63.22
348.674	90.11
349.057	108.42
349.44	133.5
349.823	139.83
350.206	178.47
350.588	220.05
350.971	244
351.354	266.83
351.737	270.67
352.119	286.04
352.502	295.98
352.884	300.95
353.267	293.95
353.65	331.23
354.032	340.5
354.414	342.76
354.797	344.79
355.179	347.05
355.562	330.56
355.944	377.56
356.326	375.98
356.709	371.46
357.091	373.04
357.473	378.92
357.855	378.69
358.238	383.89
358.62	393.38
359.002	382.76
359.384	383.66
359.766	374.17
360.148	382.53
360.53	368.52
360.912	380.5
361.294	373.49
361.676	378.69
362.057	361.29
362.439	365.13
362.821	379.82
363.203	368.97
363.584	356.54
363.966	358.58
364.348	365.13
364.729	356.77
365.111	373.27
365.493	363.55
365.874	374.62
366.256	356.32
366.637	351.8
367.019	361.29
367.4	349.99
367.781	374.17
368.163	366.04
368.544	394.96
368.925	366.04
369.306	365.81
369.688	366.26
370.069	359.71
370.45	360.61
370.831	386.83
371.212	385.92
371.593	382.08
371.974	364.45
372.355	366.26
372.736	385.02
373.117	390.44
373.498	379.14
373.879	364.23
374.26	377.33
374.641	385.47
375.021	363.55
375.402	391.35
375.783	385.24
376.163	398.13
376.544	388.63
376.925	388.63
377.305	395.19
377.686	414.4
378.066	395.87
378.447	390.67
378.827	413.94
379.208	396.77
379.588	413.27
379.968	431.57
380.349	431.12
380.729	408.97
381.109	420.27
381.489	423.44
381.87	423.44
382.25	418.24
382.63	441.74
383.01	415.07
383.39	428.86
383.77	458.91
384.15	403.55
384.53	463.21
384.91	431.34
385.29	439.25
385.67	452.36
386.049	451.68
386.429	441.29
386.809	444.9
387.189	464.79
387.568	455.3
387.948	453.94
388.328	458.01
388.707	467.95
389.087	479.93
389.466	499.14
389.846	480.16
390.225	473.83
390.605	510.66
390.984	502.08
391.363	486.71
391.743	503.43
392.122	498.69
392.501	526.03
392.881	528.07
393.26	504.56
393.639	527.16
394.018	522.64
394.397	513.6
394.776	538.23
395.155	546.82
395.534	531.23
395.913	525.35
396.292	535.3
396.671	541.17
397.05	547.5
397.429	554.05
397.808	548.4
398.186	567.84
398.565	560.83
398.944	550.89
399.323	560.83
399.701	585.69
400.08	573.71
400.458	598.35
400.837	601.28
401.215	599.7
401.594	610.77
401.972	590.21
402.351	598.57
402.729	613.49
403.107	629.53
403.486	637.21
403.864	622.98
404.242	620.49
404.62	633.15
404.999	647.84
405.377	649.64
405.755	659.36
406.133	688.96
406.511	641.06
406.889	687.16
407.267	689.64
407.645	691
408.023	698.46
408.401	685.58
408.779	722.86
409.156	731.68
409.534	745.69
409.912	759.7
410.29	750.66
410.667	776.42
411.045	763.99
411.422	804.22
411.8	805.35
412.178	791.56
412.555	801.96
412.933	817.78
413.31	797.89
413.687	857.32
414.065	837.21
414.442	815.06
414.819	864.78
415.197	870.88
415.574	878.11
415.951	875.85
416.328	881.5
416.705	874.72
417.082	861.39
417.46	904.78
417.837	911.78
418.214	916.98
418.591	945.68
418.967	948.85
419.344	930.99
419.721	932.8
420.098	957.43
420.475	998.56
420.852	956.08
421.228	998.79
421.605	994.95
421.982	993.82
422.358	1005.34
422.735	1017.54
423.111	1025.45
423.488	1027.26
423.864	1062.51
424.241	1049.41
424.617	1071.1
424.994	1084.21
425.37	1093.93
425.746	1096.86
426.123	1110.2
426.499	1108.84
426.875	1140.25
427.251	1149.52
427.627	1163.53
428.003	1156.98
428.379	1200.14
428.756	1220.25
429.132	1198.56
429.507	1220.25
429.883	1231.78
430.259	1252.79
430.635	1272.23
431.011	1282.4
431.387	1271.1
431.763	1321.94
432.138	1346.35
432.514	1332.11
432.89	1320.36
433.265	1398.55
433.641	1373.47
434.016	1398.1
434.392	1435.84
434.767	1432.45
435.143	1454.14
435.518	1437.42
435.894	1483.97
436.269	1506.12
436.644	1514.25
437.02	1529.39
437.395	1536.4
437.77	1561.03
438.145	1572.33
438.52	1598.32
438.895	1604.65
439.271	1609.17
439.646	1663.18
440.021	1673.8
440.395	1700.24
440.77	1635.83
441.145	1676.28
441.52	1715.15
441.895	1723.29
442.27	1724.87
442.645	1707.92
443.019	1759.9
443.394	1743.4
443.769	1772.1
444.143	1770.07
444.518	1807.58
444.892	1799.44
445.267	1798.31
445.641	1771.42
446.016	1832.66
446.39	1856.84
446.764	1832.44
447.139	1879.22
447.513	1898.2
447.887	1890.52
448.262	1908.37
448.636	1916.28
449.01	1923.51
449.384	1957.86
449.758	1925.54
450.132	2010.29
450.506	2011.19
450.88	2015.03
451.254	2004.18
451.628	2020
452.002	2062.04
452.376	2086.22
452.75	2103.17
453.123	2122.37
453.497	2140.45
453.871	2197.63
454.244	2226.33
454.618	2233.11
454.992	2229.72
455.365	2282.6
455.739	2362.37
456.112	2352.42
456.486	2344.29
456.859	2374.8
457.232	2392.87
457.606	2450.95
457.979	2450.95
458.352	2532.53
458.725	2525.75
459.099	2556.03
459.472	2620.89
459.845	2678.29
460.218	2662.25
460.591	2684.17
460.964	2721.45
461.337	2734.33
461.71	2778.85
462.083	2845.74
462.456	2868.34
462.829	2861.56
463.201	2940.21
463.574	2911.96
463.947	2981.33
464.32	3033.54
464.692	3015.46
465.065	3070.6
465.438	3113.53
465.81	3144.95
466.183	3145.17
466.555	3259.29
466.928	3248.22
467.3	3240.08
467.672	3306.07
468.045	3345.84
468.417	3336.58
468.789	3416.58
469.161	3450.25
469.534	3485.95
469.906	3562.79
470.278	3593.3
470.65	3622.45
471.022	3662.45
471.394	3753.74
471.766	3758.49
472.138	3827.87
472.51	3893.63
472.882	3945.38
473.253	3962.33
473.625	4057.01
473.997	4111.02
474.369	4180.85
474.74	4198.7
475.112	4271.02
475.484	4306.95
475.855	4439.15
476.227	4446.61
476.598	4582.42
476.97	4648.41
477.341	4674.85
477.713	4815.64
478.084	4785.35
478.455	4974.28
478.827	4986.71
479.198	5159.58
479.569	5214.04
479.94	5315.74
480.311	5344.21
480.682	5469.18
481.053	5604.32
481.424	5714.6
481.795	5791.43
482.166	5873.24
482.537	5972.22
482.908	6098.31
483.279	6135.15
483.65	6285.65
484.021	6410.85
484.391	6446.33
484.762	6609.04
485.133	6669.82
485.503	6814.45
485.874	6898.07
486.244	7011.51
486.615	7232.3
486.985	7268.45
487.356	7472.97
487.726	7543.25
488.097	7703.02
488.467	7837.93
488.837	8008.77
489.207	8143.46
489.578	8229.33
489.948	8391.36
490.318	8548.65
490.688	8600.62
491.058	8813.95
491.428	8975.07
491.798	8990.89
492.168	9338.91
492.538	9302.3
492.908	9511.56
493.278	9719.69
493.648	9761.49
494.017	9910.19
494.387	10047.81
494.757	10180.92
495.126	10283.06
495.496	10359.67
495.866	10593.79
496.235	10762.15
496.605	10866.1
496.974	11064.74
497.344	11190.16
497.713	11277.61
498.082	11378.18
498.452	11566.65
498.821	11762.8
499.19	11808.22
499.559	11993.3
499.928	12127.08
500.298	12183.58
500.667	12370.47
501.036	12433.29
501.405	12638.71
501.774	12680.51
502.143	12936.33
502.512	13036.21
502.88	13136.1
503.249	13274.4
503.618	13380.16
503.987	13474.84
504.356	13591.22
504.724	13852.23
505.093	13796.42
505.462	13951.89
505.83	14094.49
506.199	14301.04
506.567	14472.56
506.936	14499
507.304	14818.08
507.672	14747.8
508.041	14895.15
508.409	14978.53
508.777	15156.61
509.145	15336.49
509.514	15344.85
509.882	15545.98
510.25	15500.33
510.618	15668.23
510.986	15680.21
511.354	15874.1
511.722	16012.86
512.09	16150.48
512.458	16154.77
512.826	16337.59
513.193	16449.23
513.561	16515.44
513.929	16685.38
514.297	16835.66
514.664	16986.39
515.032	17096.67
515.4	17137.35
515.767	17255.31
516.135	17257.79
516.502	17197.46
516.869	17571.46
517.237	17617.56
517.604	17507.73
517.972	17834.05
518.339	17910.88
518.706	17962.41
519.073	17996.08
519.44	18117.21
519.808	18364.21
520.175	18376.86
520.542	18508.16
520.909	18661.6
521.276	18723.74
521.643	18858.43
522.009	18892.1
522.376	19044.19
522.743	19123.28
523.11	19356.95
523.477	19446.21
523.843	19497.96
524.21	19745.86
524.577	19840.55
524.943	19898.63
525.31	19892.53
525.676	20144.95
526.043	20283.93
526.409	20381.1
526.776	20591.27
527.142	20579.74
527.508	20736.57
527.874	20842.11
528.241	20953.06
528.607	20890.47
528.973	21182.44
529.339	21202.1
529.705	21393.51
530.071	21452.26
530.437	21561.64
530.803	21685.48
531.169	21731.35
531.535	21772.48
531.901	21878.01
532.267	21948.74
532.632	22081.17
532.998	22082.98
533.364	22199.59
533.73	22169.76
534.095	22300.37
534.461	22313.71
534.826	22375.4
535.192	22434.61
535.557	22568.39
535.923	22589.41
536.288	22621.95
536.653	22681.38
537.019	22700.14
537.384	22597.09
537.749	22759.8
538.114	22709.63
538.479	22714.83
538.845	22702.4
539.21	22746.92
539.575	22777.2
539.94	22781.04
540.305	22835.73
540.67	22851.55
541.034	22834.6
541.399	22847.48
541.764	22928.83
542.129	22839.34
542.494	22962.96
542.858	22929.74
543.223	22805.45
543.587	22936.29
543.952	22918.66
544.316	23004.08
544.681	22833.92
545.045	23007.47
545.41	23025.1
545.774	22844.99
546.138	22865.56
546.503	22896.97
546.867	22836.63
547.231	23027.13
547.595	23017.42
547.959	22999.79
548.324	22949.4
548.688	22927.7
549.052	22934.48
549.416	22909.4
549.779	22888.16
550.143	22834.15
550.507	22984.2
550.871	23070.3
551.235	22827.59
551.599	23049.05
551.962	23136.96
552.326	23020.81
552.689	23047.02
553.053	22887.03
553.417	23002.73
553.78	23249.5
554.143	23026.46
554.507	23110.3
554.87	23113.91
555.234	23336.28
555.597	23110.3
555.96	23124.99
556.323	23256.06
556.686	23272.55
557.05	23265.77
557.413	23437.07
557.776	23277.98
558.139	23417.86
558.502	23317.75
558.865	23416.95
559.228	23498.99
559.59	23550.96
559.953	23577.18
560.316	23806.32
560.679	23724.07
561.041	23744.18
561.404	23901.46
561.767	24039.31
562.129	23900.33
562.492	24065.53
562.854	24044.28
563.217	24121.34
563.579	24187.56
563.941	24309.36
564.304	24391.17
564.666	24443.82
565.028	24599.97
565.39	24614.44
565.753	24795.45
566.115	24649.69
566.477	24811.27
566.839	24907.31
567.201	25104.37
567.563	25105.5
567.925	25213.29
568.287	25223.46
568.648	25357.24
569.01	25432.04
569.372	25635.43
569.734	25463.23
570.095	25679.72
570.457	25821.41
570.819	25905.93
571.18	25764.01
571.542	26139.6
571.903	26070.67
572.265	26170.78
572.626	26410.32
572.987	26335.3
573.349	26587.94
573.71	26567.15
574.071	26717.66
574.432	26826.81
574.794	26923.53
575.155	26900.25
575.516	26977.54
575.877	26970.76
576.238	27108.84
576.599	27211.66
576.96	27301.6
577.32	27243.52
577.681	27343.86
578.042	27470.18
578.403	27484.87
578.763	27569.84
579.124	27407.58
579.485	27570.52
579.845	27854.13
580.206	27605.77
580.566	27794.24
580.927	27789.5
581.287	27909.04
581.648	27843.51
582.008	27963.73
582.368	27968.02
582.728	27963.95
583.089	27970.51
583.449	28028.13
583.809	28151.52
584.169	28141.12
584.529	28015.25
584.889	28300.44
585.249	28110.16
585.609	28064.29
585.969	28298.18
586.329	28131.86
586.688	28261.12
587.048	28250.95
587.408	28139.32
587.768	28203.72
588.127	28190.39
588.487	28178.86
588.846	28339.76
589.206	28139.99
589.565	28247.11
589.925	28368.46
590.284	28345.86
590.643	28373.43
591.003	28340.22
591.362	28398.52
591.721	28346.09
592.08	28462.47
592.44	28498.18
592.799	28397.39
593.158	28356.71
593.517	28362.59
593.876	28466.77
594.235	28403.04
594.593	28304.74
594.952	28474.68
595.311	28356.26
595.67	28385.41
596.029	28609.13
596.387	28676.25
596.746	28582.02
597.104	28492.75
597.463	28442.36
597.822	28773.88
598.18	28520.32
598.538	28478.74
598.897	28648.68
599.255	28534.33
599.613	28909.01
599.972	28612.52
600.33	28753.54
600.688	28641.45
601.046	28708.12
601.404	28722.13
601.762	28690.26
602.12	28879.64
602.478	28901.1
602.836	28938.39
603.194	28764.84
603.552	28798.73
603.91	28870.6
604.268	28855.46
604.625	28883.48
604.983	28947.43
605.341	28860.65
605.698	29025.62
606.056	29167.76
606.413	29025.62
606.771	29180.87
607.128	29029.46
607.485	29141.55
607.843	29108.56
608.2	29253.64
608.557	29314.2
608.914	29214.54
609.272	29380.41
609.629	29379.28
609.986	29413.41
610.343	29418.61
610.7	29683.46
611.057	29459.73
611.414	29490.24
611.771	29707.41
612.127	29646.17
612.484	29649.33
612.841	29750.8
613.198	29576.57
613.554	29675.55
613.911	29894.75
614.267	29880.97
614.624	29754.19
614.98	29961.42
615.337	30143.33
615.693	29970.91
616.05	30195.08
616.406	30210.9
616.762	30065.59
617.118	30130.68
617.475	30139.94
617.831	30216.78
618.187	30311.01
618.543	30289.54
618.899	30500.38
619.255	30398.24
619.611	30407.96
619.967	30588.07
620.323	30606.82
620.678	30509.2
621.034	30481.63
621.39	30500.16
621.746	30522.53
622.101	30863.31
622.457	30572.47
622.812	30780.6
623.168	30786.93
623.523	30612.92
623.879	30808.4
624.234	30572.25
624.589	30636.88
624.945	30823.99
625.3	30764.11
625.655	30847.04
626.01	30727.05
626.365	30659.7
626.72	30717.33
627.075	30816.99
627.43	30614.51
627.785	30664.67
628.14	30673.94
628.495	30761.85
628.85	30877.78
629.205	30710.77
629.559	30838.45
629.914	30630.1
630.269	30677.78
630.623	30521.4
630.978	30506.49
631.332	30582.64
631.687	30581.74
632.041	30435.53
632.396	30496.54
632.75	30447.96
633.104	30476.88
633.459	30196.44
633.813	30521.63
634.167	30238.92
634.521	30274.63
634.875	30403.44
635.229	30181.97
635.583	30032.6
635.937	30059.72
636.291	30021.08
636.645	30010
636.999	29872.15
637.352	30072.83
637.706	29765.71
638.06	29923
638.413	29859.05
638.767	29829.22
639.121	29884.81
639.474	29749.22
639.828	29731.82
640.181	29680.52
640.534	29802.78
640.888	29612.72
641.241	29504.93
641.594	29666.73
641.947	29728.43
642.301	29490.02
642.654	29620.41
643.007	29546.96
643.36	29588.77
643.713	29426.06
644.066	29605.27
644.419	29403.24
644.771	29072.4
645.124	28884.61
645.477	28853.87
645.83	28717.38
646.182	28773.2
646.535	28642.81
646.888	28792.41
647.24	28674.67
647.593	28897.71
647.945	28657.04
648.298	28648.68
648.65	28505.41
649.002	28414.11
649.355	28155.36
649.707	28162.59
650.059	28012.99
650.411	28583.6
650.763	28721
651.115	29198.27
651.467	29312.85
651.819	29197.14
652.171	29266.97
652.523	29061.33
652.875	29152.62
653.227	29117.37
653.578	29242.56
653.93	29180.65
654.282	29111.27
654.633	29096.35
654.985	29022.68
655.337	29196.24
655.688	29195.11
656.039	29266.07
656.391	28962.57
656.742	29102
657.094	29111.49
657.445	29193.3
657.796	29221.77
658.147	29071.72
658.498	29164.83
658.849	29273.75
659.2	29266.07
659.551	29114.21
659.902	29271.72
660.253	29190.59
660.604	29374.54
660.955	29085.51
661.306	29203.02
661.656	29294.77
662.007	29379.96
662.358	29402.56
662.708	29480.75
663.059	29367.98
663.409	29203.24
663.76	29301.77
664.11	29337.7
664.461	29470.58
664.811	29389.68
665.161	29441.43
665.511	29499.05
665.862	29519.85
666.212	29541.54
666.562	29665.83
666.912	29445.72
667.262	29302.9
667.612	29494.76
667.962	29560.97
668.312	29541.54
668.662	29477.81
669.011	29582.44
669.361	29445.5
669.711	29563.01
670.06	29384.48
670.41	29355.1
670.76	29406.63
671.109	29543.35
671.459	29506.74
671.808	29488.66
672.157	29523.69
672.507	29276.91
672.856	29320.3
673.205	29317.82
673.554	29435.33
673.904	29231.27
674.253	29409.11
674.602	29211.6
674.951	28972.06
675.3	28681.22
675.649	29108.56
675.998	29289.34
676.346	29346.06
676.695	29348.78
677.044	29026.98
677.393	29176.13
677.741	29191.72
678.09	29200.76
678.438	28891.61
678.787	29100.65
679.135	29144.94
679.484	28918.51
679.832	29109.69
680.181	28911.73
680.529	28990.82
680.877	28696.14
681.225	28778.85
681.573	28853.2
681.922	28662.47
682.27	28553.09
682.618	28492.75
682.966	28521.23
683.314	28575.69
683.661	28464.05
684.009	28316.71
684.357	28200.33
684.705	28085.53
685.053	28248.01
685.4	28039.43
685.748	27980.22
686.095	27968.47
686.443	27816.61
686.79	27872.2
687.138	27773.68
687.485	27690.29
687.832	27583.63
688.18	27636.96
688.527	27587.24
688.874	27377.53
689.221	27345.67
689.568	27261.6
689.915	27128.72
690.262	27115.61
690.609	27017.54
690.956	26836.98
691.303	26870.65
691.65	26747.26
691.997	26585.46
692.344	26553.37
692.69	26366.03
693.037	26515.18
693.383	26207.39
693.73	26207.62
694.077	25951.58
694.423	26058.24
694.769	25947.06
695.116	25895.31
695.462	25825.25
695.808	25697.35
696.155	25640.63
696.501	25451.7
696.847	25445.6
697.193	25265.27
697.539	25237.25
697.885	25056.69
698.231	24987.54
698.577	24933.07
698.923	24815.34
699.269	24603.82
699.614	24587.77
699.96	24413.54
700.306	24337.38
700.651	24298.97
700.997	24261.45
701.342	24139.87
701.688	24147.78
702.033	23970.61
702.379	23813.55
702.724	23819.88
703.069	23808.13
703.415	23639.1
703.76	23543.28
704.105	23394.13
704.45	23350.06
704.795	23287.47
705.14	23208.82
705.485	23120.24
705.83	23055.61
706.175	23115.04
706.52	23087.02
706.865	22765.67
707.209	22733.13
707.554	22744.43
707.899	22722.96
708.243	22565.45
708.588	22549.86
708.932	22373.37
709.277	22456.75
709.621	22345.57
709.966	22194.39
710.31	22183.32
710.654	22082.07
710.998	22156.42
711.342	22050.21
711.687	22079.14
712.031	21941.51
712.375	21909.65
712.719	21827.39
713.063	21864.68
713.407	21882.53
713.75	21806.83
714.094	21787.85
714.438	21748.07
714.782	21625.82
715.125	21468.53
715.469	21682.54
715.812	21446.39
716.156	21514.86
716.499	21473.28
716.843	21518.02
717.186	21409.32
717.53	21452.26
717.873	21453.16
718.216	21426.5
718.559	21362.32
718.902	21042.55
719.246	21237.35
719.589	21242.77
719.932	21208.65
720.275	21280.06
720.617	21259.72
720.96	21221.76
721.303	21223.79
721.646	21235.77
721.989	21135.66
722.331	21245.94
722.674	21058.82
723.016	21071.25
723.359	20948.32
723.701	21135.21
724.044	21134.98
724.386	20960.75
724.729	21115.32
725.071	21052.5
725.413	21056.56
725.755	20997.58
726.097	20974.08
726.439	20989.67
726.782	20900.64
727.124	21019.5
727.465	21041.2
727.807	20841.43
728.149	21069.22
728.491	20923.46
728.833	20999.62
729.175	20928.88
729.516	21008.2
729.858	21029.67
730.199	21094.53
730.541	21068.32
730.882	21039.39
731.224	21119.61
731.565	21060.86
731.906	21139.27
732.248	21276.9
732.589	21120.74
732.93	21134.08
733.271	21192.15
733.612	21031.25
733.953	21319.83
734.294	21209.33
734.635	21228.76
734.976	21383.11
735.317	21290.46
735.658	21384.47
735.999	21354.86
736.339	21423.79
736.68	21510.34
737.021	21497.68
737.361	21510.34
737.702	21731.35
738.042	21723.89
738.383	21793.27
738.723	21876.43
739.063	21787.39
739.404	21910.55
739.744	22024.9
740.084	21993.94
740.424	22141.28
740.764	22131.79
741.104	22239.13
741.444	22120.27
741.784	22347.6
742.124	22485.45
742.464	22449.3
742.804	22525
743.143	22706.69
743.483	22824.65
743.823	22815.39
744.162	23066.46
744.502	23110.97
744.841	23263.96
745.181	23479.33
745.52	23496.27
745.86	23599.55
746.199	23780.79
746.538	23810.84
746.877	24082.02
747.216	24215.8
747.556	24366.53
747.895	24534.89
748.234	24552.52
748.573	24715.68
748.911	24933.53
749.25	25118.38
749.589	25168.77
749.928	25518.14
750.267	25670.68
750.605	25865.93
750.944	26019.6
751.283	26124.45
751.621	26536.42
751.96	26514.95
752.298	26787.94
752.636	27009.4
752.975	27216.4
753.313	27357.87
753.651	27776.16
753.989	27972.77
754.327	28200.33
