Data from 17-5722_FLMS001491_009.txt Node
Date: Thu Apr 19 15:14:48 BST 2018
User: hsy
Spectrometer: FLMS00149
Trigger mode: 0
Integration Time (sec): 1.000000E-2
Scans to average: 10
Electric dark correction enabled: true
Nonlinearity correction enabled: false
Boxcar width: 0
XAxis mode: Wavelengths
Number of Pixels in Spectrum: 2048
>>>>>Begin Spectral Data<<<<<
341.393	-19.36
341.776	-19.36
342.16	-19.36
342.543	-62.98
342.927	-60.04
343.31	-57.1
343.693	-59.59
344.077	-74.5
344.46	-52.58
344.843	-43.32
345.226	-45.8
345.61	-62.98
345.993	-30.44
346.376	-9.65
346.759	18.83
347.142	30.13
347.525	44.59
347.908	50.24
348.291	76.23
348.674	89.79
349.057	126.17
349.44	125.04
349.823	152.38
350.206	176.79
350.588	233.74
350.971	233.06
351.354	268.99
351.737	249.78
352.119	261.53
352.502	294.3
352.884	295.66
353.267	332.72
353.65	337.46
354.032	344.47
354.414	347.86
354.797	351.25
355.179	352.6
355.562	350.34
355.944	381.08
356.326	361.87
356.709	377.01
357.091	368.87
357.473	386.05
357.855	370.68
358.238	373.62
358.62	373.39
359.002	385.37
359.384	376.78
359.766	387.86
360.148	382.21
360.53	389.21
360.912	367.07
361.294	364.58
361.676	369.55
362.057	384.47
362.439	384.69
362.821	365.48
363.203	390.79
363.584	362.55
363.966	388.99
364.348	375.2
364.729	388.08
365.111	384.69
365.493	350.34
365.874	360.97
366.256	369.33
366.637	356.45
367.019	355.32
367.4	341.53
367.781	367.97
368.163	356.22
368.544	387.41
368.925	345.15
369.306	372.04
369.688	365.26
370.069	361.87
370.45	382.66
370.831	384.92
371.212	357.58
371.593	379.27
371.974	346.28
372.355	370.68
372.736	369.55
373.117	395.31
373.498	376.78
373.879	373.85
374.26	389.66
374.641	365.26
375.021	400.74
375.402	380.85
375.783	400.74
376.163	405.26
376.544	403.68
376.925	407.52
377.305	404.35
377.686	411.36
378.066	386.5
378.447	389.21
378.827	397.57
379.208	406.61
379.588	385.82
379.968	416.56
380.349	405.71
380.729	410.91
381.109	412.04
381.489	399.38
381.87	412.49
382.25	436.44
382.63	414.3
383.01	421.53
383.39	432.38
383.77	446.39
384.15	450.91
384.53	447.06
384.91	421.53
385.29	453.39
385.67	455.65
386.049	444.35
386.429	445.93
386.809	467.18
387.189	454.52
387.568	461.75
387.948	464.47
388.328	450.68
388.707	457.46
389.087	429.21
389.466	499.94
389.846	464.69
390.225	472.6
390.605	469.66
390.984	472.83
391.363	499.04
391.743	503.56
392.122	491.36
392.501	514.41
392.881	504.24
393.26	495.42
393.639	497.01
394.018	521.19
394.397	522.77
394.776	537.68
395.155	527.29
395.534	512.83
395.913	512.6
396.292	544.69
396.671	554.86
397.05	526.84
397.429	517.57
397.808	543.33
398.186	527.97
398.565	558.25
398.944	559.15
399.323	556.44
399.701	553.05
400.08	575.42
400.458	575.87
400.837	572.26
401.215	584.69
401.594	604.8
401.972	582.43
402.351	588.3
402.729	595.08
403.107	588.53
403.486	595.99
403.864	589.43
404.242	613.61
404.62	633.05
404.999	625.14
405.377	619.49
405.755	624.69
406.133	638.47
406.511	642.54
406.889	660.39
407.267	665.36
407.645	681.18
408.023	695.42
408.401	670.34
408.779	675.31
409.156	728.87
409.534	714.4
409.912	722.31
410.29	737
410.667	729.54
411.045	747.85
411.422	757.79
411.8	776.1
412.178	766.38
412.555	779.94
412.933	808.18
413.31	790.56
413.687	814.06
414.065	813.83
414.442	849.09
414.819	825.81
415.197	831.24
415.574	851.35
415.951	841.4
416.328	842.31
416.705	876.43
417.082	850.67
417.46	861.52
417.837	907.84
418.214	887.73
418.591	908.07
418.967	913.27
419.344	897.9
419.721	898.58
420.098	958.69
420.475	943.77
420.852	928.86
421.228	962.76
421.605	967.95
421.982	986.49
422.358	975.64
422.735	1006.82
423.111	992.13
423.488	1025.81
423.864	1024.22
424.241	1020.83
424.617	1028.07
424.994	1030.33
425.37	1046.6
425.746	1033.94
426.123	1071.45
426.499	1094.73
426.875	1079.36
427.251	1116.43
427.627	1113.04
428.003	1124.11
428.379	1154.16
428.756	1155.07
429.132	1176.99
429.507	1178.34
429.883	1199.36
430.259	1209.76
430.635	1229.64
431.011	1226.25
431.387	1255.86
431.763	1268.74
432.138	1275.29
432.514	1292.92
432.89	1280.04
433.265	1311.45
433.641	1340.6
434.016	1341.96
434.392	1385.34
434.767	1432.58
435.143	1388.28
435.518	1400.49
435.894	1430.77
436.269	1465.34
436.644	1450.65
437.02	1466.7
437.395	1490.65
437.77	1520.26
438.145	1538.56
438.52	1544.66
438.895	1540.6
439.271	1562.74
439.646	1594.6
440.021	1613.81
440.395	1597.54
440.77	1572.46
441.145	1613.59
441.52	1658.78
441.895	1618.79
442.27	1646.58
442.645	1649.52
443.019	1659.01
443.394	1692.46
443.769	1695.62
444.143	1717.54
444.518	1701.95
444.892	1691.78
445.267	1723.19
445.641	1742.4
446.016	1761.38
446.39	1779.01
446.764	1790.53
447.139	1796.18
447.513	1809.06
447.887	1825.79
448.262	1804.32
448.636	1845.45
449.01	1889.29
449.384	1868.72
449.758	1871.43
450.132	1903.98
450.506	1933.13
450.88	1943.3
451.254	1924.99
451.628	1949.17
452.002	1966.57
452.376	2010.64
452.75	2036.63
453.123	2060.81
453.497	2079.34
453.871	2075.72
454.244	2141.03
454.618	2125.89
454.992	2163.4
455.365	2204.76
455.739	2223.97
456.112	2274.81
456.486	2250.41
456.859	2270.07
457.232	2332.44
457.606	2346
457.979	2369.5
458.352	2376.28
458.725	2438.2
459.099	2458.31
459.472	2483.4
459.845	2508.71
460.218	2549.38
460.591	2577.86
460.964	2586.9
461.337	2647.91
461.71	2688.36
462.083	2736.5
462.456	2725.2
462.829	2754.35
463.201	2789.15
463.574	2786.44
463.947	2823.5
464.32	2893.78
464.692	2922.48
465.065	2936.04
465.438	2976.49
465.81	3044.28
466.183	2998.86
466.555	3089.25
466.928	3123.15
467.3	3104.85
467.672	3111.4
468.045	3244.28
468.417	3223.26
468.789	3261.45
469.161	3302.13
469.534	3382.13
469.906	3442.47
470.278	3426.87
470.65	3491.5
471.022	3538.51
471.394	3591.16
471.766	3627.77
472.138	3670.03
472.51	3704.61
472.882	3783.93
473.253	3795.23
473.625	3896.92
473.997	3964.94
474.369	3948.44
474.74	4043.58
475.112	4052.62
475.484	4143.92
475.855	4190.24
476.227	4253.52
476.598	4371.48
476.97	4412.16
477.341	4522.89
477.713	4576.9
478.084	4639.27
478.455	4710.91
478.827	4805.37
479.198	4920.39
479.569	4942.09
479.94	5112.03
480.311	5124.91
480.682	5245.58
481.053	5341.63
481.424	5465.69
481.795	5485.35
482.166	5633.14
482.537	5660.49
482.908	5822.52
483.279	5903.64
483.65	5979.8
484.021	6105.9
484.391	6194.94
484.762	6275.39
485.133	6369.62
485.503	6413.46
485.874	6640.12
486.244	6751.31
486.615	6775.94
486.985	6898.65
487.356	7046.21
487.726	7194.23
488.097	7332.08
488.467	7477.16
488.837	7582.92
489.207	7705.63
489.578	7916.25
489.948	7979.75
490.318	8126.86
490.688	8224.04
491.058	8384.48
491.428	8539.73
491.798	8571.37
492.168	8814.3
492.538	8854.3
492.908	9076.44
493.278	9214.07
493.648	9341.52
494.017	9474.62
494.387	9624.9
494.757	9725.46
495.126	9880.04
495.496	9972.46
495.866	10143.76
496.235	10320.25
496.605	10375.17
496.974	10585.55
497.344	10710.07
497.713	10771.99
498.082	10992.78
498.452	11138.76
498.821	11242.71
499.19	11327.46
499.559	11501.92
499.928	11676.83
500.298	11749.82
500.667	11969.47
501.036	11957.04
501.405	12079.53
501.774	12265.51
502.143	12402.91
502.512	12506.86
502.88	12676.12
503.249	12696.23
503.618	12926.28
503.987	12973.06
504.356	13156.33
504.724	13239.5
505.093	13333.73
505.462	13439.04
505.83	13605.14
506.199	13724.91
506.567	13971
506.936	13982.75
507.304	14215.06
507.672	14294.16
508.041	14355.63
508.409	14520.59
508.777	14726.24
509.145	14870.64
509.514	14882.17
509.882	15034.25
510.25	15059.79
510.618	15241.93
510.986	15269.5
511.354	15349.72
511.722	15639.43
512.09	15722.6
512.458	15715.36
512.826	15966.2
513.193	16010.95
513.561	16075.35
513.929	16190.83
514.297	16346.08
514.664	16396.02
515.032	16462.69
515.4	16644.38
515.767	16739.07
516.135	16798.72
516.502	16799.63
516.869	17035.55
517.237	17155.1
517.604	17112.84
517.972	17325.49
518.339	17386.05
518.706	17385.83
519.073	17535.2
519.44	17650.91
519.808	17869.66
520.175	17860.17
520.542	18063.78
520.909	18159.14
521.276	18240.49
521.643	18335.63
522.009	18465.12
522.376	18494.27
522.743	18696.3
523.11	18877.09
523.477	19053.13
523.843	19063.98
524.21	19251.32
524.577	19261.26
524.943	19474.36
525.31	19523.85
525.676	19766.78
526.043	19715.48
526.409	19967.46
526.776	20074.57
527.142	20086.77
527.508	20204.74
527.874	20336.94
528.241	20382.81
528.607	20555.69
528.973	20710.26
529.339	20608.12
529.705	20856.7
530.071	20968.56
530.437	21079.52
530.803	21058.05
531.169	21238.16
531.535	21190.7
531.901	21319.96
532.267	21411.03
532.632	21587.07
532.998	21561.09
533.364	21651.03
533.73	21655.77
534.095	21844.24
534.461	21758.82
534.826	21745.94
535.192	21905.71
535.557	21948.42
535.923	21997.01
536.288	21978.25
536.653	22122.65
537.019	22007.63
537.384	22113.16
537.749	22207.85
538.114	22074.74
538.479	22115.2
538.845	22142.09
539.21	22148.41
539.575	22140.05
539.94	22118.13
540.305	22260.95
540.67	22295.08
541.034	22268.64
541.399	22314.96
541.764	22304.57
542.129	22225.7
542.494	22299.37
542.858	22382.98
543.223	22252.14
543.587	22393.38
543.952	22228.86
544.316	22264.57
544.681	22159.71
545.045	22394.28
545.41	22402.42
545.774	22323.33
546.138	22283.1
546.503	22493.26
546.867	22350.9
547.231	22497.56
547.595	22475.41
547.959	22453.27
548.324	22500.72
548.688	22530.55
549.052	22439.71
549.416	22401.97
549.779	22426.15
550.143	22546.37
550.507	22499.14
550.871	22514.51
551.235	22395.19
551.599	22482.19
551.962	22585.24
552.326	22584.11
552.689	22488.97
553.053	22553.15
553.417	22526.03
553.78	22658.91
554.143	22541.4
554.507	22696.42
554.87	22627.27
555.234	22736.87
555.597	22558.8
555.96	22537.11
556.323	22596.09
556.686	22690.55
557.05	22667.95
557.413	22760.38
557.776	22769.64
558.139	22896.64
558.502	22764.22
558.865	22797.44
559.228	22969.64
559.59	23019.8
559.953	22971.44
560.316	23237.43
560.679	23161.5
561.041	23159.24
561.404	23241.27
561.767	23355.39
562.129	23307.03
562.492	23372.56
562.854	23429.06
563.217	23448.27
563.579	23512.45
563.941	23651.65
564.304	23653.91
564.666	23911.98
565.028	23800.8
565.39	23813.91
565.753	23976.84
566.115	23961.93
566.477	24164.63
566.839	24157.4
567.201	24421.35
567.563	24312.88
567.925	24427.9
568.287	24481.01
568.648	24579.99
569.01	24603.49
569.372	24719.65
569.734	24737.95
570.095	24926.42
570.457	25069.92
570.819	25115.79
571.18	25082.57
571.542	25220.88
571.903	25316.24
572.265	25465.16
572.626	25573.64
572.987	25560.53
573.349	25739.96
573.71	25752.84
574.071	25880.75
574.432	25934.76
574.794	26038.03
575.155	26027.18
575.516	26032.83
575.877	26312.83
576.238	26159.38
576.599	26348.3
576.96	26443.9
577.32	26581.07
577.681	26615.19
578.042	26688.86
578.403	26593.27
578.763	26643.89
579.124	26765.24
579.485	26820.16
579.845	26919.36
580.206	26750.78
580.566	26880.49
580.927	26941.06
581.287	26957.55
581.648	26941.51
582.008	27078.91
582.368	27127.49
582.728	27224.21
583.089	27308.28
583.449	27118
583.809	27129.3
584.169	27351.44
584.529	27065.57
584.889	27415.85
585.249	27255.4
585.609	27181.5
585.969	27448.84
586.329	27212.01
586.688	27485.68
587.048	27290.2
587.408	27456.07
587.768	27473.02
588.127	27439.8
588.487	27578.78
588.846	27617.42
589.206	27388.5
589.565	27409.97
589.925	27712.34
590.284	27550.98
590.643	27483.87
591.003	27597.31
591.362	27604.77
591.721	27501.27
592.08	27713.92
592.44	27647.71
592.799	27614.71
593.158	27634.82
593.517	27684.99
593.876	27770.19
594.235	27629.17
594.593	27727.7
594.952	27782.84
595.311	27613.81
595.67	27747.59
596.029	27954.59
596.387	27833.24
596.746	27935.38
597.104	27733.8
597.463	27760.47
597.822	27980.35
598.18	27917.75
598.538	27891.54
598.897	28062.84
599.255	27878.66
599.613	28137.41
599.972	28006.11
600.33	28122.27
600.688	27873.24
601.046	28108.26
601.404	28244.98
601.762	28241.14
602.12	28205.2
602.478	28185.32
602.836	28249.72
603.194	28044.08
603.552	28235.71
603.91	28225.77
604.268	28298.76
604.625	28188.48
604.983	28362.49
605.341	28148.48
605.698	28529.72
606.056	28339.21
606.413	28396.16
606.771	28458.31
607.128	28496.27
607.485	28251.98
607.843	28444.29
608.2	28584.18
608.557	28730.84
608.914	28474.8
609.272	28690.16
609.629	28717.06
609.986	28877.28
610.343	28813.78
610.7	28972.42
611.057	28881.8
611.414	28777.39
611.771	28921.34
612.127	28912.08
612.484	29004.28
612.841	29054.45
613.198	29061.68
613.554	29068.68
613.911	29330.15
614.267	29220.55
614.624	29192.98
614.98	29305.74
615.337	29367.89
615.693	29294.22
616.05	29438.17
616.406	29497.37
616.762	29424.16
617.118	29521.33
617.475	29549.8
617.831	29719.74
618.187	29669.57
618.543	29743.92
618.899	29893.97
619.255	29854.88
619.611	29728.55
619.967	29939.17
620.323	29977.14
620.678	29878.38
621.034	29808.55
621.39	29822.79
621.746	29870.02
622.101	30079.96
622.457	29860.53
622.812	30041.77
623.168	30109.56
623.523	29984.82
623.879	30164.25
624.234	29985.5
624.589	30132.39
624.945	30150.24
625.3	30142.55
625.655	30148.88
626.01	30043.12
626.365	30184.36
626.72	30026.17
627.075	29993.41
627.43	30077.47
627.785	29989.79
628.14	30073.63
628.495	30079.96
628.85	30062.11
629.205	29964.71
629.559	30100.3
629.914	29888.78
630.269	29942.11
630.623	29874.54
630.978	29841.32
631.332	29926.97
631.687	29902.56
632.041	29846.74
632.396	29787.08
632.75	29814.43
633.104	29899.17
633.459	29723.36
633.813	29677.93
634.167	29629.35
634.521	29531.27
634.875	29664.83
635.229	29609.46
635.583	29421.9
635.937	29577.37
636.291	29424.61
636.645	29573.08
636.999	29418.51
637.352	29524.27
637.706	29270.04
638.06	29339.86
638.413	29338.28
638.767	29204.73
639.121	29272.3
639.474	29163.6
639.828	29250.83
640.181	29143.94
640.534	29189.36
640.888	29035.69
641.241	29054.67
641.594	29031.62
641.947	29050.61
642.301	28977.84
642.654	29148.68
643.007	28835.02
643.36	29078.18
643.713	28980.33
644.066	29109.81
644.419	28964.96
644.771	28570.84
645.124	28363.84
645.477	28380.57
645.83	28117.75
646.182	28281.13
646.535	28186.22
646.888	28294.24
647.24	28167.24
647.593	28442.71
647.945	28305.77
648.298	28188.71
648.65	28077.07
649.002	27822.84
649.355	27866.91
649.707	27653.13
650.059	27699.23
650.411	28033.23
650.763	28204.98
651.115	28693.55
651.467	28776.49
651.819	28630.73
652.171	28620.11
652.523	28543.05
652.875	28635.02
653.227	28453.56
653.578	28796.83
653.93	28651.07
654.282	28439.1
654.633	28509.83
654.985	28602.26
655.337	28524.74
655.688	28550.51
656.039	28761.12
656.391	28476.61
656.742	28493.11
657.094	28654.23
657.445	28514.12
657.796	28645.87
658.147	28581.47
658.498	28669.15
658.849	28792.99
659.2	28686.1
659.551	28610.84
659.902	28829.82
660.253	28826.21
660.604	28881.35
660.955	28618.3
661.306	28873.66
661.656	28870.05
662.007	28766.32
662.358	28908.24
662.708	28947.11
663.059	28800.9
663.409	28664.18
663.76	28962.25
664.11	28980.78
664.461	28993.66
664.811	28984.39
665.161	29074.11
665.511	28969.25
665.862	28914.11
666.212	29019.87
666.562	29104.62
666.912	29039.99
667.262	28943.49
667.612	28969.03
667.962	29078.18
668.312	28980.78
668.662	29172.64
669.011	29156.37
669.361	29058.29
669.711	29166.99
670.06	29096.93
670.41	29063.94
670.76	29035.01
671.109	29121.56
671.459	29011.51
671.808	29056.03
672.157	29081.34
672.507	28879.76
672.856	28898.07
673.205	28911.85
673.554	28986.65
673.904	28776.26
674.253	29110.04
674.602	28808.58
674.951	28544.4
675.3	28355.03
675.649	28861.46
675.998	28787.79
676.346	28832.53
676.695	28914.56
677.044	28700.11
677.393	28663.05
677.741	28763.38
678.09	28629.15
678.438	28549.83
678.787	28614.23
679.135	28615.82
679.484	28383.28
679.832	28576.04
680.181	28393.22
680.529	28461.02
680.877	28276.39
681.225	28211.98
681.573	28387.8
681.922	28146
682.27	28057.19
682.618	28135.38
682.966	28099.9
683.314	28158.43
683.661	28039.33
684.009	27880.69
684.357	27846.34
684.705	27773.35
685.053	27705.56
685.4	27577.42
685.748	27523.41
686.095	27528.16
686.443	27344.89
686.79	27458.56
687.138	27417.88
687.485	27348.28
687.832	27298.56
688.18	27229.64
688.527	27115.74
688.874	27019.47
689.221	26952.13
689.568	26863.32
689.915	26809.54
690.262	26819.48
690.609	26744.68
690.956	26635.3
691.303	26512.14
691.65	26480.28
691.997	26334.52
692.344	26243.22
692.69	26158.7
693.037	26090.68
693.383	25897.69
693.73	25927.3
694.077	25730.24
694.423	25733.41
694.769	25630.58
695.116	25674.65
695.462	25457.48
695.808	25428.78
696.155	25416.13
696.501	25125.96
696.847	25208.9
697.193	24868.8
697.539	24952.41
697.885	24729.14
698.231	24631.97
698.577	24628.35
698.923	24475.36
699.269	24394.01
699.614	24215.71
699.96	24099.78
700.306	24099.55
700.651	24073.79
700.997	23798.54
701.342	23890.52
701.688	23767.81
702.033	23596.51
702.379	23540.47
702.724	23402.85
703.069	23464.54
703.415	23114.72
703.76	23163.76
704.105	23151.78
704.45	23006.25
704.795	22874.05
705.14	22838.34
705.485	22840.37
705.83	22540.04
706.175	22683.32
706.52	22535.3
706.865	22464.79
707.209	22377.34
707.554	22379.6
707.899	22403.32
708.243	22110.22
708.588	22146.61
708.932	22090.11
709.277	22136.89
709.621	21934.41
709.966	21815.77
710.31	21905.71
710.654	21665.04
710.998	21670.01
711.342	21853.96
711.687	21610.8
712.031	21675.88
712.375	21593.18
712.719	21515.66
713.063	21459.39
713.407	21562.89
713.75	21434.54
714.094	21307.08
714.438	21218.72
714.782	21297.59
715.125	21188.44
715.469	21315.67
715.812	21132.17
716.156	21163.13
716.499	21100.98
716.843	21096.92
717.186	20985.06
717.53	21204.03
717.873	21086.3
718.216	21060.76
718.559	20976.92
718.902	20931.72
719.246	21056.24
719.589	20879.07
719.932	20804.04
720.275	20915
720.617	20837.94
720.96	20820.77
721.303	20887.88
721.646	20936.47
721.989	20736.02
722.331	20880.88
722.674	20853.53
723.016	20791.16
723.359	20685.18
723.701	20745.74
724.044	20690.15
724.386	20674.78
724.729	20769.69
725.071	20743.48
725.413	20664.16
725.755	20694.89
726.097	20671.39
726.439	20633.2
726.782	20649.92
727.124	20749.13
727.465	20689.47
727.807	20732.41
728.149	20760.2
728.491	20592.98
728.833	20755.23
729.175	20797.72
729.516	20566.08
729.858	20773.08
730.199	20710.71
730.541	20823.93
730.882	20768.79
731.224	20863.02
731.565	20769.47
731.906	20795.91
732.248	20938.73
732.589	20771.95
732.93	20819.64
733.271	20869.35
733.612	20942.12
733.953	20951.61
734.294	20947.54
734.635	20975.79
734.976	21095.79
735.317	21151.83
735.658	21085.84
735.999	21059.18
736.339	21116.13
736.68	21374.42
737.021	21216.01
737.361	21217.37
737.702	21478.6
738.042	21283.8
738.383	21418.94
738.723	21575.1
739.063	21459.17
739.404	21659.16
739.744	21652.16
740.084	21776.9
740.424	21786.84
740.764	21775.09
741.104	21995.2
741.444	22002.2
741.784	22021.19
742.124	22194.52
742.464	22370.1
742.804	22428.41
743.143	22411.46
743.483	22598.8
743.823	22462.76
744.162	22671.34
744.502	22860.49
744.841	22845.12
745.181	23135.51
745.52	23274.94
745.86	23354.03
746.199	23456.85
746.538	23684.42
746.877	23852.32
747.216	23997.41
747.556	24006.22
747.895	24365.31
748.234	24427
748.573	24514.23
748.911	24735.92
749.25	24918.06
749.589	25001.45
749.928	25329.12
750.267	25441.66
750.605	25591.26
750.944	25764.36
751.283	25980.4
751.621	26307.63
751.96	26300.85
752.298	26658.35
752.636	26986.93
752.975	27018.12
753.313	27186.7
753.651	27556.41
753.989	27748.49
754.327	27929.96
