Data from 1797_FLMS001491_009.txt Node
Date: Thu Apr 19 16:34:08 BST 2018
User: hsy
Spectrometer: FLMS00149
Trigger mode: 0
Integration Time (sec): 1.000000E-2
Scans to average: 10
Electric dark correction enabled: true
Nonlinearity correction enabled: false
Boxcar width: 0
XAxis mode: Wavelengths
Number of Pixels in Spectrum: 2048
>>>>>Begin Spectral Data<<<<<
341.393	8.26
341.776	8.26
342.16	8.26
342.543	-61.34
342.927	-45.3
343.31	-90.04
343.693	-68.8
344.077	-78.74
344.46	-64.73
344.843	-51.4
345.226	-45.75
345.61	-39.87
345.993	-13.66
346.376	5.78
346.759	19.79
347.142	16.17
347.525	53.91
347.908	65.66
348.291	87.58
348.674	97.98
349.057	106.11
349.44	133.46
349.823	126.23
350.206	169.84
350.588	251.19
350.971	248.93
351.354	279.67
351.737	305.43
352.119	302.04
352.502	318.99
352.884	334.81
353.267	320.12
353.65	343.39
354.032	356.95
354.414	355.37
354.797	372.32
355.179	382.26
355.562	397.63
355.944	384.75
356.326	397.86
356.709	369.16
357.091	412.32
357.473	399.66
357.855	406.44
358.238	421.36
358.62	412.09
359.002	408.7
359.384	388.37
359.766	404.41
360.148	406.67
360.53	402.38
360.912	400.34
361.294	398.53
361.676	400.79
362.057	392.21
362.439	408.93
362.821	379.1
363.203	409.83
363.584	402.15
363.966	379.78
364.348	387.91
364.729	400.57
365.111	398.53
365.493	374.58
365.874	385.88
366.256	407.8
366.637	394.47
367.019	410.51
367.4	395.82
367.781	388.59
368.163	389.95
368.544	393.34
368.925	377.29
369.306	402.15
369.688	389.04
370.069	392.89
370.45	401.7
370.831	389.95
371.212	401.25
371.593	393.11
371.974	398.99
372.355	400.57
372.736	390.63
373.117	430.85
373.498	413.22
373.879	406.44
374.26	422.71
374.641	397.86
375.021	403.51
375.402	417.29
375.783	412.77
376.163	425.65
376.544	429.95
376.925	415.94
377.305	445.09
377.686	421.13
378.066	431.75
378.447	409.61
378.827	441.92
379.208	431.53
379.588	441.25
379.968	444.64
380.349	451.41
380.729	449.38
381.109	455.71
381.489	448.48
381.87	457.74
382.25	466.78
382.63	462.26
383.01	466.78
383.39	473.79
383.77	472.21
384.15	474.92
384.53	485.31
384.91	474.92
385.29	465.43
385.67	472.21
386.049	481.02
386.429	515.59
386.809	483.28
387.189	499.77
387.568	478.76
387.948	493
388.328	508.81
388.707	501.58
389.087	523.73
389.466	522.15
389.846	518.08
390.225	535.71
390.605	543.84
390.984	542.03
391.363	538.19
391.743	548.36
392.122	525.54
392.501	577.06
392.881	563.28
393.26	564.86
393.639	566.67
394.018	565.76
394.397	557.4
394.776	592.88
395.155	584.07
395.534	585.87
395.913	599.89
396.292	594.01
396.671	583.39
397.05	586.33
397.429	582.94
397.808	598.98
398.186	602.6
398.565	609.38
398.944	592.43
399.323	618.19
399.701	608.02
400.08	641.69
400.458	598.53
400.837	623.16
401.215	635.82
401.594	643.95
401.972	637.62
402.351	646.44
402.729	652.77
403.107	669.71
403.486	665.42
403.864	662.48
404.242	654.12
404.62	690.05
404.999	664.52
405.377	691.41
405.755	697.06
406.133	714.23
406.511	701.8
406.889	709.26
407.267	752.65
407.645	726.44
408.023	729.83
408.401	771.86
408.779	746.32
409.156	763.04
409.534	768.24
409.912	797.39
410.29	796.26
410.667	798.3
411.045	814.12
411.422	814.79
411.8	835.59
412.178	843.49
412.555	850.27
412.933	817.28
413.31	862.93
413.687	855.7
414.065	864.29
414.442	903.83
414.819	883.49
415.197	873.55
415.574	907.45
415.951	922.14
416.328	943.38
416.705	926.66
417.082	916.49
417.46	952.87
417.837	925.07
418.214	959.88
418.591	967.33
418.967	965.53
419.344	999.2
419.721	986.54
420.098	989.93
420.475	993.32
420.852	1029.7
421.228	1008.91
421.605	1018.63
421.982	1028.57
422.358	1048.01
422.735	1051.4
423.111	1057.73
423.488	1076.71
423.864	1071.96
424.241	1086.65
424.617	1074.45
424.994	1106.09
425.37	1115.13
425.746	1116.71
426.123	1146.31
426.499	1122.13
426.875	1148.8
427.251	1153.09
427.627	1178.63
428.003	1204.62
428.379	1200.77
428.756	1235.12
429.132	1241.22
429.507	1243.71
429.883	1260.88
430.259	1289.58
430.635	1297.72
431.011	1283.26
431.387	1319.87
431.763	1347.44
432.138	1343.37
432.514	1366.64
432.89	1378.4
433.265	1370.49
433.641	1417.72
434.016	1432.86
434.392	1475.57
434.767	1490.71
435.143	1492.74
435.518	1463.37
435.894	1521.22
436.269	1520.99
436.644	1559.41
437.02	1537.94
437.395	1598.96
437.77	1560.54
438.145	1612.51
438.52	1620.65
438.895	1648.9
439.271	1642.12
439.646	1637.82
440.021	1657.71
440.395	1655.9
440.77	1666.52
441.145	1666.98
441.52	1752.17
441.895	1733.64
442.27	1740.65
442.645	1720.31
443.019	1752.4
443.394	1772.28
443.769	1780.19
444.143	1792.62
444.518	1795.79
444.892	1804.83
445.267	1813.19
445.641	1847.31
446.016	1845.05
446.39	1849.8
446.764	1809.12
447.139	1875.78
447.513	1863.13
447.887	1889.12
448.262	1873.52
448.636	1920.08
449.01	1960.75
449.384	1959.4
449.758	1987.65
450.132	1989.68
450.506	1976.8
450.88	2007.76
451.254	2016.8
451.628	2026.97
452.002	2063.35
452.376	2095.67
452.75	2118.26
453.123	2127.98
453.497	2162.78
453.871	2140.41
454.244	2186.96
454.618	2225.83
454.992	2246.85
455.365	2279.16
455.739	2327.75
456.112	2318.94
456.486	2372.72
456.859	2378.6
457.232	2439.39
457.606	2465.82
457.979	2496.78
458.352	2501.98
458.725	2543.79
459.099	2557.8
459.472	2617.23
459.845	2667.4
460.218	2663.79
460.591	2678.02
460.964	2680.06
461.337	2717.12
461.71	2805.03
462.083	2818.36
462.456	2836.21
462.829	2806.83
463.201	2894.51
463.574	2904.23
463.947	2939.71
464.32	2993.04
464.692	3015.87
465.065	3071.68
465.438	3072.59
465.81	3086.83
466.183	3111.91
466.555	3219.03
466.928	3223.09
467.3	3212.92
467.672	3257.22
468.045	3358.68
468.417	3365.46
468.789	3363.2
469.161	3434.39
469.534	3446.59
469.906	3567.26
470.278	3581.28
470.65	3620.37
471.022	3678.9
471.394	3727.49
471.766	3794.83
472.138	3812.68
472.51	3880.93
472.882	3890.42
473.253	3997.54
473.625	3981.27
473.997	4115.95
474.369	4185.1
474.74	4200.02
475.112	4258.55
475.484	4318.66
475.855	4428.03
476.227	4409.28
476.598	4519.78
476.97	4564.07
477.341	4648.14
477.713	4768.82
478.084	4774.24
478.455	4958.41
478.827	4938.3
479.198	5084.51
479.569	5104.17
479.94	5269.37
480.311	5322.25
480.682	5474.33
481.053	5556.14
481.424	5649.92
481.795	5753.87
482.166	5779.64
482.537	5885.4
482.908	6008.78
483.279	6066.86
483.65	6226.4
484.021	6309.11
484.391	6386.4
484.762	6501.88
485.133	6561.54
485.503	6623.23
485.874	6762.21
486.244	6881.53
486.615	7048.08
486.985	7095.76
487.356	7208.07
487.726	7325.58
488.097	7464.34
488.467	7559.93
488.837	7744.78
489.207	7882.41
489.578	7998.33
489.948	8118.33
490.318	8185.22
490.688	8230.19
491.058	8368.95
491.428	8513.35
491.798	8615.49
492.168	8824.3
492.538	8905.88
492.908	8978.42
493.278	9113.56
493.648	9099.77
494.017	9376.83
494.387	9383.16
494.757	9579.76
495.126	9552.19
495.496	9668.57
495.866	9809.81
496.235	9872.86
496.605	10016.59
496.974	10039.64
497.344	10180.42
497.713	10228.33
498.082	10347.88
498.452	10429.91
498.821	10573.63
499.19	10570.24
499.559	10643.69
499.928	10772.73
500.298	10840.52
500.667	10926.85
501.036	10967.3
501.405	11043.23
501.774	11158.48
502.143	11189.44
502.512	11256.33
502.88	11299.94
503.249	11380.39
503.618	11520.28
503.987	11585.59
504.356	11598.92
504.724	11666.94
505.093	11795.07
505.462	11799.14
505.83	11926.59
506.199	12035.29
506.567	12092.69
506.936	12111.67
507.304	12301.95
507.672	12403.64
508.041	12410.65
508.409	12495.39
508.777	12638.44
509.145	12717.53
509.514	12744.2
509.882	12801.15
510.25	12785.78
510.618	12953.91
510.986	12958.66
511.354	13131.53
511.722	13252.43
512.09	13369.04
512.458	13302.83
512.826	13491.75
513.193	13516.16
513.561	13591.41
513.929	13688.35
514.297	13836.6
514.664	13960.89
515.032	13915.69
515.4	14160.88
515.767	14116.14
516.135	14253.31
516.502	14226.42
516.869	14450.37
517.237	14550.03
517.604	14460.76
517.972	14716.35
518.339	14763.35
518.706	14943.24
519.073	14975.55
519.44	15004.7
519.808	15217.35
520.175	15179.61
520.542	15448.53
520.909	15540.06
521.276	15595.65
521.643	15825.25
522.009	15926.71
522.376	16080.38
522.743	16087.39
523.11	16255.74
523.477	16373.93
523.843	16554.27
524.21	16748.39
524.577	16881.27
524.943	16999.91
525.31	17150.86
525.676	17329.39
526.043	17352.89
526.409	17543.39
526.776	17845.08
527.142	17665.2
527.508	17892.76
527.874	18175.92
528.241	18288.91
528.607	18335.24
528.973	18536.36
529.339	18596.25
529.705	18754.44
530.071	18899.97
530.437	19004.83
530.803	19086.4
531.169	19250.92
531.535	19381.76
531.901	19404.59
532.267	19542.89
532.632	19741.08
532.998	19901.3
533.364	19951.24
533.73	20010.9
534.095	20233.95
534.461	20253.61
534.826	20402.08
535.192	20472.13
535.557	20584.22
535.923	20602.3
536.288	20692.24
536.653	20877.54
537.019	20954.6
537.384	20976.07
537.749	21049.97
538.114	21123.64
538.479	21252.22
538.845	21300.36
539.21	21279.57
539.575	21428.04
539.94	21535.61
540.305	21723.62
540.67	21655.83
541.034	21901.25
541.399	21948.93
541.764	21908.03
542.129	22093.78
542.494	22144.4
542.858	22200.22
543.223	22239.32
543.587	22379.2
543.952	22355.92
544.316	22439.54
544.681	22481.12
545.045	22674.79
545.41	22745.52
545.774	22749.36
546.138	22866.19
546.503	22923.59
546.867	22928.11
547.231	23037.04
547.595	23060.09
547.959	23214.43
548.324	23368.1
548.688	23362.9
549.052	23463.24
549.416	23476.12
549.779	23546.85
550.143	23606.96
550.507	23784.81
550.871	23833.62
551.235	23832.95
551.599	24179.38
551.962	24114.75
552.326	24253.73
552.689	24362.88
553.053	24224.12
553.417	24306.15
553.78	24553.15
554.143	24726.26
554.507	24745.47
554.87	24778.23
555.234	25063.65
555.597	24876.08
555.96	25028.17
556.323	25133.48
556.686	25277.88
557.05	25443.07
557.413	25606.46
557.776	25700.47
558.139	25792.67
558.502	25862.72
558.865	25871.54
559.228	26172.32
559.59	26124.41
559.953	26219.78
560.316	26550.16
560.679	26552.42
561.041	26715.58
561.404	26903.6
561.767	27123.26
562.129	26996.25
562.492	27293.65
562.854	27449.57
563.217	27467.88
563.579	27669.23
563.941	27800.3
564.304	27895.44
564.666	28199.84
565.028	28154.19
565.39	28445.03
565.753	28649.54
566.115	28676.89
566.477	29023.32
566.839	28916.43
567.201	29256.98
567.563	29347.38
567.925	29537.88
568.287	29563.87
568.648	29712.57
569.01	29887.93
569.372	30358.88
569.734	30323.62
570.095	30536.5
570.457	30678.87
570.819	30905.76
571.18	30870.28
571.542	31157.5
571.903	31219.87
572.265	31408.34
572.626	31599.97
572.987	31764.94
573.349	31934.88
573.71	31989.57
574.071	32091.94
574.432	32345.94
574.794	32710.68
575.155	32660.51
575.516	32735.31
575.877	32851.92
576.238	33019.6
576.599	33202.19
576.96	33234.51
577.32	33452.13
577.681	33599.92
578.042	33933.47
578.403	33953.81
578.763	33942.96
579.124	34189.51
579.485	34293.24
579.845	34694.13
580.206	34474.7
580.566	34777.29
580.927	34781.36
581.287	35160.11
581.648	35058.41
582.008	35463.15
582.368	35553.54
582.728	35811.61
583.089	35720.54
583.449	36012.74
583.809	36206.18
584.169	36500.86
584.529	36459.96
584.889	36937.46
585.249	36919.16
585.609	37108.08
585.969	37532.25
586.329	37723.2
586.688	38094.72
587.048	38245.45
587.408	38496.52
587.768	38721.14
588.127	39087.23
588.487	39249.49
588.846	40026.87
589.206	39942.58
589.565	40292.63
589.925	41018.71
590.284	41131.7
590.643	41477.91
591.003	41905.92
591.362	42362.63
591.721	42772.56
592.08	43086
592.44	43572.77
592.799	43888.46
593.158	44365.97
593.517	44662.23
593.876	45041.88
594.235	45340.18
594.593	45724.8
594.952	46233.26
595.311	46451.11
595.67	47068.04
596.029	47480.46
596.387	47883.84
596.746	48198.41
597.104	48404.28
597.463	48697.38
597.822	49335.33
598.18	49449.9
598.538	49818.03
598.897	50372.81
599.255	50396.54
599.613	51083.53
599.972	51161.49
600.33	51433.35
600.688	51714.7
601.046	52046.44
601.404	52390.16
601.762	52696.37
602.12	53013.87
602.478	53204.83
602.836	53419.51
603.194	53483.69
603.552	53849.78
603.91	54012.72
604.268	54300.85
604.625	54411.13
604.983	54776.77
605.341	54779.03
605.698	55233.93
606.056	55492.45
606.413	55465.34
606.771	55860.81
607.128	56001.37
607.485	56138.99
607.843	56249.27
608.2	56508.7
608.557	56743.49
608.914	56748.69
609.272	57022.13
609.629	57213.76
609.986	57366.3
610.343	57477.03
610.7	57766.07
611.057	57791.15
611.414	57889.45
611.771	58147.75
612.127	58259.16
612.484	58435.43
612.841	58529.21
613.198	58570.56
613.554	58620.51
613.911	58876.77
614.267	59043.09
614.624	59091.68
614.98	59165.35
615.337	59356.76
615.693	59457.55
616.05	59517.21
616.406	59726.92
616.762	59686.92
617.118	59801.72
617.475	59834.49
617.831	60014.37
618.187	60075.38
618.543	60189.96
618.899	60334.59
619.255	60371.42
619.611	60373.23
619.967	60568.93
620.323	60657.29
620.678	60557.4
621.034	60605.77
621.39	60692.32
621.746	60768.47
622.101	61074.68
622.457	60826.55
622.812	61013.21
623.168	61044.17
623.523	61045.75
623.879	61122.59
624.234	61103.38
624.589	61192.19
624.945	61232.42
625.3	61282.81
625.655	61362.58
626.01	61388.34
626.365	61419.98
626.72	61377.04
627.075	61346.99
627.43	61441.68
627.785	61413.2
628.14	61437.61
628.495	61445.29
628.85	61547.89
629.205	61528.9
629.559	61543.14
629.914	61522.13
630.269	61494.33
630.623	61399.64
630.978	61391.06
631.332	61558.06
631.687	61574.78
632.041	61501.56
632.396	61506.98
632.75	61496.59
633.104	61576.59
633.459	61453.2
633.813	61442.81
634.167	61410.49
634.521	61391.73
634.875	61446.65
635.229	61365.07
635.583	61303.15
635.937	61275.8
636.291	61279.19
636.645	61304.5
636.999	61185.64
637.352	61311.06
637.706	61151.29
638.06	61301.57
638.413	61160.55
638.767	61110.61
639.121	61190.61
639.474	61120.33
639.828	61076.04
640.181	61062.25
640.534	61128.69
640.888	60950.61
641.241	60900.45
641.594	60923.5
641.947	61010.5
642.301	60847.57
642.654	60891.63
643.007	60869.94
643.36	60889.15
643.713	60904.06
644.066	60961.46
644.419	60748.13
644.771	60550.4
645.124	60296.85
645.477	60283.51
645.83	60180.69
646.182	60137.98
646.535	60145.66
646.888	60199.22
647.24	60021.83
647.593	60249.39
647.945	60154.25
648.298	60084.87
648.65	59900.92
649.002	59805.33
649.355	59813.92
649.707	59706.13
650.059	59692.34
650.411	60031.54
650.763	60180.01
651.115	60500.91
651.467	60407.58
651.819	60406.67
652.171	60354.47
652.523	60263.85
652.875	60298.65
653.227	60259.56
653.578	60379.33
653.93	60293.23
654.282	60211.2
654.633	60122.61
654.985	60247.36
655.337	60248.49
655.688	60171.2
656.039	60318.09
656.391	60011.88
656.742	60073.8
657.094	60041.49
657.445	60102.28
657.796	60120.81
658.147	60038.32
658.498	60100.69
658.849	60142.05
659.2	60037.64
659.551	59966.46
659.902	60101.37
660.253	59954.48
660.604	60119
660.955	59949.96
661.306	60081.26
661.656	59991.09
662.007	60004.65
662.358	60082.39
662.708	60058.21
663.059	60034.71
663.409	59848.05
663.76	60023.86
664.11	60016.18
664.461	60041.94
664.811	60010.98
665.161	60069.73
665.511	60000.58
665.862	60035.38
666.212	60017.08
666.562	60060.69
666.912	60035.61
667.262	59934.6
667.612	59929.62
667.962	60006.91
668.312	59981.83
668.662	60096.85
669.011	60028.38
669.361	60029.06
669.711	60082.84
670.06	59918.1
670.41	59848.05
670.76	59907.7
671.109	60075.84
671.459	59937.76
671.808	59875.84
672.157	59974.37
672.507	59806.92
672.856	59844.43
673.205	59824.99
673.554	59947.25
673.904	59796.07
674.253	60023.18
674.602	59829.97
674.951	59562.85
675.3	59340.26
675.649	59868.84
675.998	59747.71
676.346	59817.54
676.695	59839.46
677.044	59698.9
677.393	59789.06
677.741	59817.54
678.09	59708.84
678.438	59665.45
678.787	59714.94
679.135	59679.46
679.484	59534.83
679.832	59613.02
680.181	59572.8
680.529	59616.64
680.877	59448.06
681.225	59489.64
681.573	59648.05
681.922	59486.92
682.27	59407.38
682.618	59391.33
682.966	59357.89
683.314	59383.2
683.661	59314.05
684.009	59231.34
684.357	59127.84
684.705	59123.77
685.053	59170.32
685.4	59108.63
685.748	58955.64
686.095	58987.5
686.443	58844
686.79	58807.39
687.138	58847.62
687.485	58791.8
687.832	58665.03
688.18	58652.37
688.527	58578.25
688.874	58529.89
689.221	58501.64
689.568	58438.14
689.915	58284.92
690.262	58406.5
690.609	58300.97
690.956	58174.87
691.303	58158.37
691.65	58063.01
691.997	57990.69
692.344	57927.87
692.69	57802.22
693.037	57858.04
693.383	57587.54
693.73	57693.53
694.077	57454.44
694.423	57579.86
694.769	57411.95
695.116	57376.7
695.462	57229.58
695.808	57169.02
696.155	57237.49
696.501	56960.21
696.847	57068.46
697.193	56889.7
697.539	56952.08
697.885	56779.2
698.231	56745.75
698.577	56701.46
698.923	56632.54
699.269	56461.02
699.614	56399.1
699.96	56318.42
700.306	56329.72
700.651	56171.76
700.997	56084.3
701.342	56018.99
701.688	55994.81
702.033	55882.73
702.379	55925.66
702.724	55747.14
703.069	55779.68
703.415	55508.72
703.76	55534.26
704.105	55499.46
704.45	55381.27
704.795	55347.37
705.14	55210.2
705.485	55164.1
705.83	55035.06
706.175	55137.21
706.52	54954.16
706.865	54906.93
707.209	54931.79
707.554	54813.83
707.899	54832.13
708.243	54589.2
708.588	54619.03
708.932	54473.72
709.277	54478.24
709.621	54332.94
709.966	54132.04
710.31	54230.34
710.654	54048.65
710.998	54045.71
711.342	54071.25
711.687	53898.14
712.031	53881.42
712.375	53743.35
712.719	53726.85
713.063	53657.93
713.407	53811.82
713.75	53562.11
714.094	53508.32
714.438	53333.41
714.782	53346.07
715.125	53300.42
715.469	53358.72
715.812	53085.06
716.156	53117.6
716.499	53118.5
716.843	53109.69
717.186	52839.19
717.53	53111.72
717.873	53045.51
718.216	52842.81
718.559	52779.08
718.902	52581.57
719.246	52570.72
719.589	52539.31
719.932	52453.44
720.275	52473.55
720.617	52445.75
720.96	52339.99
721.303	52443.04
721.646	52372.76
721.989	52119.89
722.331	52209.15
722.674	52062.71
723.016	52095.25
723.359	51933.22
723.701	51985.65
724.044	51883.51
724.386	51737.07
724.729	51855.71
725.071	51830.85
725.413	51801.02
725.755	51727.81
726.097	51551.99
726.439	51488.04
726.782	51383.41
727.124	51573.91
727.465	51495.72
727.807	51330.53
728.149	51372.11
728.491	51238.78
728.833	51325.33
729.175	51226.8
729.516	51182.28
729.858	51149.97
730.199	51258.21
730.541	51140.93
730.882	51063.64
731.224	51054.15
731.565	50886.92
731.906	50936.87
732.248	50980.03
732.589	50783.42
732.93	50711.56
733.271	50744.78
733.612	50771.9
733.953	50744.56
734.294	50588.4
734.635	50607.16
734.976	50670.21
735.317	50551.34
735.658	50480.16
735.999	50396.54
736.339	50343.66
736.68	50401.06
737.021	50357
737.361	50247.17
737.702	50326.04
738.042	50232.93
738.383	50245.81
738.723	50302.99
739.063	50113.39
739.404	50207.62
739.744	50169.43
740.084	50045.14
740.424	50158.81
740.764	50055.31
741.104	50223.44
741.444	49941.64
741.784	49918.59
742.124	50013.28
742.464	49789.1
742.804	49890.57
743.143	49773.96
743.483	49815.31
743.823	49631.36
744.162	49637.47
744.502	49822.55
744.841	49565.38
745.181	49827.74
745.52	49585.72
745.86	49681.31
746.199	49663.68
746.538	49584.81
746.877	49682.44
747.216	49534.64
747.556	49481.09
747.895	49439.05
748.234	49549.11
748.573	49480.41
748.911	49303.69
749.25	49330.36
749.589	49299.85
749.928	49244.48
750.267	49364.48
750.605	49284.25
750.944	49109.57
751.283	49035.22
751.621	49233.86
751.96	48959.07
752.298	48855.11
752.636	48898.95
752.975	48771.05
753.313	48801.56
753.651	48938.73
753.989	48704.61
754.327	48771.73
