Data from 1797_FLMS001491_001.txt Node
Date: Thu Apr 19 16:33:42 BST 2018
User: hsy
Spectrometer: FLMS00149
Trigger mode: 0
Integration Time (sec): 1.000000E-2
Scans to average: 10
Electric dark correction enabled: true
Nonlinearity correction enabled: false
Boxcar width: 0
XAxis mode: Wavelengths
Number of Pixels in Spectrum: 2048
>>>>>Begin Spectral Data<<<<<
341.393	-4.12
341.776	-4.12
342.16	-4.12
342.543	-64.24
342.927	-78.7
343.31	-60.62
343.693	-84.57
344.077	-62.88
344.46	-67.63
344.843	-65.59
345.226	-57.68
345.61	-31.24
345.993	-12.71
346.376	-15.42
346.759	9.89
347.142	25.48
347.525	60.73
347.908	70.9
348.291	68.64
348.674	108.19
349.057	114.52
349.44	135.53
349.823	135.99
350.206	172.59
350.588	241.52
350.971	248.3
351.354	267.06
351.737	284.23
352.119	279.94
352.502	321.97
352.884	312.7
353.267	319.26
353.65	332.59
354.032	338.92
354.414	354.51
354.797	365.13
355.179	358.13
355.562	366.04
355.944	373.72
356.326	381.18
356.709	376.88
357.091	371.69
357.473	391.8
357.855	397.45
358.238	385.02
358.62	380.5
359.002	399.48
359.384	384.57
359.766	382.08
360.148	363.78
360.53	381.63
360.912	384.57
361.294	401.06
361.676	395.64
362.057	393.61
362.439	387.5
362.821	370.33
363.203	382.08
363.584	396.77
363.966	383.21
364.348	396.09
364.729	393.38
365.111	382.53
365.493	383.66
365.874	374.62
366.256	379.14
366.637	373.72
367.019	375.75
367.4	371.01
367.781	369.88
368.163	367.39
368.544	398.8
368.925	362.87
369.306	392.7
369.688	377.33
370.069	366.26
370.45	392.93
370.831	382.53
371.212	366.26
371.593	388.18
371.974	382.31
372.355	394.51
372.736	405.13
373.117	386.37
373.498	393.15
373.879	400.84
374.26	402.19
374.641	370.56
375.021	395.19
375.402	401.74
375.783	414.62
376.163	428.86
376.544	424.79
376.925	418.01
377.305	398.58
377.686	414.17
378.066	430.21
378.447	412.14
378.827	401.74
379.208	394.96
379.588	430.89
379.968	435.19
380.349	447.39
380.729	440.61
381.109	438.8
381.489	443.1
381.87	423.66
382.25	444.68
382.63	443.1
383.01	463.43
383.39	459.59
383.77	467.05
384.15	450.1
384.53	446.94
384.91	453.49
385.29	464.11
385.67	454.85
386.049	468.63
386.429	468.41
386.809	470.67
387.189	474.51
387.568	480.61
387.948	471.34
388.328	475.19
388.707	497.33
389.087	504.34
389.466	503.21
389.846	487.61
390.225	512.47
390.605	519.03
390.984	493.72
391.363	517.67
391.743	509.99
392.122	534.84
392.501	519.25
392.881	523.55
393.26	518.57
393.639	547.5
394.018	529.2
394.397	531
394.776	538.69
395.155	540.27
395.534	537.56
395.913	557.89
396.292	555.41
396.671	559.48
397.05	561.51
397.429	566.03
397.808	573.26
398.186	576.2
398.565	566.48
398.944	575.07
399.323	586.59
399.701	580.72
400.08	601.28
400.458	579.59
400.837	587.95
401.215	596.76
401.594	604.45
401.972	621.85
402.351	615.07
402.729	630.89
403.107	622.75
403.486	616.88
403.864	627.72
404.242	631.79
404.62	627.27
404.999	640.38
405.377	639.7
405.755	656.2
406.133	672.02
406.511	668.85
406.889	672.69
407.267	680.38
407.645	709.3
408.023	683.32
408.401	703.43
408.779	711.79
409.156	717.44
409.534	712.92
409.912	739.59
410.29	736.42
410.667	739.36
411.045	756.99
411.422	754.95
411.8	761.28
412.178	787.04
412.555	792.47
412.933	789.3
413.31	805.57
413.687	830.2
414.065	818.68
414.442	827.27
414.819	822.52
415.197	834.27
415.574	866.81
415.951	854.16
416.328	847.38
416.705	858
417.082	880.82
417.46	851.9
417.837	880.6
418.214	874.95
418.591	888.28
418.967	916.98
419.344	941.39
419.721	922.63
420.098	931.44
420.475	930.54
420.852	938.9
421.228	936.64
421.605	963.76
421.982	974.83
422.358	959.24
422.735	963.76
423.111	951.1
423.488	952.23
423.864	983.87
424.241	1011.67
424.617	1021.61
424.994	1019.13
425.37	1030.65
425.746	1051.44
426.123	1061.38
426.499	1024.78
426.875	1079.24
427.251	1098.67
427.627	1088.05
428.003	1117.88
428.379	1118.78
428.756	1117.43
429.132	1149.52
429.507	1166.47
429.883	1156.07
430.259	1158.33
430.635	1179.8
431.011	1192
431.387	1217.99
431.763	1257.76
432.138	1227.48
432.514	1271.55
432.89	1255.96
433.265	1305.45
433.641	1303.64
434.016	1314.03
434.392	1319.23
434.767	1341.6
435.143	1349.51
435.518	1361.26
435.894	1399.45
436.269	1405.1
436.644	1400.13
437.02	1451.88
437.395	1475.84
437.77	1457.98
438.145	1486.01
438.52	1480.13
438.895	1507.7
439.271	1494.59
439.646	1517.87
440.021	1545.67
440.395	1530.3
440.77	1556.06
441.145	1561.71
441.52	1572.78
441.895	1568.94
442.27	1586.79
442.645	1604.87
443.019	1587.47
443.394	1632.44
443.769	1646.23
444.143	1613.69
444.518	1668.37
444.892	1612.33
445.267	1660.69
445.641	1675.83
446.016	1674.7
446.39	1702.05
446.764	1698.43
447.139	1695.49
447.513	1751.99
447.887	1749.5
448.262	1737.52
448.636	1735.72
449.01	1770.29
449.384	1800.57
449.758	1790.4
450.132	1827.69
450.506	1871.53
450.88	1819.78
451.254	1871.76
451.628	1891.65
452.002	1886
452.376	1917.41
452.75	1937.07
453.123	1947.24
453.497	2004.18
453.871	1985.88
454.244	2046.22
454.618	2053.22
454.992	2120.79
455.365	2100.91
455.739	2145.88
456.112	2118.08
456.486	2168.7
456.859	2169.15
457.232	2247.34
457.606	2235.82
457.979	2280.34
458.352	2280.34
458.725	2353.55
459.099	2353.1
459.472	2409.37
459.845	2432.42
460.218	2404.85
460.591	2470.16
460.964	2504.74
461.337	2532.76
461.71	2583.6
462.083	2593.1
462.456	2598.07
462.829	2568.92
463.201	2674.22
463.574	2679.42
463.947	2670.38
464.32	2752.64
464.692	2774.79
465.065	2796.71
465.438	2829.93
465.81	2906.53
466.183	2864.73
466.555	2927.1
466.928	2932.75
467.3	2923.93
467.672	2979.3
468.045	3082.35
468.417	3049.81
468.789	3067.89
469.161	3116.92
469.534	3117.83
469.906	3239.41
470.278	3247.77
470.65	3298.84
471.022	3361.21
471.394	3365.28
471.766	3414.32
472.138	3456.12
472.51	3545.16
472.882	3592.84
473.253	3594.88
473.625	3692.73
473.997	3771.14
474.369	3777.02
474.74	3831.03
475.112	3883.46
475.484	3876.68
475.855	3993.51
476.227	4040.29
476.598	4121.87
476.97	4185.82
477.341	4272.83
477.713	4314.41
478.084	4417.45
478.455	4463.1
478.827	4513.72
479.198	4614.06
479.569	4625.13
479.94	4776.77
480.311	4857.89
480.682	4909.42
481.053	5070.32
481.424	5131.33
481.795	5216.98
482.166	5254.49
482.537	5366.81
482.908	5466.24
483.279	5482.29
483.65	5598.44
484.021	5733.13
484.391	5830.07
484.762	5900.35
485.133	5991.65
485.503	6055.38
485.874	6143.28
486.244	6222.6
486.615	6346.22
486.985	6486.33
487.356	6623.72
487.726	6652.88
488.097	6827.11
488.467	6853.55
488.837	6973.09
489.207	7070.94
489.578	7226.65
489.948	7374.21
490.318	7454.66
490.688	7520.42
491.058	7649.46
491.428	7728.78
491.798	7786.41
492.168	8049.9
492.538	8078.83
492.908	8177.13
493.278	8287.86
493.648	8304.36
494.017	8485.14
494.387	8568.08
494.757	8640.62
495.126	8789.99
495.496	8807.4
495.866	8911.8
496.235	8983.44
496.605	9083.55
496.974	9125.58
497.344	9241.28
497.713	9360.6
498.082	9380.49
498.452	9504.55
498.821	9608.5
499.19	9599.92
499.559	9662.51
499.928	9817.09
500.298	9806.01
500.667	9916.97
501.036	9932.79
501.405	10067.93
501.774	10120.13
502.143	10122.62
502.512	10282.39
502.88	10325.32
503.249	10390.18
503.618	10544.3
503.987	10542.27
504.356	10659.32
504.724	10699.55
505.093	10728.47
505.462	10770.28
505.83	10850.96
506.199	10934.12
506.567	11050.95
506.936	11020.67
507.304	11222.7
507.672	11224.96
508.041	11323.04
508.409	11321.91
508.777	11485.52
509.145	11535.69
509.514	11571.62
509.882	11646.64
510.25	11675.34
510.618	11788.11
510.986	11814.1
511.354	11852.97
511.722	12010.93
512.09	12218.15
512.458	12084.15
512.826	12276.68
513.193	12294.08
513.561	12494.98
513.929	12455.44
514.297	12577.92
514.664	12700.85
515.032	12731.81
515.4	12821.3
515.767	12824.24
516.135	12943.11
516.502	12902.2
516.869	13199.6
517.237	13228.07
517.604	13186.49
517.972	13414.73
518.339	13443.43
518.706	13594.39
519.073	13613.6
519.44	13665.35
519.808	13907.15
520.175	13828.05
520.542	14124.32
520.909	14175.16
521.276	14277.76
521.643	14383.52
522.009	14445.21
522.376	14562.5
522.743	14557.75
523.11	14861.02
523.477	14984.86
523.843	15011.75
524.21	15245.19
524.577	15431.18
524.943	15532.64
525.31	15551.17
525.676	15772.41
526.043	15832.52
526.409	15984.16
526.776	16237.71
527.142	16238.39
527.508	16336.92
527.874	16500.53
528.241	16650.81
528.607	16760.18
528.973	16965.6
529.339	17036.11
529.705	17212.6
530.071	17296.21
530.437	17406.27
530.803	17694.39
531.169	17688.74
531.535	17775.3
531.901	17761.28
532.267	17836.54
532.632	18147.71
532.998	18206.02
533.364	18241.95
533.73	18377.54
534.095	18496.63
534.461	18529.4
534.826	18677.87
535.192	18678.55
535.557	18830.18
535.923	18799
536.288	19037.18
536.653	19213.9
537.019	19165.77
537.384	19260.45
537.749	19402.15
538.114	19522.59
538.479	19546.77
538.845	19651.63
539.21	19666.32
539.575	19785.64
539.94	19803.94
540.305	19975.24
540.67	20001.45
541.034	20095.46
541.399	20164.16
541.764	20126.42
542.129	20278.96
542.494	20331.39
542.858	20426.53
543.223	20409.35
543.587	20650.25
543.952	20590.81
544.316	20699.96
544.681	20702
545.045	20878.04
545.41	20999.84
545.774	20958.94
546.138	21153.29
546.503	21106.28
546.867	21211.82
547.231	21259.27
547.595	21392.83
547.959	21467.18
548.324	21384.24
548.688	21517.12
549.052	21714.85
549.416	21657.45
549.779	21761.18
550.143	21802.99
550.507	21943.55
550.871	22091.79
551.235	22092.92
551.599	22154.39
551.962	22286.36
552.326	22271.22
552.689	22455.4
553.053	22357.77
553.417	22543.98
553.78	22791.66
554.143	22744.43
554.507	22963.86
554.87	22989.17
555.234	23267.58
555.597	23087.47
555.96	23175.61
556.323	23302.38
556.686	23414.24
557.05	23585.54
557.413	23608.36
557.776	23773.56
558.139	23952.99
558.502	23970.16
558.865	24071.63
559.228	24239.31
559.59	24304.84
559.953	24428.23
560.316	24726.52
560.679	24684.27
561.041	24877.26
561.404	25002.22
561.767	25124.93
562.129	25132.39
562.492	25435.43
562.854	25472.95
563.217	25451.03
563.579	25644.47
563.941	25849.21
564.304	26119.71
564.666	26284.68
565.028	26335.75
565.39	26345.69
565.753	26574.84
566.115	26715.4
566.477	26773.02
566.839	27045.11
567.201	27278.32
567.563	27236.74
567.925	27514.47
568.287	27589.05
568.648	27784.52
569.01	27996.95
569.372	28310.39
569.734	28253.44
570.095	28629.7
570.457	28714.67
570.819	28811.62
571.18	28796.7
571.542	29228.1
571.903	29179.74
572.265	29376.8
572.626	29694.98
572.987	29680.52
573.349	29908.99
573.71	30046.84
574.071	30201.41
574.432	30401.4
574.794	30631.45
575.155	30760.72
575.516	30746.93
575.877	30875.52
576.238	31017.43
576.599	31247.71
576.96	31330.65
577.32	31468.72
577.681	31734.25
578.042	31970.85
578.403	31992.77
578.763	32112.77
579.124	32281.13
579.485	32524.96
579.845	32715.02
580.206	32784.17
580.566	32853.09
580.927	32922.24
581.287	33196.36
581.648	33216.7
582.008	33546.18
582.368	33716.12
582.728	33757.25
583.089	33999.05
583.449	34190.23
583.809	34359.49
584.169	34694.4
584.529	34774.4
584.889	35180.71
585.249	35104.56
585.609	35311.11
585.969	35806.46
586.329	35751.77
586.688	36256.17
587.048	36406.67
587.408	36718.07
587.768	36907
588.127	37301.79
588.487	37599.18
588.846	38120.52
589.206	38060.64
589.565	38435.09
589.925	39057.9
590.284	39322.07
590.643	39594.61
591.003	39939.46
591.362	40470.97
591.721	40899.21
592.08	41118.41
592.44	41730.82
592.799	42037.93
593.158	42193.18
593.517	42781.64
593.876	43257.11
594.235	43391.12
594.593	43849.41
594.952	44331.21
595.311	44584.31
595.67	45017.29
596.029	45706.31
596.387	46086.42
596.746	46568.89
597.104	46634.88
597.463	47035.09
597.822	47571.35
598.18	47775.64
598.538	48187.15
598.897	48664.88
599.255	48815.16
599.613	49467.12
599.972	49544.86
600.33	49914.56
600.688	50135.57
601.046	50461.22
601.404	50902.79
601.762	51093.74
602.12	51521.3
602.478	51713.84
602.836	51889.65
603.194	51930.56
603.552	52363.09
603.91	52497.55
604.268	52948.16
604.625	53007.14
604.983	53353.12
605.341	53424.3
605.698	53766.44
606.056	54048.01
606.413	54123.94
606.771	54361.45
607.128	54669.01
607.485	54712.4
607.843	54841.67
608.2	55156.01
608.557	55420.63
608.914	55447.53
609.272	55785.6
609.629	55993.27
609.986	56140.39
610.343	56158.47
610.7	56495.86
611.057	56547.16
611.414	56648.85
611.771	56872.8
612.127	56974.72
612.484	57126.8
612.841	57339.68
613.198	57320.47
613.554	57443.63
613.911	57638.2
614.267	57757.75
614.624	57861.02
614.98	58010.4
615.337	58240.9
615.693	58288.13
616.05	58427.79
616.406	58534.22
616.762	58512.76
617.118	58566.31
617.475	58634.56
617.831	58830.71
618.187	58854.22
618.543	59016.47
618.899	59086.53
619.255	59195
619.611	59216.24
619.967	59364.03
620.323	59469.11
620.678	59402.45
621.034	59417.82
621.39	59496.01
621.746	59581.2
622.101	59884.92
622.457	59671.14
622.812	59818.48
623.168	59920.4
623.523	59872.49
623.879	60037.69
624.234	59887.41
624.589	60036.11
624.945	60054.86
625.3	60132.37
625.655	60105.48
626.01	60181.19
626.365	60203.78
626.72	60192.94
627.075	60159.04
627.43	60267.51
627.785	60211.47
628.14	60321.97
628.495	60259.83
628.85	60371.46
629.205	60253.27
629.559	60369.43
629.914	60237
630.269	60330.56
630.623	60201.07
630.978	60163.79
631.332	60330.56
631.687	60382.31
632.041	60268.42
632.396	60301.41
632.75	60244.01
633.104	60306.83
633.459	60207.63
633.813	60222.09
634.167	60235.87
634.521	60201.75
634.875	60224.57
635.229	60145.03
635.583	60112.04
635.937	60132.15
636.291	60074.97
636.645	60062.32
636.999	59938.03
637.352	60072.94
637.706	59908.88
638.06	60031.13
638.413	59891.7
638.767	59863
639.121	59921.31
639.474	59781.65
639.828	59792.27
640.181	59856.9
640.534	59854.87
640.888	59708.43
641.241	59641.77
641.594	59693.74
641.947	59727.86
642.301	59695.32
642.654	59764.25
643.007	59596.34
643.36	59696.9
643.713	59598.38
644.066	59713.4
644.419	59557.47
644.771	59287.88
645.124	59094.43
645.477	59059.18
645.83	58966.75
646.182	58930.6
646.535	58860.77
646.888	58931.5
647.24	58840.88
647.593	59058.73
647.945	58816.93
648.298	58806.31
648.65	58665.07
649.002	58587.56
649.355	58543.04
649.707	58441.12
650.059	58444.96
650.411	58747.1
650.763	58849.7
651.115	59284.26
651.467	59123.59
651.819	59183.25
652.171	59059.63
652.523	59063.48
652.875	59030.26
653.227	58894.67
653.578	59089.01
653.93	59052.4
654.282	58939.18
654.633	58876.81
654.985	58966.53
655.337	58993.87
655.688	58932.18
656.039	59025.74
656.391	58797.72
656.742	58839.07
657.094	58820.54
657.445	58872.52
657.796	58922.69
658.147	58793.43
658.498	58872.29
658.849	58959.52
659.2	58881.33
659.551	58857.38
659.902	58894.44
660.253	58839.75
660.604	58887.43
660.955	58791.39
661.306	58893.76
661.656	58720.43
662.007	58774.9
662.358	58780.77
662.708	58793.65
663.059	58785.97
663.409	58637.5
663.76	58779.19
664.11	58865.97
664.461	58799.08
664.811	58791.39
665.161	58726.08
665.511	58747.55
665.862	58709.59
666.212	58799.75
666.562	58779.41
666.912	58769.02
667.262	58730.38
667.612	58739.42
667.962	58820.32
668.312	58649.7
668.662	58816.25
669.011	58768.12
669.361	58668.68
669.711	58651.06
670.06	58699.64
670.41	58591.62
670.76	58610.83
671.109	58745.74
671.459	58649.93
671.808	58606.54
672.157	58712.07
672.507	58548.69
672.856	58546.65
673.205	58595.24
673.554	58632.3
673.904	58497.16
674.253	58689.93
674.602	58550.27
674.951	58232.54
675.3	58077.06
675.649	58526.77
675.998	58488.8
676.346	58498.97
676.695	58566.09
677.044	58461.91
677.393	58409.26
677.741	58534
678.09	58469.37
678.438	58464.17
678.787	58506.65
679.135	58428.92
679.484	58298.98
679.832	58358.64
680.181	58323.16
680.529	58298.07
680.877	58195.48
681.225	58286.55
681.573	58398.41
681.922	58218.98
682.27	58162.93
682.618	58121.81
682.966	58011.75
683.314	58079.09
683.661	58071.86
684.009	57944.63
684.357	57901.92
684.705	57822.15
685.053	57964.97
685.4	57722.49
685.748	57742.15
686.095	57652.66
686.443	57560.92
686.79	57564.53
687.138	57658.99
687.485	57560.46
687.832	57449.96
688.18	57436.85
688.527	57342.39
688.874	57339.68
689.221	57286.8
689.568	57188.27
689.915	57142.4
690.262	57154.37
690.609	57063.3
690.956	56904.66
691.303	56935.4
691.65	56863.99
691.997	56825.79
692.344	56685.01
692.69	56624.67
693.037	56650.43
693.383	56377.44
693.73	56503.54
694.077	56275.53
694.423	56228.3
694.769	56151.91
695.116	56166.38
695.462	56045.02
695.808	55999.38
696.155	55988.53
696.501	55797.57
696.847	55862.66
697.193	55661.98
697.539	55635.09
697.885	55458.6
698.231	55400.52
698.577	55424.25
698.923	55279.85
699.269	55126.4
699.614	55063.35
699.96	54952.85
700.306	55019.06
700.651	54881.89
700.997	54717.6
701.342	54625.17
701.688	54624.04
702.033	54440.32
702.379	54545.63
702.724	54452.75
703.069	54365.52
703.415	54154.45
703.76	54048.69
704.105	54036.04
704.45	53947.45
704.795	53893.67
705.14	53753.56
705.485	53763.73
705.83	53514.02
706.175	53649.15
706.52	53448.03
706.865	53368.48
707.209	53296.62
707.554	53253.68
707.899	53310.63
708.243	53146.57
708.588	53091.88
708.932	52871.32
709.277	52965.78
709.621	52883.52
709.966	52547.04
710.31	52675.85
710.654	52446.93
710.998	52503.42
711.342	52514.95
711.687	52326.93
712.031	52342.3
712.375	52127.16
712.719	52145.24
713.063	52036.54
713.407	52185.01
713.75	51945.02
714.094	51934.4
714.438	51619.15
714.782	51695.53
715.125	51636.78
715.469	51860.95
715.812	51423.45
716.156	51461.87
716.499	51437.46
716.843	51429.33
717.186	51256.22
717.53	51486.95
717.873	51472.49
718.216	51226.39
718.559	51071.59
718.902	50816.46
719.246	50869.57
719.589	50847.42
719.932	50759.96
720.275	50798.38
720.617	50780.08
720.96	50612.62
721.303	50667.76
721.646	50656.92
721.989	50588.22
722.331	50583.25
722.674	50451.05
723.016	50435.45
723.359	50317.94
723.701	50326.53
724.044	50228.91
724.386	50094.22
724.729	50138.51
725.071	50056.48
725.413	50054.67
725.755	49974.9
726.097	49905.3
726.439	49693.1
726.782	49697.62
727.124	49757.51
727.465	49698.3
727.807	49635.7
728.149	49719.54
728.491	49666.66
728.833	49608.36
729.175	49559.77
729.516	49518.42
729.858	49434.35
730.199	49557.96
730.541	49384.18
730.882	49298.76
731.224	49322.94
731.565	49315.93
731.906	49283.39
732.248	49173.57
732.589	49064.87
732.93	48911.2
733.271	49067.35
733.612	48922.5
733.953	49132.89
734.294	48936.51
734.635	48797.08
734.976	48896.74
735.317	48812.45
735.658	48850.86
735.999	48730.19
736.339	48751.2
736.68	48706.46
737.021	48702.17
737.361	48560.7
737.702	48760.47
738.042	48461.72
738.383	48603.64
738.723	48592.34
739.063	48410.2
739.404	48477.99
739.744	48461.49
740.084	48383.3
740.424	48378.78
740.764	48228.96
741.104	48529.97
741.444	48157.77
741.784	48146.93
742.124	48327.26
742.464	48176.76
742.804	48056.53
743.143	48031
743.483	48160.94
743.823	47986.93
744.162	47997.33
744.502	48061.28
744.841	47982.86
745.181	48087.72
745.52	47962.3
745.86	47898.12
746.199	47850.66
746.538	47744.9
746.877	47900.38
747.216	47846.37
747.556	47833.71
747.895	47764.56
748.234	47652.48
748.573	47643.44
748.911	47493.16
749.25	47531.35
749.589	47430.11
749.928	47442.54
750.267	47442.99
750.605	47346.04
750.944	47329.09
751.283	47232.83
751.621	47337.46
751.96	47145.37
752.298	47039.84
752.636	47146.5
752.975	47090
753.313	46976.79
753.651	47159.83
753.989	46966.62
754.327	46913.29
754.666	46645.95
755.004	46734.53
755.342	46876
755.679	46697.25
