Data from 1797_FLMS001491_002.txt Node
Date: Thu Apr 19 16:33:45 BST 2018
User: hsy
Spectrometer: FLMS00149
Trigger mode: 0
Integration Time (sec): 1.000000E-2
Scans to average: 10
Electric dark correction enabled: true
Nonlinearity correction enabled: false
Boxcar width: 0
XAxis mode: Wavelengths
Number of Pixels in Spectrum: 2048
>>>>>Begin Spectral Data<<<<<
341.393	1.51
341.776	1.51
342.16	1.51
342.543	-67.64
342.927	-80.97
343.31	-73.52
343.693	-51.82
344.077	-64.93
344.46	-73.97
344.843	-65.83
345.226	-34.65
345.61	-29.45
345.993	-33.52
346.376	-3.69
346.759	22.98
347.142	39.93
347.525	48.06
347.908	27.73
348.291	75.18
348.674	93.03
349.057	124.45
349.44	141.62
349.823	132.36
350.206	169.87
350.588	220.04
350.971	257.1
351.354	256.19
351.737	272.01
352.119	280.6
352.502	298.9
352.884	329.41
353.267	314.95
353.65	362.41
354.032	351.78
354.414	343.2
354.797	354.04
355.179	370.54
355.562	350.88
355.944	364.44
356.326	373.48
356.709	365.57
357.091	361.28
357.473	395.4
357.855	399.47
358.238	383.65
358.62	394.27
359.002	389.75
359.384	391.78
359.766	390.43
360.148	413.93
360.53	403.53
360.912	388.39
361.294	394.04
361.676	388.17
362.057	378.9
362.439	392.46
362.821	404.66
363.203	385.23
363.584	378.45
363.966	386.36
364.348	380.03
364.729	380.71
365.111	376.19
365.493	370.99
365.874	388.85
366.256	369.64
366.637	374.38
367.019	371.22
367.4	396.98
367.781	370.99
368.163	375.29
368.544	383.87
368.925	371.9
369.306	389.75
369.688	383.65
370.069	374.16
370.45	383.2
370.831	372.12
371.212	362.18
371.593	397.21
371.974	399.01
372.355	388.85
372.736	401.95
373.117	397.21
373.498	384.78
373.879	385
374.26	375.51
374.641	380.71
375.021	387.94
375.402	413.48
375.783	403.76
376.163	416.42
376.544	411.67
376.925	419.35
377.305	418.45
377.686	420.26
378.066	435.4
378.447	433.82
378.827	410.54
379.208	433.59
379.588	433.14
379.968	423.87
380.349	426.36
380.729	431.56
381.109	426.36
381.489	442.86
381.87	437.88
382.25	462.52
382.63	425.23
383.01	438.34
383.39	457.54
383.77	441.95
384.15	453.7
384.53	480.82
384.91	445.57
385.29	483.76
385.67	479.69
386.049	488.05
386.429	459.35
386.809	455.51
387.189	462.97
387.568	495.74
387.948	481.95
388.328	507.71
388.707	475.4
389.087	483.31
389.466	532.12
389.846	504.1
390.225	505.68
390.605	483.98
390.984	516.07
391.363	494.38
391.743	547.71
392.122	523.31
392.501	531.44
392.881	519.46
393.26	516.53
393.639	515.85
394.018	536.64
394.397	531.44
394.776	542.29
395.155	536.64
395.534	538.45
395.913	563.76
396.292	562.85
396.671	545.9
397.05	559.46
397.429	554.04
397.808	559.01
398.186	581.38
398.565	589.07
398.944	567.37
399.323	574.15
399.701	566.24
400.08	580.25
400.458	581.61
400.837	584.77
401.215	594.49
401.594	580.71
401.972	615.28
402.351	587.48
402.729	618.67
403.107	613.92
403.486	615.96
403.864	636.07
404.242	641.95
404.62	632.23
404.999	640.14
405.377	636.52
405.755	650.53
406.133	648.95
406.511	669.06
406.889	647.82
407.267	665.9
407.645	682.85
408.023	669.52
408.401	696.18
408.779	721.94
409.156	707.71
409.534	702.51
409.912	724.43
410.29	741.83
410.667	726.92
411.045	746.58
411.422	756.52
411.8	766.46
412.178	778.44
412.555	771.43
412.933	791.32
413.31	800.36
413.687	809.85
414.065	795.16
414.442	813.69
414.819	814.37
415.197	818.44
415.574	837.2
415.951	840.81
416.328	840.59
416.705	833.35
417.082	838.55
417.46	864.31
417.837	876.74
418.214	871.54
418.591	888.72
418.967	886.69
419.344	900.24
419.721	914.93
420.098	912.22
420.475	942.05
420.852	908.83
421.228	933.69
421.605	936.18
421.982	954.03
422.358	962.84
422.735	962.39
423.111	976.63
423.488	1007.59
423.864	982.95
424.241	1007.59
424.617	1009.62
424.994	1007.13
425.37	1015.5
425.746	1015.27
426.123	1029.96
426.499	1027.25
426.875	1042.61
427.251	1064.76
427.627	1066.79
428.003	1083.29
428.379	1121.03
428.756	1118.32
429.132	1139.56
429.507	1126
429.883	1139.33
430.259	1161.93
430.635	1183.4
431.011	1236.51
431.387	1227.02
431.763	1243.74
432.138	1234.93
432.514	1267.47
432.89	1228.6
433.265	1275.6
433.641	1301.36
434.016	1310.86
434.392	1314.47
434.767	1342.27
435.143	1347.92
435.518	1340.01
435.894	1372.32
436.269	1367.58
436.644	1403.96
437.02	1436.28
437.395	1431.53
437.77	1421.36
438.145	1478.53
438.52	1460
438.895	1485.54
439.271	1470.17
439.646	1497.29
440.021	1528.25
440.395	1541.81
440.77	1493.9
441.145	1558.53
441.52	1569.15
441.895	1547.01
442.27	1580
442.645	1568.7
443.019	1609.15
443.394	1603.96
443.769	1601.92
444.143	1614.12
444.518	1631.75
444.892	1635.37
445.267	1668.36
445.641	1649.83
446.016	1645.31
446.39	1713.56
446.764	1704.29
447.139	1691.18
447.513	1699.55
447.887	1734.8
448.262	1712.65
448.636	1738.87
449.01	1766.89
449.384	1751.3
449.758	1763.72
450.132	1809.83
450.506	1800.79
450.88	1844.4
451.254	1858.64
451.628	1858.41
452.002	1869.03
452.376	1877.39
452.75	1928.24
453.123	1923.04
453.497	1963.72
453.871	1960.56
454.244	2026.99
454.618	1970.5
454.992	2073.77
455.365	2076.03
455.739	2072.64
456.112	2115.81
456.486	2119.42
456.859	2162.58
457.232	2212.75
457.606	2230.61
457.979	2224.05
458.352	2296.37
458.725	2303.82
459.099	2358.06
459.472	2351.96
459.845	2425.85
460.218	2386.08
460.591	2431.28
460.964	2438.96
461.337	2465.18
461.71	2500.65
462.083	2559.18
462.456	2581.1
462.829	2585.17
463.201	2626.53
463.574	2638.73
463.947	2634.44
464.32	2677.83
464.692	2746.07
465.065	2783.13
465.438	2811.38
465.81	2823.81
466.183	2854.09
466.555	2916.46
466.928	2903.36
467.3	2922.11
467.672	2981.09
468.045	3026.74
468.417	3046.18
468.789	3046.4
469.161	3074.65
469.534	3150.13
469.906	3178.38
470.278	3188.55
470.65	3256.57
471.022	3307.41
471.394	3342.21
471.766	3362.33
472.138	3415.43
472.51	3484.81
472.882	3526.39
473.253	3537.46
473.625	3598.7
473.997	3654.07
474.369	3727.29
474.74	3778.59
475.112	3838.47
475.484	3887.51
475.855	3970.45
476.227	4018.35
476.598	4077.34
476.97	4137.9
477.341	4242.08
477.713	4271.46
478.084	4234.39
478.455	4385.8
478.827	4500.83
479.198	4597.55
479.569	4645.23
479.94	4699.92
480.311	4765
480.682	4891.78
481.053	4990.08
481.424	5043.41
481.795	5103.07
482.166	5230.75
482.537	5297.87
482.908	5445.66
483.279	5458.32
483.65	5586.9
484.021	5677.75
484.391	5728.14
484.762	5810.85
485.133	5881.13
485.503	5961.81
485.874	6117.51
486.244	6164.97
486.615	6310.72
486.985	6420.78
487.356	6507.1
487.726	6557.95
488.097	6748.45
488.467	6800.43
488.837	6870.94
489.207	6980.99
489.578	7109.35
489.948	7218.04
490.318	7308.89
490.688	7362
491.058	7507.53
491.428	7610.35
491.798	7675.43
492.168	7833.17
492.538	7875.43
492.908	8080.85
493.278	8150.68
493.648	8158.81
494.017	8343.44
494.387	8369.43
494.757	8431.8
495.126	8563.32
495.496	8643.77
495.866	8746.82
496.235	8860.71
496.605	8893.25
496.974	8906.14
497.344	9095.51
497.713	9156.52
498.082	9198.33
498.452	9266.8
498.821	9383.64
499.19	9496.4
499.559	9495.72
499.928	9646
500.298	9643.29
500.667	9768.94
501.036	9759.67
501.405	9841.7
501.774	9862.27
502.143	9967.58
502.512	10029.04
502.88	10123.05
503.249	10158.98
503.618	10229.72
503.987	10267.23
504.356	10394.68
504.724	10433.1
505.093	10503.38
505.462	10565.3
505.83	10587
506.199	10742.92
506.567	10843.03
506.936	10823.37
507.304	10925.52
507.672	10945.4
508.041	11080.54
508.409	11196.47
508.777	11295.68
509.145	11356.69
509.514	11286.41
509.882	11449.35
510.25	11438.27
510.618	11545.16
510.986	11622.22
511.354	11728.21
511.722	11889.79
512.09	11960.74
512.458	11875.55
512.826	11984.25
513.193	12064.02
513.561	12120.51
513.929	12231.7
514.297	12366.61
514.664	12414.29
515.032	12408.19
515.4	12550.56
515.767	12632.14
516.135	12615.19
516.502	12638.92
516.869	12853.83
517.237	12923.88
517.604	12915.3
517.972	13166.14
518.339	13136.53
518.706	13266.7
519.073	13279.81
519.44	13366.13
519.808	13535.17
520.175	13621.72
520.542	13769.96
520.909	13827.81
521.276	13942.39
521.643	13993.69
522.009	14094.25
522.376	14209.95
522.743	14426.22
523.11	14438.19
523.477	14695.14
523.843	14755.25
524.21	14861.01
524.577	15080.89
524.943	15174.9
525.31	15240.21
525.676	15399.98
526.043	15593.64
526.409	15573.98
526.776	15866.4
527.142	15841.55
527.508	15965.61
527.874	16094.87
528.241	16237.02
528.607	16295.77
528.973	16491.93
529.339	16439.95
529.705	16684.69
530.071	16791.13
530.437	16922.42
530.803	17042.19
531.169	17175.07
531.535	17169.42
531.901	17317.44
532.267	17339.36
532.632	17557.66
532.998	17608.73
533.364	17860.7
533.73	17877.88
534.095	17984.77
534.461	18051.21
534.826	18174.82
535.192	18218.89
535.557	18388.82
535.923	18381.14
536.288	18490.74
536.653	18614.36
537.019	18659.1
537.384	18842.37
537.749	18853.44
538.114	18886.66
538.479	18946.55
538.845	19067
539.21	19082.14
539.575	19176.6
539.94	19269.93
540.305	19398.97
540.67	19397.84
541.034	19525.07
541.399	19587.44
541.764	19688.68
542.129	19757.6
542.494	19712.18
542.858	19876.02
543.223	19835.79
543.587	20039.63
543.952	19932.74
544.316	20129.34
544.681	20012.96
545.045	20240.3
545.41	20337.93
545.774	20354.2
546.138	20416.79
546.503	20454.31
546.867	20520.75
547.231	20804.58
547.595	20693.62
547.959	20709.44
548.324	20782.66
548.688	20827.63
549.052	20982.65
549.416	20979.26
549.779	21037.34
550.143	21105.59
550.507	21384.23
550.871	21324.79
551.235	21342.19
551.599	21534.96
551.962	21463.55
552.326	21645.69
552.689	21716.87
553.053	21708.51
553.417	21778.57
553.78	22045.9
554.143	21984.21
554.507	22112.12
554.87	22218.33
555.234	22410.19
555.597	22311.43
555.96	22457.87
556.323	22567.7
556.686	22761.59
557.05	22808.14
557.413	22875.26
557.776	22910.51
558.139	23123.39
558.502	23259.88
558.865	23162.26
559.228	23342.37
559.59	23468.01
559.953	23524.73
560.316	23915.46
560.679	23883.37
561.041	24057.15
561.404	24149.35
561.767	24336.01
562.129	24268.22
562.492	24531.71
562.854	24480.87
563.217	24656.68
563.579	24717.92
563.941	24907.3
564.304	25136.67
564.666	25345.7
565.028	25465.47
565.39	25517.22
565.753	25812.36
566.115	25767.16
566.477	26006.48
566.839	26080.15
567.201	26376.41
567.563	26345.23
567.925	26662.28
568.287	26740.47
568.648	26906.79
569.01	27148.59
569.372	27346.33
569.734	27409.6
570.095	27542.71
570.457	27684.17
570.819	27761.23
571.18	27758.97
571.542	28217.49
571.903	28068.12
572.265	28380.2
572.626	28526.64
572.987	28639.18
573.349	28785.61
573.71	29038.49
574.071	29208.88
574.432	29339.5
574.794	29581.3
575.155	29615.87
575.516	29609.32
575.877	29793.95
576.238	29820.39
576.599	30101.96
576.96	30196.65
577.32	30205.01
577.681	30483.42
578.042	30725
578.403	30815.16
578.763	30868.72
579.124	30981.94
579.485	31219
579.845	31515.03
580.206	31402.27
580.566	31403.85
580.927	31525.2
581.287	31921.35
581.648	31804.06
582.008	32209.03
582.368	32420.55
582.728	32478.17
583.089	32597.72
583.449	32811.27
583.809	33062.79
584.169	33162.67
584.529	33187.31
584.889	33722.88
585.249	33558.82
585.609	33821.41
585.969	34213.72
586.329	34254.4
586.688	34750.43
587.048	34989.52
587.408	35179.34
587.768	35486.91
588.127	35669.95
588.487	35941.13
588.846	36561
589.206	36556.48
589.565	36913.54
589.925	37420.41
590.284	37561.2
590.643	38004.13
591.003	38304.01
591.362	39086.59
591.721	39284.55
592.08	39517.08
592.44	40219.89
592.799	40305.08
593.158	40749.37
593.517	41094.44
593.876	41550.02
594.235	41819.85
594.593	42258.48
594.952	42712.7
595.311	42848.75
595.67	43512.23
596.029	44107.47
596.387	44337.52
596.746	44967.56
597.104	45113.09
597.463	45424.5
597.822	45957.37
598.18	46283.01
598.538	46507.63
598.897	47290.44
599.255	47222.64
599.613	48118.44
599.972	48068.72
600.33	48523.63
600.688	48676.16
601.046	49228.24
601.404	49628.91
601.762	49837.04
602.12	50264.14
602.478	50464.37
602.836	50797.01
603.194	50733.28
603.552	51208.98
603.91	51409.65
604.268	51871.56
604.625	51919.02
604.983	52257.09
605.341	52333.92
605.698	52753.34
606.056	53125.99
606.413	53135.93
606.771	53532.31
607.128	53669.93
607.485	53816.37
607.843	53984.05
608.2	54130.26
608.557	54573.41
608.914	54650.92
609.272	54877.36
609.629	55158.93
609.986	55340.85
610.343	55417.91
610.7	55767.5
611.057	55806.37
611.414	55855.86
611.771	56132.46
612.127	56250.88
612.484	56415.17
612.841	56605.45
613.198	56611.77
613.554	56703.07
613.911	57004.76
614.267	57095.15
614.624	57175.15
614.98	57314.35
615.337	57593.22
615.693	57552.54
616.05	57716.6
616.406	57870.5
616.762	57895.13
617.118	57943.26
617.475	58026.2
617.831	58274.33
618.187	58303.03
618.543	58414.89
618.899	58558.84
619.255	58646.52
619.611	58677.93
619.967	58806.29
620.323	58931.49
620.678	58852.85
621.034	58970.36
621.39	58962.45
621.746	59053.97
622.101	59375.32
622.457	59175.55
622.812	59290.12
623.168	59383.68
623.523	59403.11
623.879	59535.09
624.234	59441.76
624.589	59519.72
624.945	59604.46
625.3	59657.34
625.655	59656.21
626.01	59688.76
626.365	59773.27
626.72	59678.59
627.075	59722.65
627.43	59760.62
627.785	59779.83
628.14	59834.06
628.495	59884.91
628.85	59855.98
629.205	59745.93
629.559	59953.16
629.914	59784.12
630.269	59826.83
630.623	59778.47
630.978	59662.77
631.332	59905.92
631.687	59904.79
632.041	59850.33
632.396	59811.69
632.75	59786.61
633.104	59837
633.459	59721.3
633.813	59766.72
634.167	59770.79
634.521	59757.68
634.875	59756.55
635.229	59706.83
635.583	59644.46
635.937	59636.55
636.291	59679.26
636.645	59663.22
636.999	59557.23
637.352	59614.63
637.706	59455.99
638.06	59606.5
638.413	59491.47
638.767	59419.16
639.121	59502.55
639.474	59392.49
639.828	59430.23
640.181	59359.5
640.534	59417.35
640.888	59317.92
641.241	59179.84
641.594	59290.12
641.947	59362.66
642.301	59218.03
642.654	59302.1
643.007	59259.16
643.36	59312.49
643.713	59151.59
644.066	59295.09
644.419	59119.96
644.771	58884.03
645.124	58633.42
645.477	58666.18
645.83	58543.02
646.182	58576.24
646.535	58410.82
646.888	58542.57
647.24	58424.16
647.593	58592.51
647.945	58460.54
648.298	58377.15
648.65	58230.04
649.002	58162.24
649.355	58097.61
649.707	58031.85
650.059	58010.38
650.411	58379.64
650.763	58488.79
651.115	58905.5
651.467	58716.13
651.819	58782.34
652.171	58708.89
652.523	58618.05
652.875	58624.83
653.227	58510.93
653.578	58748.89
653.93	58638.16
654.282	58500.99
654.633	58493.76
654.985	58503.02
655.337	58527.2
655.688	58498.5
656.039	58522.23
656.391	58312.07
656.742	58417.83
657.094	58419.41
657.445	58429.81
657.796	58374.44
658.147	58411.05
658.498	58380.32
658.849	58474.1
659.2	58325.4
659.551	58287.89
659.902	58546.19
660.253	58315.23
660.604	58439.75
660.955	58326.98
661.306	58423.03
661.656	58326.31
662.007	58364.04
662.358	58398.62
662.708	58404.27
663.059	58321.56
663.409	58217.38
663.76	58359.3
664.11	58374.44
664.461	58438.84
664.811	58402.24
665.161	58336.7
665.511	58333.76
665.862	58240.43
666.212	58352.97
666.562	58399.52
666.912	58360.2
667.262	58208.34
667.612	58238.17
667.962	58341.22
668.312	58253.76
668.662	58409.69
669.011	58330.37
669.361	58288.11
669.711	58326.08
670.06	58256.02
670.41	58195.24
670.76	58229.81
671.109	58290.37
671.459	58314.1
671.808	58217.16
672.157	58265.06
672.507	58133.54
672.856	58153.65
673.205	58202.01
673.554	58256.02
673.904	58082.92
674.253	58338.06
674.602	58138.51
674.951	57799.09
675.3	57673.44
675.649	58150.26
675.998	58093.54
676.346	58151.39
676.695	58129.02
677.044	57992.08
677.393	58008.35
677.741	58118.4
678.09	57973.77
678.438	57925.64
678.787	58009.7
679.135	57989.82
679.484	57820.33
679.832	57912.08
680.181	57831.4
680.529	57793.44
680.877	57756.83
681.225	57714.12
681.573	57914.11
681.922	57694.68
682.27	57664.85
682.618	57644.06
682.966	57599.09
683.314	57627.79
683.661	57608.13
684.009	57459.44
684.357	57396.39
684.705	57392.09
685.053	57483.84
685.4	57248.82
685.748	57270.51
686.095	57248.59
686.443	57049.5
686.79	57142.61
687.138	57173.57
687.485	57136.96
687.832	56991.2
688.18	57004.31
688.527	56883.63
688.874	56875.5
689.221	56844.08
689.568	56740.81
689.915	56684.99
690.262	56741.71
690.609	56602.51
690.956	56467.6
691.303	56444.77
691.65	56341.95
691.997	56308.05
692.344	56171.56
692.69	56161.62
693.037	56181.28
693.383	55909.87
693.73	56054.73
694.077	55894.96
694.423	55827.61
694.769	55745.81
695.116	55687.28
695.462	55602.99
695.808	55519.15
696.155	55580.61
696.501	55320.51
696.847	55306.27
697.193	55124.81
697.539	55228.08
697.885	54997.58
698.231	54922.33
698.577	54908.32
698.923	54816.57
699.269	54620.64
699.614	54551.72
699.96	54489.57
700.306	54501.55
700.651	54336.81
700.997	54185.62
701.342	54231.95
701.688	54025.85
702.033	53974.1
702.379	53960.77
702.724	53910.15
703.069	53895.46
703.415	53568.01
703.76	53598.52
704.105	53662.25
704.45	53503.61
704.795	53388.13
705.14	53300
705.485	53281.24
705.83	52977.97
706.175	53196.5
706.52	53041.92
706.865	52876.05
707.209	52823.4
707.554	52752.67
707.899	52715.61
708.243	52588.6
708.588	52631.54
708.932	52438.1
709.277	52405.33
709.621	52309.06
709.966	52136.41
710.31	52170.31
710.654	52012.12
710.998	52022.97
711.342	51987.94
711.687	51853.48
712.031	51871.79
712.375	51722.64
712.719	51697.33
713.063	51634.28
713.407	51705.01
713.75	51549.31
714.094	51372.82
714.438	51418.46
714.782	51303.21
715.125	51120.39
715.469	51401.52
715.812	50919.04
716.156	51034.07
716.499	50986.61
716.843	50907.74
717.186	50695.77
717.53	50849.44
717.873	50778.71
718.216	50592.05
718.559	50607.41
718.902	50337.81
719.246	50347.08
719.589	50326.06
719.932	50206.97
720.275	50279.06
720.617	50251.49
720.96	50163.58
721.303	50186.41
721.646	50261.43
721.989	49961.55
722.331	49937.37
722.674	49996.58
723.016	49982.57
723.359	49790.71
723.701	49799.75
724.044	49645.18
724.386	49553.88
724.729	49578.06
725.071	49612.41
725.413	49468.23
725.755	49427.56
726.097	49392.75
726.439	49339.42
726.782	49171.97
727.124	49288.35
727.465	49197.96
727.807	49163.61
728.149	49100.56
728.491	48986.21
728.833	48992.09
729.175	49007.45
729.516	48759.33
729.858	48795.48
730.199	48890.4
730.541	48796.16
730.882	48680.01
731.224	48707.58
731.565	48504.64
731.906	48613.34
732.248	48590.06
732.589	48329.73
732.93	48356.85
733.271	48499.45
733.612	48390.52
733.953	48427.58
734.294	48317.53
734.635	48188.94
734.976	48308.26
735.317	48089.29
735.658	48162.05
735.999	48034.6
736.339	47987.14
736.68	48092.68
737.021	47988.27
737.361	47889.74
737.702	48019.91
738.042	47824.43
738.383	47969.97
738.723	48039.12
739.063	47809.75
739.404	47893.59
739.744	47826.47
740.084	47864.43
740.424	47834.38
740.764	47715.96
741.104	47824.43
741.444	47601.62
741.784	47462.41
742.124	47664.21
742.464	47535.85
742.804	47483.43
743.143	47397.78
743.483	47616.53
743.823	47398.01
744.162	47395.52
744.502	47344
744.841	47227.39
745.181	47397.1
745.52	47169.08
745.86	47280.27
746.199	47228.74
746.538	47113.49
746.877	47245.69
747.216	47224.22
747.556	46942.42
747.895	47095.64
748.234	46911.46
748.573	46968.41
748.911	46749.89
749.25	46754.86
749.589	46814.74
749.928	46855.42
750.267	46812.94
750.605	46735.2
750.944	46637.57
751.283	46683.45
751.621	46748.98
751.96	46436.67
752.298	46418.37
752.636	46438.71
752.975	46335.43
753.313	46184.03
753.651	46490.23
753.989	46247.75
754.327	46200.07
754.666	45973.41
755.004	46058.61
755.342	46151.48
