Data from 1797_FLMS001491_005.txt Node
Date: Thu Apr 19 16:33:57 BST 2018
User: hsy
Spectrometer: FLMS00149
Trigger mode: 0
Integration Time (sec): 1.000000E-2
Scans to average: 10
Electric dark correction enabled: true
Nonlinearity correction enabled: false
Boxcar width: 0
XAxis mode: Wavelengths
Number of Pixels in Spectrum: 2048
>>>>>Begin Spectral Data<<<<<
341.393	-19.67
341.776	-19.67
342.16	-19.67
342.543	-61.26
342.927	-80.24
343.31	-76.62
343.693	-71.88
344.077	-75.94
344.46	-64.65
344.843	-60.8
345.226	-52.67
345.61	-27.13
345.993	-14.48
346.376	-9.28
346.759	21.45
347.142	45.18
347.525	47.67
347.908	62.36
348.291	83.6
348.674	92.86
349.057	100.32
349.44	124.95
349.823	155.69
350.206	176.48
350.588	232.97
350.971	260.09
351.354	277.72
351.737	282.69
352.119	300.99
352.502	301.45
352.884	316.81
353.267	323.59
353.65	342.58
354.032	352.74
354.414	354.33
354.797	370.37
355.179	361.11
355.562	381.67
355.944	364.5
356.326	397.72
356.709	377.6
357.091	400.2
357.473	400.2
357.855	385.51
358.238	402.01
358.62	412.18
359.002	410.6
359.384	420.54
359.766	410.6
360.148	394.33
360.53	390.94
360.912	399.52
361.294	376.02
361.676	401.56
362.057	406.08
362.439	414.89
362.821	404.72
363.203	379.18
363.584	379.18
363.966	391.39
364.348	411.5
364.729	377.6
365.111	388
365.493	372.18
365.874	403.14
366.256	385.96
366.637	373.99
367.019	376.02
367.4	386.87
367.781	384.83
368.163	395.91
368.544	377.6
368.925	377.38
369.306	395
369.688	410.37
370.069	385.96
370.45	409.47
370.831	416.47
371.212	380.31
371.593	408.11
371.974	404.72
372.355	413.53
372.736	405.4
373.117	425.29
373.498	391.84
373.879	403.37
374.26	405.4
374.641	401.78
375.021	403.37
375.402	416.92
375.783	431.39
376.163	429.58
376.544	423.7
376.925	443.82
377.305	436.58
377.686	420.99
378.066	433.42
378.447	434.55
378.827	453.53
379.208	446.08
379.588	443.82
379.968	445.85
380.349	450.82
380.729	450.14
381.109	455.34
381.489	467.77
381.87	450.82
382.25	463.7
382.63	455.79
383.01	461.67
383.39	448.11
383.77	479.97
384.15	466.41
384.53	491.95
384.91	482.46
385.29	473.19
385.67	502.57
386.049	502.35
386.429	490.14
386.809	473.19
387.189	494.21
387.568	483.81
387.948	496.24
388.328	515.45
388.707	536.92
389.087	524.49
389.466	525.4
389.846	526.07
390.225	548.67
390.605	528.33
390.984	553.64
391.363	558.39
391.743	531.5
392.122	563.59
392.501	573.08
392.881	567.43
393.26	556.81
393.639	578.73
394.018	572.17
394.397	572.85
394.776	579.41
395.155	590.03
395.534	566.07
395.913	593.19
396.292	604.94
396.671	603.59
397.05	604.72
397.429	621.44
397.808	608.56
398.186	642.45
398.565	614.21
398.944	608.78
399.323	601.78
399.701	649.01
400.08	631.16
400.458	639.29
400.837	640.87
401.215	645.84
401.594	656.92
401.972	634.55
402.351	687.43
402.729	641.78
403.107	658.5
403.486	680.19
403.864	679.52
404.242	688.33
404.62	712.51
404.999	706.63
405.377	719.51
405.755	707.76
406.133	726.07
406.511	742.57
406.889	726.52
407.267	758.38
407.645	767.65
408.023	750.93
408.401	761.1
408.779	753.19
409.156	778.95
409.534	773.75
409.912	792.06
410.29	826.86
410.667	832.28
411.045	825.27
411.422	834.54
411.8	826.4
412.178	836.57
412.555	869.79
412.933	912.05
413.31	876.12
413.687	889.68
414.065	905.72
414.442	922.22
414.819	895.1
415.197	917.93
415.574	929.23
415.951	945.95
416.328	934.88
416.705	963.35
417.082	955.21
417.46	969.23
417.837	980.98
418.214	975.55
418.591	1001.32
418.967	986.17
419.344	994.31
419.721	1032.5
420.098	1005.38
420.475	1016.23
420.852	1037.02
421.228	1051.26
421.605	1062.56
421.982	1067.75
422.358	1069.11
422.735	1070.92
423.111	1056.46
423.488	1114.76
423.864	1114.08
424.241	1132.16
424.617	1149.79
424.994	1141.65
425.37	1152.95
425.746	1164.02
426.123	1191.59
426.499	1202.89
426.875	1175.32
427.251	1229.78
427.627	1227.07
428.003	1218.26
428.379	1260.52
428.756	1244.25
429.132	1291.93
429.507	1293.51
429.883	1292.16
430.259	1298.71
430.635	1343.23
431.011	1344.13
431.387	1410.34
431.763	1376.45
432.138	1405.15
432.514	1431.36
432.89	1443.11
433.265	1470.91
433.641	1476.33
434.016	1472.94
434.392	1508.65
434.767	1551.13
435.143	1520.17
435.518	1569.21
435.894	1561.53
436.269	1581.64
436.644	1597.01
437.02	1611.47
437.395	1622.77
437.77	1637.68
438.145	1623.67
438.52	1686.5
438.895	1737.57
439.271	1667.96
439.646	1705.93
440.021	1732.82
440.395	1762.88
440.77	1715.2
441.145	1763.56
441.52	1801.97
441.895	1766.27
442.27	1803.55
442.645	1813.72
443.019	1846.72
443.394	1859.82
443.769	1831.12
444.143	1874.51
444.518	1885.36
444.892	1882.42
445.267	1896.43
445.641	1912.93
446.016	1911.57
446.39	1930.1
446.764	1959.48
447.139	1971.69
447.513	1982.53
447.887	1991.12
448.262	1961.52
448.636	2015.07
449.01	1999.48
449.384	2049.88
449.758	2057.33
450.132	2084.68
450.506	2086.71
450.88	2103.21
451.254	2132.13
451.628	2180.72
452.002	2163.54
452.376	2173.94
452.75	2206.48
453.123	2220.94
453.497	2270.66
453.871	2263.2
454.244	2328.51
454.618	2344.78
454.992	2364.9
455.365	2363.99
455.739	2443.99
456.112	2477.43
456.486	2453.71
456.859	2512.69
457.232	2553.14
457.606	2595.17
457.979	2592.46
458.352	2645.79
458.725	2680.59
459.099	2678.79
459.472	2715.62
459.845	2794.26
460.218	2810.76
460.591	2815.28
460.964	2840.36
461.337	2884.2
461.71	2920.36
462.083	3004.2
462.456	2981.38
462.829	3000.36
463.201	3074.93
463.574	3025.9
463.947	3140.24
464.32	3159.9
464.692	3207.59
465.065	3202.39
465.438	3284.87
465.81	3265.66
466.183	3312.44
466.555	3378.65
466.928	3413.91
467.3	3416.62
467.672	3480.57
468.045	3527.58
468.417	3528.71
468.789	3566.9
469.161	3649.83
469.534	3669.04
469.906	3763.95
470.278	3746.78
470.65	3822.94
471.022	3893.89
471.394	3939.32
471.766	3937.06
472.138	4039.2
472.51	4074.23
472.882	4142.93
473.253	4196.03
473.625	4234.45
473.997	4351.06
474.369	4361.45
474.74	4422.02
475.112	4449.81
475.484	4553.99
475.855	4607.77
476.227	4702.69
476.598	4790.14
476.97	4862.91
477.341	4957.14
477.713	5051.6
478.084	5060.42
478.455	5189
478.827	5271.71
479.198	5452.05
479.569	5421.99
479.94	5541.54
480.311	5641.87
480.682	5751.25
481.053	5858.81
481.424	5964.35
481.795	6039.15
482.166	6124.12
482.537	6245.47
482.908	6353.49
483.279	6455.86
483.65	6607.95
484.021	6724.1
484.391	6855.4
484.762	6903.31
485.133	6986.92
485.503	7025.56
485.874	7198.44
486.244	7268.27
486.615	7473.01
486.985	7521.37
487.356	7743.96
487.726	7725.43
488.097	7945.77
488.467	8039.77
488.837	8219.43
489.207	8288.36
489.578	8394.79
489.948	8545.52
490.318	8649.93
490.688	8769.7
491.058	8944.38
491.428	9030.48
491.798	9138.05
492.168	9319.29
492.538	9467.99
492.908	9523.8
493.278	9634.08
493.648	9669.34
494.017	9834.98
494.387	9977.12
494.757	9992.27
495.126	10147.06
495.496	10266.38
495.866	10341.41
496.235	10440.62
496.605	10538.92
496.974	10584.79
497.344	10724
497.713	10791.11
498.082	10815.07
498.452	11003.31
498.821	11189.75
499.19	11094.84
499.559	11221.16
499.928	11345.9
500.298	11468.61
500.667	11526.69
501.036	11547.25
501.405	11683.75
501.774	11698.21
502.143	11846
502.512	11919.45
502.88	12096.84
503.249	12034.47
503.618	12195.15
503.987	12150.17
504.356	12310.17
504.724	12363.28
505.093	12391.07
505.462	12420.22
505.83	12542.71
506.199	12683.49
506.567	12784.51
506.936	12790.38
507.304	13032.19
507.672	13083.26
508.041	13037.84
508.409	13207.1
508.777	13281.67
509.145	13382.68
509.514	13316.47
509.882	13487.09
510.25	13602.57
510.618	13711.72
510.986	13690.25
511.354	13921.65
511.722	13995.78
512.09	14101.54
512.458	14021.99
512.826	14195.54
513.193	14197.8
513.561	14379.27
513.929	14434.18
514.297	14614.97
514.664	14727.96
515.032	14822.87
515.4	14931.12
515.767	14908.29
516.135	15093.37
516.502	14982.42
516.869	15212.47
517.237	15372.91
517.604	15327.72
517.972	15534.94
518.339	15568.39
518.706	15707.6
519.073	15811.55
519.44	15790.08
519.808	16092.22
520.175	16020.13
520.542	16255.6
520.909	16322.49
521.276	16477.07
521.643	16635.48
522.009	16661.92
522.376	16938.07
522.743	17014.68
523.11	17150.04
523.477	17350.04
523.843	17509.36
524.21	17672.29
524.577	17755.9
524.943	17848.33
525.31	18040.64
525.676	18223.01
526.043	18332.61
526.409	18509.78
526.776	18618.25
527.142	18713.39
527.508	18778.25
527.874	18979.15
528.241	19100.05
528.607	19210.1
528.973	19549.3
529.339	19441.51
529.705	19782.97
530.071	19891.67
530.437	19961.27
530.803	20087.82
531.169	20250.53
531.535	20347.47
531.901	20415.27
532.267	20565.32
532.632	20642.83
532.998	20824.07
533.364	20948.36
533.73	21087.34
534.095	21306.09
534.461	21231.74
534.826	21414.56
535.192	21499.53
535.557	21663.37
535.923	21705.63
536.288	21816.36
536.653	21962.8
537.019	21937.04
537.384	21968.67
537.749	22097.48
538.114	22165.73
538.479	22189.46
538.845	22346.97
539.21	22363.47
539.575	22417.48
539.94	22484.37
540.305	22759.16
540.67	22669.22
541.034	22901.53
541.399	22944.02
541.764	22953.05
542.129	23048.42
542.494	23089.77
542.858	23194.18
543.223	23298.13
543.587	23402.53
543.952	23401.18
544.316	23473.49
544.681	23508.52
545.045	23765.91
545.41	23811.56
545.774	23736.08
546.138	23761.85
546.503	23912.13
546.867	23971.56
547.231	24228.5
547.595	24202.74
547.959	24282.96
548.324	24393.92
548.688	24351.21
549.052	24566.35
549.416	24459.68
549.779	24612.9
550.143	24527.48
550.507	24875.26
550.871	24865.77
551.235	24942.15
551.599	25112.32
551.962	25133.56
552.326	25388.02
552.689	25350.73
553.053	25274.12
553.417	25378.08
553.78	25607
554.143	25644.28
554.507	25785.07
554.87	25923.6
555.234	26264.15
555.597	25999.98
555.96	26076.81
556.323	26272.52
556.686	26314.77
557.05	26585.28
557.413	26599.06
557.776	26603.81
558.139	26778.72
558.502	27009.45
558.865	27000.41
559.228	27226.84
559.59	27303.67
559.953	27374.63
560.316	27800.84
560.679	27657.11
561.041	27788.41
561.404	28133.26
561.767	28169.87
562.129	28197.44
562.492	28516.3
562.854	28497.32
563.217	28790.19
563.579	28790.19
563.941	28943.63
564.304	29147.69
564.666	29349.27
565.028	29369.84
565.39	29534.58
565.753	29753.33
566.115	29826.77
566.477	30031.51
566.839	30274.9
567.201	30532.52
567.563	30516.47
567.925	30812.06
568.287	30858.16
568.648	30924.14
569.01	31229
569.372	31408.88
569.734	31528.65
570.095	31710.11
570.457	31856.78
570.819	31891.12
571.18	32154.62
571.542	32394.84
571.903	32436.2
572.265	32694.95
572.626	32808.84
572.987	32901.49
573.349	33061.04
573.71	33263.97
574.071	33503.06
574.432	33542.61
574.794	33917.06
575.155	33869.38
575.516	34005.19
575.877	34224.62
576.238	34317.73
576.599	34581.9
576.96	34512.52
577.32	34762.91
577.681	35039.06
578.042	35221.66
578.403	35169.46
578.763	35239.06
579.124	35387.08
579.485	35601.31
579.845	35772.38
580.206	35882.43
580.566	36052.15
580.927	36110.67
581.287	36475.64
581.648	36401.97
582.008	36717.89
582.368	36826.59
582.728	37052.34
583.089	37147.48
583.449	37405.1
583.809	37532.56
584.169	37968.03
584.529	37800.35
584.889	38429.94
585.249	38379.32
585.609	38455.92
585.969	38937.95
586.329	39024.5
586.688	39465.16
587.048	39566.18
587.408	40026.5
587.768	40112.15
588.127	40559.15
588.487	40716.66
588.846	41289.3
589.206	41294.27
589.565	41731.54
589.925	42379.44
590.284	42513.22
590.643	42916.6
591.003	43303.71
591.362	43951.15
591.721	44107.3
592.08	44431.81
592.44	44997.67
592.799	45089.42
593.158	45664.55
593.517	45843.3
593.876	46378.65
594.235	46755.82
594.593	47097.73
594.952	47484.16
595.311	47738.17
595.67	48251.82
596.029	48745.6
596.387	49210.22
596.746	49605.46
597.104	49594.61
597.463	49879.35
597.822	50457.64
598.18	50717.97
598.538	50899.21
598.897	51471.85
599.255	51508.69
599.613	52137.37
599.972	52110.93
600.33	52561.77
600.688	52727.41
601.046	53036.33
601.404	53506.6
601.762	53576.88
602.12	53940.26
602.478	54084.44
602.836	54399.69
603.194	54412.57
603.552	54671.99
603.91	54855.72
604.268	55074.02
604.625	55224.52
604.983	55603.95
605.341	55612.08
605.698	56016.14
606.056	56268.34
606.413	56200.09
606.771	56605.73
607.128	56743.35
607.485	56807.08
607.843	56955.55
608.2	57238.48
608.557	57454.75
608.914	57516.67
609.272	57730.9
609.629	58011.12
609.986	58246.82
610.343	58238.45
610.7	58528.16
611.057	58583.98
611.414	58617.43
611.771	58880.47
612.127	59027.13
612.484	59066.91
612.841	59252.21
613.198	59306
613.554	59390.51
613.911	59617.63
614.267	59711.64
614.624	59827.11
614.98	59956.15
615.337	60130.16
615.693	60144.17
616.05	60225.29
616.406	60389.58
616.762	60477.94
617.118	60515
617.475	60594.32
617.831	60713.42
618.187	60819.86
618.543	60886.29
618.899	61104.14
619.255	61131.94
619.611	61116.57
619.967	61207.87
620.323	61390.46
620.678	61324.48
621.034	61307.07
621.39	61328.32
621.746	61474.08
622.101	61775.08
622.457	61538.93
622.812	61669.55
623.168	61752.26
623.523	61761.53
623.879	61916.1
624.234	61765.37
624.589	61927.85
624.945	61883.78
625.3	61966.49
625.655	62067.28
626.01	62079.71
626.365	62114.74
626.72	62064.34
627.075	62054.4
627.43	62082.42
627.785	62144.34
628.14	62057.34
628.495	62108.86
628.85	62126.26
629.205	62166.03
629.559	62297.78
629.914	62136.66
630.269	62178.46
630.623	62134.4
630.978	62080.61
631.332	62220.27
631.687	62231.12
632.041	62185.24
632.396	62213.72
632.75	62153.38
633.104	62218.69
633.459	62091.01
633.813	62101.86
634.167	62102.08
634.521	62155.19
634.875	62114.74
635.229	62048.07
635.583	62001.75
635.937	61930.56
636.291	61979.83
636.645	62010.33
636.999	61933.27
637.352	61994.06
637.706	61815.99
638.06	61931.46
638.413	61892.6
638.767	61836.78
639.121	61867.29
639.474	61732.83
639.828	61768.31
640.181	61713.17
640.534	61768.08
640.888	61666.84
641.241	61533.74
641.594	61609.44
641.947	61660.51
642.301	61539.84
642.654	61553.17
643.007	61539.16
643.36	61537.35
643.713	61437.47
644.066	61576.9
644.419	61359.5
644.771	61153.86
645.124	60928.55
645.477	60927.42
645.83	60794.09
646.182	60808.33
646.535	60722.23
646.888	60851.95
647.24	60707.54
647.593	60887.42
647.945	60759.29
648.298	60658.96
648.65	60614.44
649.002	60435.23
649.355	60435.23
649.707	60373.31
650.059	60438.17
650.411	60709.35
650.763	60859.4
651.115	61169
651.467	61063.47
651.819	61151.82
652.171	61072.73
652.523	60957.03
652.875	60980.53
653.227	60913.86
653.578	61107.76
653.93	60996.12
654.282	60894.88
654.633	60815.34
654.985	60930.14
655.337	60935.78
655.688	60936.01
656.039	61018.04
656.391	60760.2
656.742	60842.91
657.094	60801.78
657.445	60833.19
657.796	60921.32
658.147	60764.94
658.498	60864.83
658.849	60832.96
659.2	60738.28
659.551	60684.72
659.902	60846.52
660.253	60693.08
660.604	60776.01
660.955	60689.46
661.306	60780.31
661.656	60692.63
662.007	60710.48
662.358	60722.68
662.708	60738.05
663.059	60696.7
663.409	60654.89
663.76	60792.06
664.11	60714.77
664.461	60795
664.811	60753.19
665.161	60742.8
665.511	60753.64
665.862	60715.23
666.212	60756.58
666.562	60815.11
666.912	60727.65
667.262	60653.31
667.612	60659.41
667.962	60673.42
668.312	60672.97
668.662	60833.64
669.011	60729.46
669.361	60627.54
669.711	60702.12
670.06	60593.65
670.41	60613.53
670.76	60617.15
671.109	60639.07
671.459	60625.74
671.808	60632.74
672.157	60610.14
672.507	60517.49
672.856	60537.38
673.205	60547.55
673.554	60657.6
673.904	60568.34
674.253	60677.03
674.602	60541.22
674.951	60220.32
675.3	60155.24
675.649	60540.09
675.998	60493.31
676.346	60572.4
676.695	60507.1
677.044	60383.93
677.393	60428.45
677.741	60481.11
678.09	60438.4
678.438	60337.61
678.787	60406.99
679.135	60371.96
679.484	60215.35
679.832	60281.11
680.181	60279.08
680.529	60284.28
680.877	60151.62
681.225	60215.13
681.573	60362.24
681.922	60111.4
682.27	60083.83
682.618	60020.33
682.966	59985.3
683.314	60054.45
683.661	60036.6
684.009	59929.03
684.357	59887.45
684.705	59792.54
685.053	59853.78
685.4	59729.04
685.748	59686.1
686.095	59642.49
686.443	59561.13
686.79	59511.42
687.138	59547.35
687.485	59500.34
687.832	59381.02
688.18	59406.79
688.527	59310.97
688.874	59291.08
689.221	59306.9
689.568	59190.52
689.915	59093.12
690.262	59101.26
690.609	58971.32
690.956	58961.83
691.303	58946.01
691.65	58821.04
691.997	58813.81
692.344	58677.09
692.69	58567.49
693.037	58640.7
693.383	58366.36
693.73	58487.94
694.077	58240.71
694.423	58261.05
694.769	58249.75
695.116	58167.04
695.462	58045.47
695.808	58020.83
696.155	58078.23
696.501	57820.61
696.847	57939.48
697.193	57669.88
697.539	57747.39
697.885	57510.11
698.231	57511.02
698.577	57543.78
698.923	57393.73
699.269	57344.01
699.614	57208.43
699.96	57112.83
700.306	57131.37
700.651	56989.45
700.997	56934.53
701.342	56756.23
701.688	56839.85
702.033	56700.64
702.379	56632.4
702.724	56569.57
703.069	56555.56
703.415	56318.96
703.76	56264.72
704.105	56255.23
704.45	56183.59
704.795	56048.68
705.14	55955.8
705.485	56056.59
705.83	55810.04
706.175	55960.1
706.52	55723.27
706.865	55701.57
707.209	55536.83
707.554	55610.73
707.899	55535.7
708.243	55442.6
708.588	55382.94
708.932	55152.66
709.277	55284.63
709.621	55096.39
709.966	54944.3
710.31	54947.47
710.654	54856.17
710.998	54869.5
711.342	54932.33
711.687	54729.39
712.031	54615.5
712.375	54451.21
712.719	54446.01
713.063	54455.73
713.407	54543.41
713.75	54456.86
714.094	54368.73
714.438	54228.84
714.782	54260.71
715.125	54145.23
715.469	54265.9
715.812	53970.09
716.156	53878.57
716.499	53923.09
716.843	53839.02
717.186	53723.09
717.53	53946.82
717.873	53849.19
718.216	53665.47
718.559	53620.27
718.902	53375.76
719.246	53487.39
719.589	53378.24
719.932	53243.78
720.275	53363.78
720.617	53385.7
720.96	53253.5
721.303	53245.82
721.646	53282.2
721.989	53060.06
722.331	53086.27
722.674	53039.5
723.016	53089.89
723.359	53000.85
723.701	52999.95
724.044	52886.28
724.386	52693.52
724.729	52960.18
725.071	52764.25
725.413	52739.39
725.755	52683.8
726.097	52612.84
726.439	52482.67
726.782	52386.18
727.124	52559.51
727.465	52440.41
727.807	52385.05
728.149	52404.48
728.491	52260.76
728.833	52312.51
729.175	52231.15
729.516	52138.95
729.858	52126.75
730.199	52206.75
730.541	52186.41
730.882	52072.97
731.224	52093.98
731.565	51986.42
731.906	52025.06
732.248	51991.16
732.589	51746.65
732.93	51728.8
733.271	51768.57
733.612	51795.01
733.953	51836.14
734.294	51693.09
734.635	51516.15
734.976	51788.91
735.317	51545.75
735.658	51601.57
735.999	51490.16
736.339	51507.33
736.68	51564.28
737.021	51522.25
737.361	51304.17
737.702	51605.63
738.042	51383.72
738.383	51428.01
738.723	51399.76
739.063	51249.71
739.404	51373.32
739.744	51345.53
740.084	51225.76
740.424	51205.42
740.764	51091.52
741.104	51306.89
741.444	51128.13
741.784	50978.76
742.124	51122.48
742.464	51063.05
742.804	51063.73
743.143	50984.18
743.483	51053.33
743.823	50840.91
744.162	50856.95
744.502	50887.91
744.841	50793.23
745.181	50861.93
745.52	50677.98
745.86	50752.32
746.199	50688.82
746.538	50687.47
746.877	50786.22
747.216	50714.36
747.556	50632.55
747.895	50706
748.234	50625.32
748.573	50474.14
748.911	50493.35
749.25	50497.19
749.589	50295.84
749.928	50421.94
750.267	50501.03
750.605	50367.7
750.944	50249.51
751.283	50265.56
751.621	50355.27
751.96	50173.81
752.298	50166.8
752.636	49996.64
752.975	50067.82
753.313	49896.53
753.651	50100.59
753.989	49823.99
754.327	50026.02
