Data from 1797_FLMS001491_010.txt Node
Date: Thu Apr 19 16:34:13 BST 2018
User: hsy
Spectrometer: FLMS00149
Trigger mode: 0
Integration Time (sec): 1.000000E-2
Scans to average: 10
Electric dark correction enabled: true
Nonlinearity correction enabled: false
Boxcar width: 0
XAxis mode: Wavelengths
Number of Pixels in Spectrum: 2048
>>>>>Begin Spectral Data<<<<<
341.393	-29.45
341.776	-29.45
342.16	-29.45
342.543	-71.03
342.927	-74.19
343.31	-76.23
343.693	-71.03
344.077	-71.71
344.46	-46.4
344.843	-60.41
345.226	-58.6
345.61	-31.48
345.993	-22.89
346.376	-18.6
346.759	-0.52
347.142	48.29
347.525	40.83
347.908	75.63
348.291	94.62
348.674	86.48
349.057	112.02
349.44	121.06
349.823	137.1
350.206	163.77
350.588	220.04
350.971	243.54
351.354	267.27
351.737	298
352.119	267.04
352.502	273.14
352.884	294.16
353.267	326.93
353.65	312.69
354.032	338.45
354.414	322.63
354.797	355.85
355.179	365.34
355.562	368.96
355.944	374.38
356.326	361.73
356.709	369.86
357.091	372.35
357.473	375.29
357.855	388.39
358.238	379.58
358.62	382.52
359.002	386.81
359.384	394.27
359.766	360.15
360.148	394.27
360.53	397.66
360.912	394.5
361.294	386.59
361.676	382.52
362.057	379.35
362.439	365.57
362.821	370.32
363.203	372.57
363.584	385.23
363.966	372.57
364.348	376.42
364.729	374.61
365.111	393.59
365.493	381.16
365.874	389.07
366.256	375.96
366.637	382.74
367.019	390.43
367.4	391.56
367.781	385.68
368.163	378
368.544	358.56
368.925	371.67
369.306	375.96
369.688	373.25
370.069	391.11
370.45	383.87
370.831	372.57
371.212	392.69
371.593	387.72
371.974	387.04
372.355	368.73
372.736	399.69
373.117	379.81
373.498	388.85
373.879	392.91
374.26	387.26
374.641	385.46
375.021	369.41
375.402	390.43
375.783	420.03
376.163	411.44
376.544	426.36
376.925	423.87
377.305	412.57
377.686	397.89
378.066	408.73
378.447	435.62
378.827	446.25
379.208	422.29
379.588	429.07
379.968	443.53
380.349	441.5
380.729	431.1
381.109	429.97
381.489	445.12
381.87	432.69
382.25	448.73
382.63	434.04
383.01	441.73
383.39	459.13
383.77	474.95
384.15	445.79
384.53	482.63
384.91	466.58
385.29	455.28
385.67	467.94
386.049	492.12
386.429	452.12
386.809	485.34
387.189	460.48
387.568	472.23
387.948	477.88
388.328	488.5
388.707	493.7
389.087	485.57
389.466	491.67
389.846	519.24
390.225	495.06
390.605	505.45
390.984	512.68
391.363	519.69
391.743	523.76
392.122	547.03
392.501	558.56
392.881	549.52
393.26	539.35
393.639	523.76
394.018	554.72
394.397	561.04
394.776	561.72
395.155	561.95
395.534	572.12
395.913	559.24
396.292	577.32
396.671	581.61
397.05	577.32
397.429	583.87
397.808	587.03
398.186	587.26
398.565	576.19
398.944	594.49
399.323	602.17
399.701	615.28
400.08	613.92
400.458	612.34
400.837	617.31
401.215	606.02
401.594	607.37
401.972	630.87
402.351	628.84
402.729	644.43
403.107	641.27
403.486	622.29
403.864	640.14
404.242	647.37
404.62	664.77
404.999	662.96
405.377	692.79
405.755	684.43
406.133	709.52
406.511	684.66
406.889	711.32
407.267	692.11
407.645	705.45
408.023	713.36
408.401	705.9
408.779	744.99
409.156	736.86
409.534	748.61
409.912	770.53
410.29	760.14
410.667	797.87
411.045	780.02
411.422	775.5
411.8	786.12
412.178	820.47
412.555	824.99
412.933	836.97
413.31	820.02
413.687	851.66
414.065	832.22
414.442	849.62
414.819	880.36
415.197	877.42
415.574	884.2
415.951	896.63
416.328	891.88
416.705	895.5
417.082	916.74
417.46	916.52
417.837	914.48
418.214	915.39
418.591	961.49
418.967	954.48
419.344	934.59
419.721	967.14
420.098	972.11
420.475	974.14
420.852	974.59
421.228	984.54
421.605	974.37
421.982	1005.55
422.358	1008.04
422.735	996.29
423.111	1012.11
423.488	1043.52
423.864	1080.8
424.241	1079.68
424.617	1087.81
424.994	1094.59
425.37	1105.21
425.746	1111.99
426.123	1092.78
426.499	1128.94
426.875	1121.93
427.251	1142.72
427.627	1168.49
428.003	1209.62
428.379	1199.45
428.756	1205.55
429.132	1206.9
429.507	1236.73
429.883	1231.76
430.259	1248.94
430.635	1264.08
431.011	1308.14
431.387	1290.97
431.763	1332.55
432.138	1335.94
432.514	1335.26
432.89	1379.78
433.265	1390.4
433.641	1413
434.016	1397.63
434.392	1407.8
434.767	1449.61
435.143	1448.93
435.518	1460.46
435.894	1485.31
436.269	1500.45
436.644	1534.13
437.02	1545.65
437.395	1547.01
437.77	1549.04
438.145	1560.57
438.52	1598.08
438.895	1605.08
439.271	1570.96
439.646	1654.58
440.021	1643.5
440.395	1652.99
440.77	1635.14
441.145	1668.36
441.52	1730.73
441.895	1707.46
442.27	1692.31
442.645	1711.75
443.019	1729.15
443.394	1751.52
443.769	1750.17
444.143	1772.99
444.518	1788.36
444.892	1756.27
445.267	1758.75
445.641	1800.11
446.016	1819.99
446.39	1826.32
446.764	1828.13
447.139	1860.22
447.513	1859.77
447.887	1859.77
448.262	1870.61
448.636	1893.44
449.01	1917.62
449.384	1927.56
449.758	1955.58
450.132	1955.13
450.506	1976.37
450.88	1994
451.254	1984.06
451.628	2022.02
452.002	2045.53
452.376	2069.93
452.75	2108.57
453.123	2072.42
453.497	2132.98
453.871	2163.04
454.244	2208.68
454.618	2227.44
454.992	2226.76
455.365	2234.45
455.739	2296.82
456.112	2342.47
456.486	2330.72
456.859	2365.29
457.232	2397.15
457.606	2439.64
457.979	2488.68
458.352	2523.25
458.725	2550.37
459.099	2577.04
459.472	2573.87
459.845	2636.24
460.218	2642.57
460.591	2665.17
460.964	2715.56
461.337	2763.92
461.71	2777.03
462.083	2835.79
462.456	2885.5
462.829	2823.81
463.201	2883.47
463.574	2866.29
463.947	2929.34
464.32	2980.64
464.692	3019.96
465.065	3027.87
465.438	3051.15
465.81	3130.69
466.183	3122.56
466.555	3175.89
466.928	3205.27
467.3	3255.66
467.672	3273.97
468.045	3381.99
468.417	3337.24
468.789	3358.03
469.161	3401.2
469.534	3445.49
469.906	3534.53
470.278	3537.46
470.65	3597.57
471.022	3667.86
471.394	3714.41
471.766	3742.88
472.138	3774.07
472.51	3857.91
472.882	3940.16
473.253	3937
473.625	3989.43
473.997	4078.01
474.369	4086.83
474.74	4159.82
475.112	4232.59
475.484	4289.31
475.855	4404.79
476.227	4400.72
476.598	4520.71
476.97	4576.53
477.341	4692.91
477.713	4725
478.084	4834.38
478.455	4911.21
478.827	4897.65
479.198	5096.74
479.569	5105.56
479.94	5205.44
480.311	5296.06
480.682	5431.42
481.053	5543.51
481.424	5655.6
481.795	5684.75
482.166	5857.4
482.537	5858.53
482.908	6003.39
483.279	6069.37
483.65	6260.56
484.021	6258.75
484.391	6377.16
484.762	6499.65
485.133	6556.14
485.503	6675.23
485.874	6838.62
486.244	6882.69
486.615	7070.93
486.985	7089.91
487.356	7258.27
487.726	7274.77
488.097	7496.68
488.467	7565.38
488.837	7734.42
489.207	7812.15
489.578	7953.84
489.948	8054.63
490.318	8189.77
490.688	8240.62
491.058	8327.39
491.428	8463.44
491.798	8532.81
492.168	8729.19
492.538	8858.45
492.908	9005.34
493.278	9048.28
493.648	9088.73
494.017	9213.7
494.387	9356.29
494.757	9432.68
495.126	9554.48
495.496	9641.71
495.866	9667.47
496.235	9864.53
496.605	9866.11
496.974	10028.14
497.344	10050.29
497.713	10227.68
498.082	10282.82
498.452	10376.38
498.821	10404.4
499.19	10459.99
499.559	10593.32
499.928	10667.45
500.298	10836.25
500.667	10823.15
501.036	10822.47
501.405	10967.32
501.774	10954.9
502.143	11078.96
502.512	11206.19
502.88	11367.31
503.249	11295.45
503.618	11465.16
503.987	11518.04
504.356	11530.93
504.724	11593.52
505.093	11661.54
505.462	11716.23
505.83	11823.35
506.199	11908.99
506.567	12120.51
506.936	12068.76
507.304	12201.64
507.672	12206.61
508.041	12217.01
508.409	12480.28
508.777	12506.49
509.145	12601.63
509.514	12575.87
509.882	12784
510.25	12820.16
510.618	12927.27
510.986	12931.34
511.354	13079.81
511.722	13167.94
512.09	13307.38
512.458	13233.03
512.826	13436.41
513.193	13372.01
513.561	13436.41
513.929	13612.45
514.297	13761.6
514.664	13853.35
515.032	13882.5
515.4	14070.75
515.767	14085.21
516.135	14147.81
516.502	14097.86
516.869	14257.86
517.237	14444.75
517.604	14352.77
517.972	14708.7
518.339	14689.49
518.706	14704.85
519.073	14911.18
519.44	14956.15
519.808	15094
520.175	15096.03
520.542	15334.22
520.909	15435.46
521.276	15511.39
521.643	15760.87
522.009	15708.67
522.376	15841.32
522.743	16015.55
523.11	16191.37
523.477	16407.63
523.843	16513.85
524.21	16620.96
524.577	16807.17
524.943	16973.04
525.31	17044
525.676	17204
526.043	17321.28
526.409	17467.72
526.776	17671.33
527.142	17807.82
527.508	17839.01
527.874	18007.59
528.241	18140.92
528.607	18187.7
528.973	18393.34
529.339	18548.14
529.705	18669.27
530.071	18832.2
530.437	18929.15
530.803	19078.07
531.169	19127.11
531.535	19244.17
531.901	19323.04
532.267	19423.37
532.632	19561.9
532.998	19685.29
533.364	19694.78
533.73	20025.62
534.095	20101.77
534.461	20107.2
534.826	20257.02
535.192	20292.05
535.557	20396.46
535.923	20537.69
536.288	20635.32
536.653	20722.32
537.019	20683
537.384	20901.98
537.749	20873.73
538.114	21040.73
538.479	21057
538.845	21237.11
539.21	21156.21
539.575	21369.31
539.94	21348.07
540.305	21525.92
540.67	21592.13
541.034	21579.7
541.399	21729.3
541.764	21901.27
542.129	21869.86
542.494	21848.17
542.858	22166.13
543.223	21985.34
543.587	22228.5
543.952	22184.66
544.316	22295.61
544.681	22211.32
545.045	22423.52
545.41	22537.64
545.774	22579.22
546.138	22579.45
546.503	22674.14
546.867	22801.59
547.231	22931.98
547.595	22964.3
547.959	23133.11
548.324	23076.84
548.688	23250.39
549.052	23319.77
549.416	23234.57
549.779	23315.93
550.143	23569.48
550.507	23574
550.871	23709.59
551.235	23736.03
551.599	23845.4
551.962	23987.1
552.326	24023.93
552.689	24145.74
553.053	24048.79
553.417	24075
553.78	24399.29
554.143	24450.36
554.507	24463.01
554.87	24646.96
555.234	24815.55
555.597	24680.41
555.96	24846.96
556.323	24992.94
556.686	24980.06
557.05	25297.34
557.413	25454.18
557.776	25307.29
558.139	25637.9
558.502	25676.99
558.865	25667.5
559.228	25894.62
559.59	26018.45
559.953	26055.29
560.316	26401.04
560.679	26380.48
561.041	26579.34
561.404	26867.47
561.767	26998.54
562.129	26926.9
562.492	27111.31
562.854	27196.5
563.217	27272.88
563.579	27539.09
563.941	27608.47
564.304	27862.93
564.666	27987.44
565.028	28079.87
565.39	28292.29
565.753	28407.32
566.115	28484.38
566.477	28674.88
566.839	28853.41
567.201	29201.42
567.563	29132.95
567.925	29475.76
568.287	29489.1
568.648	29604.12
569.01	29829.43
569.372	30100.83
569.734	30074.39
570.095	30364.78
570.457	30551.22
570.819	30602.51
571.18	30579.24
571.542	31000.92
571.903	30917.31
572.265	31306
572.626	31559.33
572.987	31492.89
573.349	31774.01
573.71	31788.47
574.071	31942.59
574.432	32162.93
574.794	32463.71
575.155	32458.06
575.516	32577.83
575.877	32771.05
576.238	32884.26
576.599	32955.67
576.96	33205.16
577.32	33201.54
577.681	33498.03
578.042	33663
578.403	33581.19
578.763	33781.87
579.124	33853.73
579.485	34217.33
579.845	34417.78
580.206	34258.01
580.566	34409.19
580.927	34600.83
581.287	34774.38
581.648	34685.12
582.008	35011.89
582.368	35237.19
582.728	35383.41
583.089	35437.87
583.449	35596.73
583.809	35759.44
584.169	36112.88
584.529	35970.51
584.889	36674.45
585.249	36574.79
585.609	36679.64
585.969	37188.56
586.329	37185.84
586.688	37607.53
587.048	37664.02
587.408	37962.1
587.768	38165.71
588.127	38521.18
588.487	38631.46
588.846	39157.77
589.206	39215.4
589.565	39562.5
589.925	40159.1
590.284	40320.23
590.643	40664.17
591.003	41038.17
591.362	41535.79
591.721	41794.99
592.08	42177.58
592.44	42672.25
592.799	42860.05
593.158	43239.92
593.517	43484.89
593.876	44101.59
594.235	44286.67
594.593	44763.05
594.952	45157.61
595.311	45350.38
595.67	45823.36
596.029	46303.57
596.387	46690.68
596.746	47190.1
597.104	47129.99
597.463	47537.66
597.822	48152.56
598.18	48150.3
598.538	48637.52
598.897	49221.23
599.255	49236.83
599.613	49990.93
599.972	49994.1
600.33	50338.72
600.688	50561.99
601.046	50892.38
601.404	51484.23
601.762	51520.38
602.12	51845.8
602.478	52134.15
602.836	52453.47
603.194	52351.77
603.552	52702.27
603.91	52940.23
604.268	53218.64
604.625	53370.28
604.983	53700.89
605.341	53783.37
605.698	54150.6
606.056	54433.98
606.413	54412.74
606.771	54708.32
607.128	54935.89
607.485	54936.56
607.843	55178.59
608.2	55483.67
608.557	55676.88
608.914	55749.2
609.272	56023.54
609.629	56254.95
609.986	56414.04
610.343	56430.99
610.7	56775.61
611.057	56809.06
611.414	56898.32
611.771	57061.93
612.127	57325.88
612.484	57366.56
612.841	57572.65
613.198	57511.86
613.554	57604.97
613.911	57898.07
614.267	58003.6
614.624	58031.85
614.98	58265.74
615.337	58449.92
615.693	58474.55
616.05	58502.35
616.406	58729.68
616.762	58727.65
617.118	58836.57
617.475	58849
617.831	59039.28
618.187	59072.05
618.543	59161.31
618.899	59338.03
619.255	59359.27
619.611	59384.81
619.967	59573.28
620.323	59629.55
620.678	59611.47
621.034	59604.92
621.39	59672.26
621.746	59760.62
622.101	59987.96
622.457	59878.81
622.812	60027.96
623.168	60064.56
623.523	60133.72
623.879	60272.02
624.234	60163.77
624.589	60275.86
624.945	60260.27
625.3	60312.02
625.655	60319.47
626.01	60408.28
626.365	60341.85
626.72	60362.18
627.075	60385.01
627.43	60481.73
627.785	60436.53
628.14	60517.66
628.495	60525.57
628.85	60509.07
629.205	60490.77
629.559	60614.83
629.914	60555.85
630.269	60494.16
630.623	60436.53
630.978	60409.87
631.332	60596.75
631.687	60617.09
632.041	60507.04
632.396	60536.42
632.75	60471.56
633.104	60516.3
633.459	60397.66
633.813	60440.6
634.167	60460.26
634.521	60450.09
634.875	60457.32
635.229	60398.12
635.583	60347.95
635.937	60264.79
636.291	60341.39
636.645	60302.75
636.999	60301.85
637.352	60336.2
637.706	60221.85
638.06	60339.81
638.413	60246.25
638.767	60151.57
639.121	60213.49
639.474	60140.04
639.828	60131.68
640.181	60099.37
640.534	60077.9
640.888	59970.1
641.241	59929.65
641.594	59924
641.947	60006.04
642.301	59936.88
642.654	59943.66
643.007	59904.12
643.36	59939.14
643.713	59881.74
644.066	60018.92
644.419	59800.84
644.771	59537.35
645.124	59239.73
645.477	59318.14
645.83	59244.02
646.182	59150.92
646.535	59152.05
646.888	59222.1
647.24	59127.87
647.593	59225.49
647.945	59120.41
648.298	59030.02
648.65	58912.05
649.002	58777.82
649.355	58796.8
649.707	58753.41
650.059	58754.99
650.411	59110.92
650.763	59204.02
651.115	59526.5
651.467	59399.05
651.819	59393.17
652.171	59366.96
652.523	59310.01
652.875	59312.27
653.227	59239.05
653.578	59427.07
653.93	59326.05
654.282	59194.53
654.633	59192.27
654.985	59301.42
655.337	59267.3
655.688	59161.31
656.039	59289.44
656.391	59070.69
656.742	59126.06
657.094	59064.14
657.445	59124.25
657.796	59146.17
658.147	59077.25
658.498	59049.68
658.849	59164.93
659.2	59060.75
659.551	59020.52
659.902	59150.92
660.253	59060.52
660.604	59057.36
660.955	59006.74
661.306	59105.27
661.656	58995.21
662.007	58997.47
662.358	59029.56
662.708	59049.45
663.059	59065.49
663.409	58917.02
663.76	59058.49
664.11	59022.11
664.461	59093.52
664.811	59087.87
665.161	59058.49
665.511	58939.62
665.862	58987.76
666.212	59061.43
666.562	59081.09
666.912	58940.98
667.262	58951.37
667.612	58977.81
667.962	59011.03
668.312	58967.64
668.662	59079.96
669.011	58986.85
669.361	58937.81
669.711	59020.52
670.06	58894.88
670.41	58895.56
670.76	58838.83
671.109	58968.77
671.459	58974.2
671.808	58903.24
672.157	58973.07
672.507	58816.91
672.856	58827.08
673.205	58853.3
673.554	58884.93
673.904	58779.17
674.253	58898.72
674.602	58813.52
674.951	58539.18
675.3	58337.15
675.649	58777.59
675.998	58797.48
676.346	58773.98
676.695	58813.07
677.044	58616.24
677.393	58703.24
677.741	58791.38
678.09	58639.52
678.438	58598.61
678.787	58705.96
679.135	58697.14
679.484	58519.29
679.832	58602.46
680.181	58524.94
680.529	58556.81
680.877	58466.64
681.225	58414.89
681.573	58613.98
681.922	58469.13
682.27	58369.02
682.618	58421.9
682.966	58336.7
683.314	58404.95
683.661	58346.19
684.009	58226.42
684.357	58113.88
684.705	58087.89
685.053	58176.7
685.4	58019.65
685.748	57935.36
686.095	57948.91
686.443	57788.24
686.79	57767.22
687.138	57783.04
687.485	57795.47
687.832	57712.31
688.18	57630.96
688.527	57550.28
688.874	57451.75
689.221	57477.51
689.568	57387.12
689.915	57300.34
690.262	57387.8
690.609	57277.07
690.956	57134.92
691.303	57169.73
691.65	56988.26
691.997	56936.74
692.344	56859.68
692.69	56797.53
693.037	56822.62
693.383	56571.32
693.73	56666.91
694.077	56503.75
694.423	56541.27
694.769	56375.85
695.116	56360.03
695.462	56289.3
695.808	56223.31
696.155	56224.21
696.501	56023.09
696.847	56092.24
697.193	55833.04
697.539	55837.56
697.885	55709.88
698.231	55759.59
698.577	55586.72
698.923	55586.04
699.269	55406.83
699.614	55365.93
699.96	55284.35
700.306	55309.21
700.651	55096.56
700.997	55029.89
701.342	55005.49
701.688	54911.71
702.033	54753.07
702.379	54845.94
702.724	54681.88
703.069	54673.07
703.415	54312.4
703.76	54317.37
704.105	54397.6
704.45	54182.46
704.795	54128.9
705.14	54055.68
705.485	54089.81
705.83	53827.89
706.175	53916.25
706.52	53853.43
706.865	53702.25
707.209	53667.9
707.554	53635.36
707.899	53603.04
708.243	53410.5
708.588	53370.73
708.932	53180.45
709.277	53206.21
709.621	53163.96
709.966	52954.02
710.31	52977.75
710.654	52762.38
710.998	52942.49
711.342	52958.76
711.687	52779.33
712.031	52648.26
712.375	52462.73
712.719	52503.63
713.063	52460.47
713.407	52620.47
713.75	52288.95
714.094	52297.76
714.438	52152.23
714.782	52209.86
715.125	51971.67
715.469	52137.99
715.812	51828.4
716.156	51813.48
716.499	51864.78
716.843	51787.04
717.186	51620.04
717.53	51786.14
717.873	51778.23
718.216	51573.49
718.559	51435.19
718.902	51215.76
719.246	51257.56
719.589	51246.49
719.932	51109.77
720.275	51192.71
720.617	51105.25
720.96	50935.09
721.303	50996.1
721.646	50994.29
721.989	50881.3
722.331	50882.21
722.674	50836.78
723.016	50771.25
723.359	50631.82
723.701	50686.05
724.044	50593.18
724.386	50411.49
724.729	50539.62
725.071	50591.59
725.413	50415.55
725.755	50441.54
726.097	50219.85
726.439	50036.35
726.782	50074.09
727.124	50304.82
727.465	50129.46
727.807	50005.62
728.149	50029.57
728.491	50041.78
728.833	50008.11
729.175	49845.17
729.516	49847.21
729.858	49793.87
730.199	49896.24
730.541	49777.83
730.882	49613.54
731.224	49629.58
731.565	49458.06
731.906	49579.42
732.248	49613.54
732.589	49405.86
732.93	49288.58
733.271	49424.62
733.612	49384.17
733.953	49457.61
734.294	49279.99
734.635	49150.73
734.976	49267.79
735.317	49136.04
735.658	49063.95
735.999	48999.32
736.339	49093.1
736.68	49040.9
737.021	49002.26
737.361	48848.81
737.702	49135.81
738.042	48878.42
738.383	49011.52
738.723	48955.48
739.063	48776.73
739.404	48801.58
739.744	48777.18
740.084	48689.04
740.424	48665.99
740.764	48602.04
741.104	48708.71
741.444	48554.13
741.784	48461.03
742.124	48603.62
742.464	48591.19
742.804	48394.36
743.143	48367.92
743.483	48444.31
743.823	48296.96
744.162	48325.44
744.502	48441.37
744.841	48224.42
745.181	48412.22
745.52	48301.94
745.86	48312.33
746.199	48122.96
746.538	48130.19
746.877	48348.26
747.216	48200.02
747.556	48116.63
747.895	48125.22
748.234	47994.83
748.573	47825.79
748.911	47973.13
749.25	47787.6
749.589	47738.11
749.928	47879.8
750.267	47936.97
750.605	47819.46
750.944	47660.6
751.283	47557.77
751.621	47735.17
751.96	47376.99
752.298	47436.65
752.636	47496.99
752.975	47456.99
753.313	47301.96
753.651	47492.01
753.989	47238.01
754.327	47195.3
754.666	47000.95
