Data from 1797_FLMS001491_008.txt Node
Date: Thu Apr 19 16:34:04 BST 2018
User: hsy
Spectrometer: FLMS00149
Trigger mode: 0
Integration Time (sec): 1.000000E-2
Scans to average: 10
Electric dark correction enabled: true
Nonlinearity correction enabled: false
Boxcar width: 0
XAxis mode: Wavelengths
Number of Pixels in Spectrum: 2048
>>>>>Begin Spectral Data<<<<<
341.393	-0.92
341.776	-0.92
342.16	-0.92
342.543	-70.52
342.927	-76.17
343.31	-79.79
343.693	-59.67
344.077	-61.26
344.46	-63.29
344.843	-49.28
345.226	-47.24
345.61	-25.32
345.993	-6.79
346.376	-2.5
346.759	11.29
347.142	26.65
347.525	24.84
347.908	59.65
348.291	69.36
348.674	74.33
349.057	129.02
349.44	117.95
349.823	146.65
350.206	173.09
350.588	232.52
350.971	252.63
351.354	244.5
351.737	270.71
352.119	284.27
352.502	300.09
352.884	322.92
353.267	319.07
353.65	355.68
354.032	341.22
354.414	338.51
354.797	375.57
355.179	368.34
355.562	357.94
355.944	378.06
356.326	379.64
356.709	399.3
357.091	377.6
357.473	397.04
357.855	380.31
358.238	383.25
358.62	396.59
359.002	378.96
359.384	380.31
359.766	383.7
360.148	389.81
360.53	383.25
360.912	387.32
361.294	379.86
361.676	393.2
362.057	380.54
362.439	383.48
362.821	379.64
363.203	389.13
363.584	372.41
363.966	372.86
364.348	362.24
364.729	385.06
365.111	376.7
365.493	389.13
365.874	383.03
366.256	375.57
366.637	387.55
367.019	353.42
367.4	372.41
367.781	352.29
368.163	400.65
368.544	360.65
368.925	364.04
369.306	377.83
369.688	367.89
370.069	371.05
370.45	368.79
370.831	377.38
371.212	377.83
371.593	379.64
371.974	370.37
372.355	385.51
372.736	378.96
373.117	403.59
373.498	381.67
373.879	357.72
374.26	374.44
374.641	369.92
375.021	367.21
375.402	397.49
375.783	389.13
376.163	419.41
376.544	424.16
376.925	404.5
377.305	387.32
377.686	406.08
378.066	403.14
378.447	425.51
378.827	414.89
379.208	428.9
379.588	425.29
379.968	415.34
380.349	426.87
380.729	420.31
381.109	426.42
381.489	406.53
381.87	419.64
382.25	437.49
382.63	440.43
383.01	428
383.39	470.03
383.77	449.24
384.15	439.97
384.53	443.59
384.91	458.73
385.29	451.95
385.67	435.68
386.049	468.22
386.429	453.31
386.809	449.92
387.189	481.1
387.568	498.05
387.948	478.39
388.328	472.29
388.707	476.13
389.087	475.45
389.466	495.57
389.846	490.82
390.225	513.19
390.605	485.62
390.984	508.9
391.363	505.06
391.743	516.58
392.122	491.95
392.501	495.11
392.881	505.51
393.26	517.49
393.639	510.93
394.018	534.44
394.397	518.84
394.776	529.24
395.155	524.49
395.534	528.11
395.913	539.63
396.292	556.36
396.671	548.9
397.05	544.38
397.429	542.57
397.808	558.39
398.186	568.33
398.565	571.04
398.944	556.81
399.323	548.67
399.701	575.34
400.08	568.33
400.458	590.03
400.837	546.86
401.215	578.73
401.594	584.6
401.972	607.88
402.351	612.85
402.729	585.28
403.107	607.65
403.486	595.22
403.864	613.98
404.242	609.69
404.62	640.65
404.999	602
405.377	641.1
405.755	637.94
406.133	647.65
406.511	642.68
406.889	649.01
407.267	666.86
407.645	669.57
408.023	665.05
408.401	667.31
408.779	698.05
409.156	690.14
409.534	692.4
409.912	717.26
410.29	719.06
410.667	720.64
411.045	729.68
411.422	704.83
411.8	725.39
412.178	735.56
412.555	761.77
412.933	763.58
413.31	755.45
413.687	772.17
414.065	780.98
414.442	774.65
414.819	788.44
415.197	798.38
415.574	822.34
415.951	798.83
416.328	819.63
416.705	816.24
417.082	806.29
417.46	839.51
417.837	834.54
418.214	871.6
418.591	870.47
418.967	860.3
419.344	846.74
419.721	884.26
420.098	883.35
420.475	887.65
420.852	882.67
421.228	886.52
421.605	933.75
421.982	923.8
422.358	914.09
422.735	912.28
423.111	920.19
423.488	966.97
423.864	944.37
424.241	940.53
424.617	953.63
424.994	986.4
425.37	984.14
425.746	981.2
426.123	1006.29
426.499	999.06
426.875	998.6
427.251	1037.25
427.627	1050.35
428.003	1025.72
428.379	1075.66
428.756	1100.3
429.132	1091.71
429.507	1096.45
429.883	1122.22
430.259	1136.23
430.635	1127.64
431.011	1163.12
431.387	1158.37
431.763	1165.15
432.138	1190.46
432.514	1182.78
432.89	1194.76
433.265	1215.77
433.641	1238.15
434.016	1244.25
434.392	1258.71
434.767	1287.18
435.143	1293.29
435.518	1308.65
435.894	1326.73
436.269	1332.38
436.644	1340.06
437.02	1345.26
437.395	1347.3
437.77	1388.88
438.145	1389.55
438.52	1396.33
438.895	1421.87
439.271	1403.11
439.646	1429.55
440.021	1453.96
440.395	1465.48
440.77	1447.18
441.145	1486.73
441.52	1492.38
441.895	1479.49
442.27	1504.35
442.645	1482.43
443.019	1549.55
443.394	1525.6
443.769	1514.3
444.143	1535.99
444.518	1565.37
444.892	1573.5
445.267	1583.22
445.641	1578.25
446.016	1581.87
446.39	1617.57
446.764	1609.66
447.139	1622.54
447.513	1628.87
447.887	1634.97
448.262	1645.14
448.636	1665.48
449.01	1667.74
449.384	1714.97
449.758	1695.99
450.132	1731.69
450.506	1758.58
450.88	1752.26
451.254	1747.28
451.628	1790.67
452.002	1785.93
452.376	1820.5
452.75	1826.38
453.123	1815.53
453.497	1869.54
453.871	1913.38
454.244	1902.08
454.618	1914.96
454.992	1951.8
455.365	1946.15
455.739	2018.92
456.112	2014.4
456.486	2051.91
456.859	2050.55
457.232	2098.24
457.606	2105.02
457.979	2150.21
458.352	2195.41
458.725	2200.38
459.099	2196.31
459.472	2238.35
459.845	2288.29
460.218	2293.94
460.591	2329.87
460.964	2323.54
461.337	2349.08
461.71	2400.15
462.083	2437.21
462.456	2414.16
462.829	2442.18
463.201	2483.54
463.574	2547.04
463.947	2555.4
464.32	2577.32
464.692	2618.67
465.065	2654.83
465.438	2652.35
465.81	2712.46
466.183	2707.94
466.555	2740.7
466.928	2805.79
467.3	2788.16
467.672	2820.7
468.045	2905.45
468.417	2903.41
468.789	2917.65
469.161	2972.11
469.534	3039
469.906	3027.48
470.278	3096.63
470.65	3162.39
471.022	3158.77
471.394	3177.53
471.766	3238.77
472.138	3291.42
472.51	3326.68
472.882	3377.3
473.253	3410.97
473.625	3487.35
473.997	3503.4
474.369	3556.73
474.74	3602.83
475.112	3681.02
475.484	3709.49
475.855	3795.59
476.227	3848.25
476.598	3915.82
476.97	3994.23
477.341	4094.12
477.713	4090.27
478.084	4144.96
478.455	4223.83
478.827	4312.19
479.198	4393.77
479.569	4455.91
479.94	4545.4
480.311	4581.79
480.682	4702.24
481.053	4764.83
481.424	4866.98
481.795	4902.23
482.166	5033.98
482.537	5071.72
482.908	5143.13
483.279	5285.27
483.65	5346.29
484.021	5426.96
484.391	5523.91
484.762	5572.49
485.133	5694.53
485.503	5777.01
485.874	5885.93
486.244	5958.93
486.615	6125.47
486.985	6141.75
487.356	6263.1
487.726	6345.36
488.097	6529.08
488.467	6542.64
488.837	6720.26
489.207	6767.94
489.578	6865.79
489.948	6932.46
490.318	7080.7
490.688	7128.39
491.058	7249.06
491.428	7353.46
491.798	7401.6
492.168	7619.67
492.538	7675.26
492.908	7734.25
493.278	7935.6
493.648	7921.59
494.017	8050.62
494.387	8158.87
494.757	8271.86
495.126	8397.05
495.496	8402.48
495.866	8468.69
496.235	8632.53
496.605	8728.57
496.974	8755.69
497.344	8851.5
497.713	8913.65
498.082	9025.06
498.452	9073.65
498.821	9164.49
499.19	9190.93
499.559	9287.65
499.928	9306.63
500.298	9443.35
500.667	9560.41
501.036	9544.59
501.405	9649.9
501.774	9711.37
502.143	9834.3
502.512	9921.53
502.88	9951.81
503.249	9961.08
503.618	10048.99
503.987	10081.3
504.356	10209.43
504.724	10305.48
505.093	10318.36
505.462	10397.23
505.83	10412.14
506.199	10562.87
506.567	10706.37
506.936	10663.21
507.304	10799.7
507.672	10822.53
508.041	10860.49
508.409	11031.79
508.777	11152.46
509.145	11219.35
509.514	11206.92
509.882	11303.19
510.25	11361.95
510.618	11409.4
510.986	11453.7
511.354	11542.51
511.722	11695.95
512.09	11728.72
512.458	11646.46
512.826	11829.96
513.193	11877.41
513.561	11915.83
513.929	12021.82
514.297	12054.36
514.664	12289.83
515.032	12310.85
515.4	12422.71
515.767	12490.96
516.135	12523.27
516.502	12477.62
516.869	12741.35
517.237	12796.94
517.604	12859.08
517.972	13036.25
518.339	13079.64
518.706	13037.84
519.073	13188.34
519.44	13295.68
519.808	13456.81
520.175	13474.66
520.542	13671.49
520.909	13671.26
521.276	13826.51
521.643	13929.56
522.009	14091.14
522.376	14053.63
522.743	14230.35
523.11	14355.54
523.477	14576.78
523.843	14585.82
524.21	14841.63
524.577	14911.01
524.943	15061.28
525.31	15146.93
525.676	15339.24
526.043	15403.2
526.409	15506.7
526.776	15668.05
527.142	15750.31
527.508	15851.77
527.874	16016.29
528.241	16115.49
528.607	16287.24
528.973	16354.58
529.339	16338.77
529.705	16590.28
530.071	16735.82
530.437	16846.32
530.803	16988.69
531.169	17039.09
531.535	17134.68
531.901	17171.74
532.267	17305.97
532.632	17447.44
532.998	17564.27
533.364	17675.23
533.73	17738.95
534.095	17954.09
534.461	17976.01
534.826	18155.21
535.192	18191.15
535.557	18272.27
535.923	18373.51
536.288	18588.42
536.653	18465.72
537.019	18558.82
537.384	18651.25
537.749	18799.27
538.114	18895.08
538.479	18785.03
538.845	18971.01
539.21	19009.66
539.575	19087.39
539.94	19186.37
540.305	19323.09
540.67	19337.33
541.034	19458.68
541.399	19443.99
541.764	19532.13
542.129	19592.01
542.494	19746.59
542.858	19774.83
543.223	19805.79
543.587	19966.24
543.952	19950.65
544.316	20035.62
544.681	20062.74
545.045	20256.18
545.41	20195.16
545.774	20338.89
546.138	20401.71
546.503	20407.13
546.867	20466.79
547.231	20641.48
547.595	20636.28
547.959	20782.04
548.324	20820.91
548.688	20821.13
549.052	21037.4
549.416	20909.94
549.779	21057.06
550.143	21026.33
550.507	21188.81
550.871	21356.71
551.235	21241.46
551.599	21584.96
551.962	21532.08
552.326	21662.92
552.689	21771.84
553.053	21749.92
553.417	21752.18
553.78	21881.9
554.143	22017.03
554.507	22045.06
554.87	22177.03
555.234	22511.71
555.597	22352.84
555.96	22493.63
556.323	22569.79
556.686	22621.76
557.05	22826.05
557.413	22906.05
557.776	22910.12
558.139	23095.65
558.502	23184.91
558.865	23212.48
559.228	23518.01
559.59	23434.62
559.953	23503.1
560.316	23815.63
560.679	23757.33
561.041	23854.73
561.404	24021.28
561.767	24194.83
562.129	24259.69
562.492	24458.1
562.854	24503.75
563.217	24631.88
563.579	24694.48
563.941	24801.82
564.304	25121.36
564.666	25317.29
565.028	25201.36
565.39	25498.52
565.753	25651.29
566.115	25866.65
566.477	25934.22
566.839	26030.49
567.201	26305.96
567.563	26140.09
567.925	26537.59
568.287	26569.46
568.648	26773.52
569.01	26887.41
569.372	27157.24
569.734	27115.21
570.095	27374.63
570.457	27534.4
570.819	27700.73
571.18	27637.9
571.542	27911.12
571.903	27936.65
572.265	28219.81
572.626	28245.12
572.987	28423.19
573.349	28477.66
573.71	28824.99
574.071	28830.87
574.432	29111.08
574.794	29300.91
575.155	29303.62
575.516	29282.61
575.877	29579.77
576.238	29553.11
576.599	29708.36
576.96	29968.92
577.32	29939.31
577.681	30143.37
578.042	30429.92
578.403	30440.54
578.763	30520.09
579.124	30644.38
579.485	30912.39
579.845	31087.08
580.206	31108.55
580.566	31324.36
580.927	31371.59
581.287	31681.19
581.648	31597.35
582.008	31877.11
582.368	31904.46
582.728	32081.85
583.089	32358.91
583.449	32389.42
583.809	32575.4
584.169	32842.51
584.529	32941.04
584.889	33520.46
585.249	33427.13
585.609	33514.36
585.969	33879.77
586.329	34004.06
586.688	34468.46
587.048	34696.25
587.408	34932.4
587.768	35370.58
588.127	35521.31
588.487	35786.39
588.846	36359.03
589.206	36276.09
589.565	36622.75
589.925	37327.14
590.284	37456.18
590.643	37902.27
591.003	38348.81
591.362	38841.9
591.721	39131.16
592.08	39509
592.44	40021.31
592.799	40428.75
593.158	40723.66
593.517	41012.01
593.876	41552.79
594.235	41757.76
594.593	42051.31
594.952	42716.38
595.311	43050.15
595.67	43409.92
596.029	43966.06
596.387	44524.69
596.746	44891.91
597.104	45069.54
597.463	45407.38
597.822	45992
598.18	46381.59
598.538	46557.86
598.897	47139.76
599.255	47334.33
599.613	48019.51
599.972	48167.76
600.33	48666.95
600.688	48804.58
601.046	49206.15
601.404	49662.86
601.762	49946.24
602.12	50319.11
602.478	50546.68
602.836	50816.95
603.194	50826.9
603.552	51354.12
603.91	51472.53
604.268	51814.44
604.625	52022.57
604.983	52396.57
605.341	52414.43
605.698	52818.48
606.056	53098.7
606.413	53215.54
606.771	53503.89
607.128	53771.23
607.485	53845.35
607.843	54065.68
608.2	54330.53
608.557	54621.37
608.914	54640.58
609.272	54935.72
609.629	55213.9
609.986	55396.72
610.343	55493.89
610.7	55800.78
611.057	55886.65
611.414	55982.02
611.771	56172.75
612.127	56290.03
612.484	56550.36
612.841	56585.84
613.198	56595.33
613.554	56668.78
613.911	57033.74
614.267	57130.01
614.624	57217.24
614.98	57317.35
615.337	57539.94
615.693	57572.26
616.05	57678.7
616.406	57841.18
616.762	57862.87
617.118	57988.52
617.475	58043.66
617.831	58248.85
618.187	58320.71
618.543	58401.39
618.899	58525.45
619.255	58538.56
619.611	58564.77
619.967	58779.23
620.323	58847.48
620.678	58772.23
621.034	58857.87
621.39	58920.02
621.746	58916.4
622.101	59262.16
622.457	59116.4
622.812	59234.36
623.168	59280.69
623.523	59227.13
623.879	59318.43
624.234	59272.78
624.589	59436.62
624.945	59443.17
625.3	59518.87
625.655	59515.71
626.01	59554.13
626.365	59628.47
626.72	59498.53
627.075	59564.97
627.43	59577.85
627.785	59625.31
628.14	59643.84
628.495	59729.04
628.85	59807.23
629.205	59773.56
629.559	59841.12
629.914	59694.46
630.269	59789.37
630.623	59695.37
630.978	59629.6
631.332	59845.19
631.687	59837.06
632.041	59757.74
632.396	59830.05
632.75	59775.59
633.104	59810.62
633.459	59647.68
633.813	59680.45
634.167	59680.45
634.521	59711.86
634.875	59713.22
635.229	59589.38
635.583	59563.39
635.937	59548.48
636.291	59598.64
636.645	59486.11
636.999	59478.65
637.352	59564.52
637.706	59464.86
638.06	59532.88
638.413	59407.46
638.767	59388.93
639.121	59381.7
639.474	59347.8
639.828	59364.53
640.181	59314.81
640.534	59356.62
640.888	59307.35
641.241	59207.69
641.594	59260.57
641.947	59303.74
642.301	59162.72
642.654	59192.33
643.007	59086.12
643.36	59193.68
643.713	59146.68
644.066	59157.98
644.419	58994.59
644.771	58764.32
645.124	58613.36
645.477	58581.5
645.83	58455.4
646.182	58446.58
646.535	58387.15
646.888	58466.92
647.24	58369.52
647.593	58428.73
647.945	58354.61
648.298	58267.61
648.65	58202.52
649.002	58018.35
649.355	57974.28
649.707	57895.86
650.059	57913.27
650.411	58244.33
650.763	58425.34
651.115	58793.69
651.467	58724.32
651.819	58650.65
652.171	58579.91
652.523	58558.45
652.875	58552.57
653.227	58475.28
653.578	58676.18
653.93	58555.73
654.282	58417.43
654.633	58449.3
654.985	58459.69
655.337	58426.47
655.688	58503.08
656.039	58512.12
656.391	58260.83
656.742	58359.13
657.094	58379.47
657.445	58386.93
657.796	58386.93
658.147	58311.9
658.498	58437.09
658.849	58459.92
659.2	58311.67
659.551	58142.86
659.902	58417.43
660.253	58254.27
660.604	58352.35
660.955	58227.83
661.306	58374.27
661.656	58253.82
662.007	58285.91
662.358	58294.5
662.708	58277.55
663.059	58226.25
663.409	58172.47
663.76	58227.16
664.11	58291.56
664.461	58282.07
664.811	58326.81
665.161	58264.67
665.511	58264.89
665.862	58286.59
666.212	58252.92
666.562	58362.52
666.912	58270.32
667.262	58247.95
667.612	58308.96
667.962	58195.97
668.312	58197.55
668.662	58309.19
669.011	58305.12
669.361	58234.84
669.711	58301.96
670.06	58208.4
670.41	58165.46
670.76	58146.71
671.109	58260.6
671.459	58165.46
671.808	58172.24
672.157	58221.05
672.507	58031.68
672.856	58074.17
673.205	58088.85
673.554	58132.24
673.904	58048.63
674.253	58236.65
674.602	58072.13
674.951	57727.73
675.3	57617.23
675.649	58080.04
675.998	58042.98
676.346	58010.44
676.695	58116.65
677.044	57883.89
677.393	57874.17
677.741	58067.16
678.09	57946.26
678.438	57913.27
678.787	57913.72
679.135	57869.2
679.484	57785.81
679.832	57877.56
680.181	57810.9
680.529	57805.02
680.877	57680.5
681.225	57726.6
681.573	57837.34
681.922	57644.12
682.27	57633.27
682.618	57615.19
682.966	57554.86
683.314	57511.47
683.661	57497.91
684.009	57409.1
684.357	57374.75
684.705	57304.69
685.053	57357.8
685.4	57184.7
685.748	57217.01
686.095	57111.93
686.443	57040.52
686.79	57051.82
687.138	57005.04
687.485	57010.01
687.832	56889.34
688.18	56957.81
688.527	56864.48
688.874	56740.41
689.221	56720.08
689.568	56635.11
689.915	56567.31
690.262	56587.65
690.609	56455.68
690.956	56377.03
691.303	56361.22
691.65	56227.89
691.997	56153.76
692.344	56091.84
692.69	56033.54
693.037	56020.89
693.383	55735.92
693.73	55962.81
694.077	55677.62
694.423	55768.24
694.769	55586.09
695.116	55576.6
695.462	55487.11
695.808	55392.2
696.155	55351.3
696.501	55171.64
696.847	55185.88
697.193	55012.1
697.539	55126.67
697.885	54828.37
698.231	54752.9
698.577	54749.28
698.923	54717.64
699.269	54553.58
699.614	54500.25
699.96	54373.7
700.306	54368.27
700.651	54211.44
700.997	54229.29
701.342	54119.92
701.688	54038.56
702.033	53921.96
702.379	53968.51
702.724	53749.76
703.069	53764.9
703.415	53461.18
703.76	53506.15
704.105	53473.83
704.45	53380.05
704.795	53233.16
705.14	53134.63
705.485	53125.37
705.83	52955.2
706.175	52963.11
706.52	52919.27
706.865	52761.08
707.209	52761.99
707.554	52597.47
707.899	52705.94
708.243	52411.26
708.588	52455.33
708.932	52297.14
709.277	52352.73
709.621	52168.56
709.966	52052.85
710.31	52036.58
710.654	51807.21
710.998	51819.41
711.342	51853.09
711.687	51729.7
712.031	51680.66
712.375	51506.43
712.719	51512.98
713.063	51419.88
713.407	51460.78
713.75	51281.12
714.094	51298.07
714.438	51117.51
714.782	51144.86
715.125	50998.87
715.469	51132.65
715.812	50782.38
716.156	50773.57
716.499	50780.8
716.843	50796.62
717.186	50681.37
717.53	50832.32
717.873	50803.4
718.216	50588.26
718.559	50565.66
718.902	50221.49
719.246	50364.99
719.589	50216.97
719.932	49993.7
720.275	50145.33
720.617	50183.53
720.96	49878
721.303	49961.16
721.646	50051.78
721.989	49796.42
722.331	49964.55
722.674	49799.35
723.016	49719.13
723.359	49478.46
723.701	49624.22
724.044	49567.27
724.386	49288.41
724.729	49532.24
725.071	49405.69
725.413	49331.12
725.755	49257
726.097	49100.62
726.439	49088.19
726.782	49057.68
727.124	49193.49
727.465	49048.64
727.807	48892.71
728.149	48918.47
728.491	48749.89
728.833	48880.73
729.175	48782.21
729.516	48672.83
729.858	48694.07
730.199	48819.27
730.541	48687.07
730.882	48534.08
731.224	48539.5
731.565	48406.85
731.906	48430.58
732.248	48528.2
732.589	48223.12
732.93	48312.16
733.271	48221.09
733.612	48304.7
733.953	48373.63
734.294	48110.81
734.635	48042.79
734.976	48239.4
735.317	47959.4
735.658	48010.7
735.999	47857.71
736.339	47973.19
736.68	48029.68
737.021	47896.81
737.361	47683.7
737.702	48028.55
738.042	47736.81
738.383	47799.41
738.723	47758.28
739.063	47558.06
739.404	47769.13
739.744	47696.36
740.084	47575.01
740.424	47536.82
740.764	47513.99
741.104	47634.21
741.444	47411.62
741.784	47349.7
742.124	47623.82
742.464	47333.43
742.804	47365.07
743.143	47307.22
743.483	47201.68
743.823	47206.65
744.162	47090.73
744.502	47315.58
744.841	46981.58
745.181	47221.57
745.52	47055.02
745.86	47161.68
746.199	47051.4
746.538	47090.95
746.877	47223.6
747.216	47074.91
747.556	47074.68
747.895	47013.89
748.234	46970.28
748.573	46904.52
748.911	46846.21
749.25	46724.86
749.589	46679.44
749.928	46741.81
750.267	46728.7
750.605	46592.89
750.944	46571.64
751.283	46535.49
751.621	46727.8
751.96	46405.55
752.298	46352.67
752.636	46449.16
752.975	46361.03
753.313	46110.64
753.651	46404.42
753.989	46083.52
754.327	46233.8
754.666	45817.09
755.004	45948.61
