Data from 1797_FLMS001491_006.txt Node
Date: Thu Apr 19 16:33:59 BST 2018
User: hsy
Spectrometer: FLMS00149
Trigger mode: 0
Integration Time (sec): 1.000000E-2
Scans to average: 10
Electric dark correction enabled: true
Nonlinearity correction enabled: false
Boxcar width: 0
XAxis mode: Wavelengths
Number of Pixels in Spectrum: 2048
>>>>>Begin Spectral Data<<<<<
341.393	-10
341.776	-10
342.16	-10
342.543	-62.43
342.927	-77.12
343.31	-82.99
343.693	-63.78
344.077	-78.92
344.46	-78.25
344.843	-54.97
345.226	-27.85
345.61	-27.4
345.993	-25.82
346.376	-8.87
346.759	4.92
347.142	34.52
347.525	48.3
347.908	77
348.291	79.94
348.674	98.02
349.057	106.16
349.44	139.6
349.823	138.47
350.206	187.74
350.588	217.79
350.971	247.62
351.354	263.21
351.737	266.6
352.119	293.72
352.502	305.02
352.884	318.35
353.267	324.68
353.65	331.23
354.032	318.35
354.414	342.76
354.797	352.48
355.179	375.3
355.562	377.11
355.944	370.33
356.326	359.03
356.709	366.26
357.091	376.43
357.473	404.23
357.855	396.77
358.238	405.13
358.62	386.15
359.002	399.93
359.384	382.53
359.766	408.07
360.148	407.16
360.53	407.62
360.912	399.26
361.294	380.72
361.676	369.43
362.057	382.76
362.439	403.55
362.821	372.82
363.203	371.46
363.584	364.68
363.966	391.35
364.348	380.72
364.729	392.7
365.111	371.91
365.493	380.27
365.874	369.2
366.256	368.07
366.637	381.18
367.019	380.5
367.4	390.44
367.781	381.4
368.163	356.32
368.544	371.91
368.925	366.71
369.306	408.29
369.688	388.86
370.069	389.31
370.45	376.66
370.831	396.54
371.212	377.11
371.593	384.57
371.974	371.01
372.355	381.4
372.736	386.6
373.117	394.96
373.498	381.4
373.879	391.8
374.26	374.62
374.641	388.41
375.021	406.26
375.402	400.84
375.783	390.22
376.163	413.27
376.544	426.37
376.925	396.32
377.305	418.69
377.686	422.98
378.066	402.42
378.447	433.83
378.827	418.92
379.208	421.18
379.588	427.5
379.968	412.81
380.349	438.58
380.729	430.89
381.109	406.49
381.489	433.83
381.87	427.05
382.25	423.66
382.63	441.97
383.01	456.65
383.39	434.73
383.77	435.64
384.15	443.32
384.53	439.93
384.91	453.94
385.29	479.25
385.67	479.48
386.049	462.53
386.429	474.73
386.809	485.58
387.189	455.98
387.568	457.11
387.948	462.3
388.328	487.84
388.707	487.84
389.087	502.3
389.466	490.78
389.846	491
390.225	495.52
390.605	497.56
390.984	497.56
391.363	514.51
391.743	494.62
392.122	516.09
392.501	516.31
392.881	539.36
393.26	500.5
393.639	515.86
394.018	524
394.397	546.37
394.776	526.03
395.155	535.3
395.534	532.58
395.913	530.1
396.292	555.64
396.671	544.34
397.05	546.82
397.429	566.03
397.808	548.86
398.186	552.25
398.565	556.31
398.944	564.45
399.323	600.83
399.701	584.33
400.08	562.41
400.458	578.91
400.837	589.76
401.215	606.48
401.594	594.05
401.972	610.1
402.351	601.96
402.729	618.46
403.107	609.87
403.486	618.68
403.864	630.21
404.242	649.42
404.62	621.85
404.999	632.24
405.377	624.56
405.755	658.91
406.133	651.68
406.511	647.16
406.889	678.12
407.267	631.57
407.645	687.61
408.023	687.84
408.401	715.63
408.779	690.77
409.156	691.45
409.534	704.78
409.912	710.66
410.29	728.06
410.667	726.7
411.045	750.21
411.422	759.02
411.8	766.03
412.178	751.56
412.555	754.5
412.933	762.41
413.31	766.7
413.687	790.88
414.065	809.87
414.442	793.59
414.819	818.45
415.197	808.28
415.574	814.61
415.951	851.22
416.328	843.54
416.705	849.19
417.082	871.33
417.46	863.65
417.837	866.81
418.214	867.72
418.591	864.55
418.967	875.17
419.344	896.42
419.721	909.98
420.098	897.1
420.475	919.69
420.852	919.69
421.228	945.46
421.605	915.4
421.982	921.73
422.358	935.51
422.735	966.02
423.111	961.27
423.488	956.08
423.864	963.76
424.241	991.33
424.617	987.04
424.994	987.26
425.37	1003.98
425.746	1026.58
426.123	1032.68
426.499	1039.92
426.875	1033.14
427.251	1045.57
427.627	1089.41
428.003	1075.85
428.379	1083.53
428.756	1081.72
429.132	1093.47
429.507	1118.56
429.883	1141.83
430.259	1140.48
430.635	1167.37
431.011	1151.55
431.387	1210.08
431.763	1224.54
432.138	1196.75
432.514	1227.26
432.89	1231.78
433.265	1263.19
433.641	1263.64
434.016	1257.54
434.392	1281.04
434.767	1329.4
435.143	1350.19
435.518	1310.87
435.894	1332.56
436.269	1391.32
436.644	1366.69
437.02	1380.7
437.395	1401.04
437.77	1394.48
438.145	1455.72
438.52	1448.04
438.895	1478.77
439.271	1436.52
439.646	1485.55
440.021	1511.99
440.395	1487.36
440.77	1483.75
441.145	1525.33
441.52	1514.93
441.895	1542.28
442.27	1550.19
442.645	1547.7
443.019	1588.83
443.394	1540.24
443.769	1574.59
444.143	1585.89
444.518	1587.7
444.892	1599.68
445.267	1623.63
445.641	1606.45
446.016	1616.85
446.39	1646
446.764	1647.81
447.139	1659.79
447.513	1660.24
447.887	1694.36
448.262	1684.64
448.636	1691.42
449.01	1708.83
449.384	1746.11
449.758	1776.17
450.132	1778.65
450.506	1757.19
450.88	1770.07
451.254	1801.93
451.628	1802.38
452.002	1820.69
452.376	1857.3
452.75	1875.6
453.123	1860.46
453.497	1907.46
453.871	1916.05
454.244	1967.8
454.618	1976.16
454.992	1998.76
455.365	2027.46
455.739	2054.35
456.112	2069.95
456.486	2073.11
456.859	2118.31
457.232	2175.71
457.606	2164.86
457.979	2191.75
458.352	2224.74
458.725	2258.19
459.099	2241.92
459.472	2281.69
459.845	2306.32
460.218	2353.33
460.591	2364.85
460.964	2378.64
461.337	2416.15
461.71	2508.8
462.083	2515.81
462.456	2501.8
462.829	2499.76
463.201	2563.94
463.574	2590.16
463.947	2584.28
464.32	2651.4
464.692	2674.68
465.065	2679.87
465.438	2701.79
465.81	2732.98
466.183	2776.59
466.555	2855.69
466.928	2860.21
467.3	2855.91
467.672	2855.91
468.045	2940.21
468.417	2946.98
468.789	2989.24
469.161	3016.36
469.534	3043.48
469.906	3120.09
470.278	3130.48
470.65	3187.88
471.022	3238.73
471.394	3304.94
471.766	3297.71
472.138	3358.05
472.51	3437.37
472.882	3447.99
473.253	3488.44
473.625	3521.43
473.997	3637.81
474.369	3629.23
474.74	3679.17
475.112	3706.74
475.484	3781.76
475.855	3836
476.227	3880.97
476.598	3949.9
476.97	4019.27
477.341	4132.94
477.713	4198.03
478.084	4220.17
478.455	4352.15
478.827	4351.24
479.198	4476.89
479.569	4540.39
479.94	4633.04
480.311	4641.18
480.682	4741.06
481.053	4875.52
481.424	4951
481.795	4991.45
482.166	5127.49
482.537	5130.88
482.908	5288.39
483.279	5335.17
483.65	5406.58
484.021	5542.85
484.391	5653.35
484.762	5677.53
485.133	5738.78
485.503	5788.49
485.874	6017.86
486.244	6028.03
486.615	6173.34
486.985	6270.51
487.356	6327.01
487.726	6404.07
488.097	6542.37
488.467	6588.02
488.837	6791.18
489.207	6795.92
489.578	6932.87
489.948	7041.57
490.318	7188.23
490.688	7239.53
491.058	7268.9
491.428	7470.71
491.798	7509.8
492.168	7669.8
492.538	7785.5
492.908	7759.06
493.278	7987.3
493.648	7997.93
494.017	8078.83
494.387	8216.22
494.757	8316.79
495.126	8397.91
495.496	8460.96
495.866	8520.62
496.235	8632.71
496.605	8744.8
496.974	8756.1
497.344	8883.33
497.713	8949.31
498.082	9027.95
498.452	9121.06
498.821	9217.1
499.19	9239.47
499.559	9363.31
499.928	9441.5
500.298	9539.13
500.667	9570.99
501.036	9597.66
501.405	9739.57
501.774	9752.46
502.143	9827.26
502.512	9852.57
502.88	9984.54
503.249	10051.2
503.618	10110.19
503.987	10044.88
504.356	10192.9
504.724	10264.53
505.093	10361.7
505.462	10418.43
505.83	10408.48
506.199	10464.08
506.567	10684.86
506.936	10703.62
507.304	10847.57
507.672	10815.93
508.041	10855.03
508.409	10981.35
508.777	11082.36
509.145	11151.51
509.514	11160.55
509.882	11246.88
510.25	11270.61
510.618	11465.86
510.986	11422.24
511.354	11515.8
511.722	11685.96
512.09	11652.29
512.458	11658.62
512.826	11812.29
513.193	11902.91
513.561	11906.07
513.929	12007.99
514.297	12131.83
514.664	12203.24
515.032	12293.41
515.4	12486.62
515.767	12415.44
516.135	12482.33
516.502	12414.08
516.869	12673.28
517.237	12770.68
517.604	12775.88
517.972	13053.16
518.339	12990.56
518.706	13155.98
519.073	13174.74
519.44	13274.85
519.808	13512.36
520.175	13436.43
520.542	13627.61
520.909	13666.7
521.276	13769.75
521.643	13901.72
522.009	14037.09
522.376	14133.58
522.743	14112.34
523.11	14308.95
523.477	14515.27
523.843	14611.31
524.21	14779.67
524.577	14863.06
524.943	14887.91
525.31	15070.73
525.676	15202.93
526.043	15402.25
526.409	15446.09
526.776	15602.7
527.142	15598.63
527.508	15776.7
527.874	15927.43
528.241	16025.74
528.607	16100.99
528.973	16289.46
529.339	16322
529.705	16523.12
530.071	16695.78
530.437	16777.36
530.803	16865.04
531.169	16957.46
531.535	17049.21
531.901	17060.74
532.267	17125.59
532.632	17419.37
532.998	17472.48
533.364	17540.73
533.73	17631.12
534.095	17867.04
534.461	17919.7
534.826	17953.14
535.192	18014.61
535.557	18190.43
535.923	18141.16
536.288	18411.21
536.653	18395.62
537.019	18420.25
537.384	18478.33
537.749	18580.7
538.114	18641.26
538.479	18706.57
538.845	18845.78
539.21	18848.71
539.575	18907.24
539.94	19073.79
540.305	19217.07
540.67	19102.72
541.034	19310.17
541.399	19368.7
541.764	19487.57
542.129	19425.87
542.494	19615.92
542.858	19685.53
543.223	19695.02
543.587	19760.78
543.952	19781.12
544.316	19901.57
544.681	19908.57
545.045	20143.37
545.41	20189.92
545.774	20072.86
546.138	20296.81
546.503	20321.22
546.867	20312.86
547.231	20405.73
547.595	20569.8
547.959	20553.3
548.324	20744.26
548.688	20709.68
549.052	20765.05
549.416	20821.32
549.779	20926.62
550.143	20924.14
550.507	21112.61
550.871	21097.69
551.235	21176.11
551.599	21496.55
551.962	21365.94
552.326	21413.17
552.689	21529.32
553.053	21489.32
553.417	21670.33
553.78	21871.23
554.143	21911.91
554.507	21910.55
554.87	21993.49
555.234	22199.13
555.597	22063.09
555.96	22304.44
556.323	22294.5
556.686	22487.26
557.05	22591.21
557.413	22849.74
557.776	22729.74
558.139	22911.88
558.502	22960.92
558.865	23073.01
559.228	23239.78
559.59	23345.09
559.953	23317.07
560.316	23659.66
560.679	23563.39
561.041	23821.24
561.404	23851.52
561.767	24184.84
562.129	24099.65
562.492	24372.86
562.854	24359.75
563.217	24390.94
563.579	24592.07
563.941	24751.38
564.304	24875.67
564.666	25160.19
565.028	25302.56
565.39	25291.26
565.753	25525.37
566.115	25618.03
566.477	25778.25
566.839	25906.38
567.201	26106.15
567.563	26133.49
567.925	26366.71
568.287	26407.84
568.648	26608.96
569.01	26775.96
569.372	27004.66
569.734	27111.55
570.095	27254.37
570.457	27409.62
570.819	27535.04
571.18	27653.68
571.542	27897.97
571.903	28007.12
572.265	28139.99
572.626	28366.2
572.987	28262.48
573.349	28571.62
573.71	28764.38
574.071	28931.61
574.432	28995.11
574.794	29224.94
575.155	29343.35
575.516	29300.87
575.877	29585.83
576.238	29519.39
576.599	29794.41
576.96	29913.06
577.32	30215.87
577.681	30078.7
578.042	30474.4
578.403	30427.62
578.763	30565.02
579.124	30599.14
579.485	30928.17
579.845	31048.39
580.206	31079.35
580.566	31161.16
580.927	31343.3
581.287	31618.55
581.648	31725.21
582.008	31917.97
582.368	32015.37
582.728	32250.85
583.089	32320.9
583.449	32534.46
583.809	32853.54
584.169	33001.79
584.529	32883.6
584.889	33481.55
585.249	33567.87
585.609	33480.19
585.969	34043.34
586.329	34066.17
586.688	34374.63
587.048	34699.6
587.408	34906.37
587.768	35139.58
588.127	35413.48
588.487	35715.39
588.846	36358.54
589.206	36264.75
589.565	36814.34
589.925	37358.74
590.284	37495.45
590.643	37805.5
591.003	38242.33
591.362	38781.07
591.721	39032.82
592.08	39374.05
592.44	39986.91
592.799	40184.88
593.158	40616.05
593.517	40783.96
593.876	41641.79
594.235	41727.43
594.593	42016.01
594.952	42569.67
595.311	42919.04
595.67	43431.34
596.029	43911.33
596.387	44130.76
596.746	44696.17
597.104	44830.18
597.463	45249.6
597.822	45788.57
598.18	45993.76
598.538	46481.89
598.897	46977.24
599.255	47109.44
599.613	47860.61
599.972	47871.68
600.33	48254.49
600.688	48626.01
601.046	48964.53
601.404	49478.19
601.762	49766.54
602.12	50157.72
602.478	50406.3
602.836	50706.41
603.194	50637.93
603.552	50973.29
603.91	51265.26
604.268	51606.27
604.625	51860.5
604.983	52246.25
605.341	52231.56
605.698	52559.47
606.056	52992.22
606.413	52962.84
606.771	53381.14
607.128	53502.94
607.485	53648.93
607.843	53875.14
608.2	54089.14
608.557	54378.4
608.914	54400.77
609.272	54643.25
609.629	54955.56
609.986	55172.73
610.343	55187.87
610.7	55570.69
611.057	55604.58
611.414	55722.09
611.771	55965.25
612.127	56092.25
612.484	56179.26
612.841	56413.15
613.198	56427.61
613.554	56597.1
613.911	56841.61
614.267	56921.38
614.624	56932.23
614.98	57211.09
615.337	57404.99
615.693	57467.81
616.05	57574.93
616.406	57713.23
616.762	57763.4
617.118	57793.23
617.475	57881.36
617.831	58024.18
618.187	58030.96
618.543	58215.81
618.899	58404.96
619.255	58400.22
619.611	58471.63
619.967	58630.27
620.323	58767.44
620.678	58619.87
621.034	58689.02
621.39	58720.43
621.746	58811.96
622.101	59095.11
622.457	58896.25
622.812	59048.56
623.168	59059.18
623.523	59106.64
623.879	59256.24
624.234	59183.92
624.589	59286.07
624.945	59304.15
625.3	59374.2
625.655	59412.17
626.01	59384.6
626.365	59534.2
626.72	59399.74
627.075	59490.36
627.43	59445.16
627.785	59496.46
628.14	59536.68
628.495	59608.77
628.85	59569.45
629.205	59620.07
629.559	59677.47
629.914	59602.22
630.269	59620.52
630.623	59506.85
630.978	59453.97
631.332	59696.68
631.687	59663.69
632.041	59593.86
632.396	59613.29
632.75	59599.73
633.104	59613.74
633.459	59479.51
633.813	59528.32
634.167	59509.34
634.521	59503.24
634.875	59540.98
635.229	59458.72
635.583	59391.83
635.937	59378.04
636.291	59389.12
636.645	59407.87
636.999	59289.46
637.352	59347.08
637.706	59255.56
638.06	59323.58
638.413	59228.89
638.767	59192.06
639.121	59263.24
639.474	59169.46
639.828	59124.49
640.181	59190.48
640.534	59228.89
640.888	59030.71
641.241	58994.1
641.594	59009.01
641.947	59097.15
642.301	58969.47
642.654	59042.01
643.007	58949.35
643.36	59033.65
643.713	59003.36
644.066	59032.97
644.419	58824.84
644.771	58577.84
645.124	58373.1
645.477	58357.28
645.83	58276.6
646.182	58246.32
646.535	58173.56
646.888	58315.47
647.24	58220.11
647.593	58365.19
647.945	58199.09
648.298	58110.28
648.65	57990.51
649.002	57844.07
649.355	57835.48
649.707	57762.04
650.059	57785.77
650.411	58132.2
650.763	58233.89
651.115	58553.88
651.467	58479.99
651.819	58473.89
652.171	58368.58
652.523	58389.14
652.875	58424.17
653.227	58340.78
653.578	58430.27
653.93	58400.89
654.282	58279.77
654.633	58248.81
654.985	58311.18
655.337	58275.93
655.688	58264.4
656.039	58346.88
656.391	58087.91
656.742	58142.37
657.094	58193.67
657.445	58185.31
657.796	58149.37
658.147	58084.97
658.498	58158.41
658.849	58196.61
659.2	58129.71
659.551	58006.55
659.902	58185.98
660.253	58051.3
660.604	58135.82
660.955	58047.91
661.306	58120.45
661.656	58029.83
662.007	58062.15
662.358	58079.55
662.708	58080.45
663.059	58028.47
663.409	57904.18
663.76	58135.82
664.11	58130.84
664.461	58076.16
664.811	58091.07
665.161	58021.69
665.511	58023.95
665.862	58087.23
666.212	58089.94
666.562	58142.37
666.912	58032.32
667.262	58023.28
667.612	58035.25
667.962	58065.54
668.312	57988.93
668.662	58157.28
669.011	58072.54
669.361	58008.14
669.711	58039.32
670.06	58009.49
670.41	57934.69
670.76	57906.44
671.109	58065.76
671.459	58005.88
671.808	57937.18
672.157	58048.81
672.507	57891.75
672.856	57855.37
673.205	57928.59
673.554	57965.65
673.904	57939.66
674.253	58148.92
674.602	57966.1
674.951	57621.71
675.3	57443.86
675.649	57873.45
675.998	57850.63
676.346	57940.57
676.695	57955.26
677.044	57693.57
677.393	57838.87
677.741	57920
678.09	57846.33
678.438	57702.38
678.787	57783.51
679.135	57808.82
679.484	57629.16
679.832	57650.63
680.181	57614.02
680.529	57643.17
680.877	57574.02
681.225	57521.37
681.573	57708.93
681.922	57533.12
682.27	57425.33
682.618	57417.42
682.966	57364.76
683.314	57328.61
683.661	57385.33
684.009	57265.33
684.357	57097.2
684.705	57172.9
685.053	57184.43
685.4	56982.4
685.748	57004.55
686.095	56938.56
686.443	56852.23
686.79	56847.26
687.138	56922.29
687.485	56843.19
687.832	56670.09
688.18	56697.21
688.527	56636.42
688.874	56571.56
689.221	56564.56
689.568	56456.99
689.915	56334.06
690.262	56388.52
690.609	56335.41
690.956	56178.35
691.303	56230.78
691.65	56094.29
691.997	56080.28
692.344	55885.93
692.69	55874.18
693.037	55814.52
693.383	55516.45
693.73	55707.41
694.077	55486.39
694.423	55556.45
694.769	55452.04
695.116	55393.29
695.462	55328.66
695.808	55206.18
696.155	55253.86
696.501	54975.67
696.847	55064.48
697.193	54862.68
697.539	54856.58
697.885	54669.92
698.231	54690.48
698.577	54659.98
698.923	54596.47
699.269	54260.44
699.614	54299.98
699.96	54172.98
700.306	54206.88
700.651	54114.68
700.997	53938.19
701.342	53902.71
701.688	53818.64
702.033	53712.66
702.379	53687.57
702.724	53504.53
703.069	53534.81
703.415	53253.68
703.76	53331.65
704.105	53361.25
704.45	53181.6
704.795	53012.11
705.14	52897.76
705.485	53041.26
705.83	52752.91
706.175	52852.79
706.52	52722.85
706.865	52556.98
707.209	52549.75
707.554	52526.02
707.899	52461.61
708.243	52204.22
708.588	52230.66
708.932	51993.15
709.277	52157.67
709.621	51920.39
709.966	51751.35
710.31	51876.09
710.654	51613.28
710.998	51648.75
711.342	51593.84
711.687	51400.63
712.031	51455.54
712.375	51276.79
712.719	51208.77
713.063	51220.52
713.407	51399.95
713.75	51096.23
714.094	50991.82
714.438	50961.09
714.782	50919.51
715.125	50775.78
715.469	50903.92
715.812	50572.85
716.156	50581.89
716.499	50505.51
716.843	50655.33
717.186	50359.52
717.53	50603.36
717.873	50525.62
718.216	50336.02
718.559	50249.02
718.902	50043.15
719.246	50133.99
719.589	49994.34
719.932	49837.5
720.275	49795.92
720.617	49854.9
720.96	49700.56
721.303	49815.13
721.646	49752.31
721.989	49505.08
722.331	49664.17
722.674	49465.31
723.016	49445.65
723.359	49440.9
723.701	49496.04
724.044	49303.28
724.386	48993.68
724.729	49221.7
725.071	49176.28
725.413	49097.41
725.755	49107.35
726.097	48892.22
726.439	48727.48
726.782	48760.24
727.124	48921.37
727.465	48778.32
727.807	48642.73
728.149	48694.93
728.491	48536.52
728.833	48588.72
729.175	48597.08
729.516	48516.41
729.858	48340.82
730.199	48548.72
730.541	48473.92
730.882	48209.3
731.224	48340.37
731.565	48075.97
731.906	48153.48
732.248	48135.63
732.589	47988.74
732.93	47874.16
733.271	47968.4
733.612	47936.08
733.953	48060.37
734.294	47959.81
734.635	47772.47
734.976	47936.99
735.317	47816.54
735.658	47738.35
735.999	47678.69
736.339	47660.39
736.68	47772.92
737.021	47574.96
737.361	47452.03
737.702	47623.55
738.042	47445.48
738.383	47432.37
738.723	47538.58
739.063	47386.04
739.404	47696.54
739.744	47382.2
740.084	47345.14
740.424	47440.5
740.764	47230.79
741.104	47400.51
741.444	47235.31
741.784	47123.68
742.124	47234.86
742.464	47143.11
742.804	47157.12
743.143	47018.14
743.483	47160.06
743.823	46930.01
744.162	46897.02
744.502	46860.86
744.841	46846.62
745.181	47015.43
745.52	46780.41
745.86	46887.52
746.199	46764.36
746.538	46863.12
746.877	46830.12
747.216	46803.23
747.556	46711.71
747.895	46768.21
748.234	46545.61
748.573	46483.02
748.911	46441.21
749.25	46415.9
749.589	46317.6
749.928	46458.83
750.267	46421.32
750.605	46428.33
750.944	46285.96
751.283	46197.82
751.621	46216.13
751.96	46071.5
752.298	46000.77
752.636	45961.67
752.975	45811.62
753.313	45825.86
753.651	46022.01
753.989	45696.82
754.327	45894.33
754.666	45459.99
755.004	45542.7
