Data from 1797_FLMS001491_007.txt Node
Date: Thu Apr 19 16:34:02 BST 2018
User: hsy
Spectrometer: FLMS00149
Trigger mode: 0
Integration Time (sec): 1.000000E-2
Scans to average: 10
Electric dark correction enabled: true
Nonlinearity correction enabled: false
Boxcar width: 0
XAxis mode: Wavelengths
Number of Pixels in Spectrum: 2048
>>>>>Begin Spectral Data<<<<<
341.393	-27.82
341.776	-27.82
342.16	-27.82
342.543	-65.34
342.927	-65.79
343.31	-70.53
343.693	-52.23
344.077	-76.64
344.46	-86.81
344.843	-73.02
345.226	-19.01
345.61	-18.33
345.993	-2.51
346.376	4.72
346.759	-9.29
347.142	12.85
347.525	52.85
347.908	59.86
348.291	89.69
348.674	79.52
349.057	108.9
349.44	124.94
349.823	146.18
350.206	181.44
350.588	238.16
350.971	249.46
351.354	268.21
351.737	266.86
352.119	299.62
352.502	317.25
352.884	310.92
353.267	321.77
353.65	317.93
354.032	344.14
354.414	332.62
354.797	350.92
355.179	350.25
355.562	365.16
355.944	367.65
356.326	376.91
356.709	367.87
357.091	374.65
357.473	394.76
357.855	368.78
358.238	381.2
358.62	379.85
359.002	386.63
359.384	402.9
359.766	378.27
360.148	380.3
360.53	399.96
360.912	383.01
361.294	383.46
361.676	369.23
362.057	374.88
362.439	384.37
362.821	395.89
363.203	372.84
363.584	390.7
363.966	387.76
364.348	371.94
364.729	391.83
365.111	347.53
365.493	380.75
365.874	384.82
366.256	370.13
366.637	369.91
367.019	352.96
367.4	370.36
367.781	359.28
368.163	366.29
368.544	368.78
368.925	378.04
369.306	398.38
369.688	370.58
370.069	371.94
370.45	397.25
370.831	366.06
371.212	367.42
371.593	353.63
371.974	409.45
372.355	391.37
372.736	406.29
373.117	375.33
373.498	381.43
373.879	387.08
374.26	378.49
374.641	376.91
375.021	379.17
375.402	402
375.783	403.35
376.163	412.39
376.544	400.19
376.925	399.74
377.305	420.53
377.686	397.7
378.066	398.15
378.447	433.63
378.827	415.55
379.208	426.63
379.588	403.58
379.968	415.55
380.349	422.11
380.729	426.18
381.109	415.1
381.489	430.02
381.87	432.95
382.25	439.06
382.63	446.97
383.01	454.2
383.39	441.77
383.77	451.94
384.15	439.51
384.53	461.65
384.91	459.62
385.29	448.32
385.67	457.36
386.049	477.02
386.429	453.52
386.809	503.91
387.189	455.33
387.568	460.98
387.948	471.15
388.328	505.72
388.707	483.12
389.087	499.39
389.466	489.45
389.846	498.72
390.225	484.03
390.605	505.72
390.984	492.84
391.363	508.43
391.743	520.64
392.122	512.5
392.501	527.19
392.881	511.14
393.26	503.01
393.639	536.68
394.018	512.73
394.397	542.56
394.776	540.3
395.155	546.85
395.534	520.64
395.913	555.66
396.292	566.06
396.671	525.83
397.05	542.78
397.429	555.66
397.808	564.02
398.186	557.02
398.565	561.76
398.944	579.39
399.323	551.37
399.701	590.69
400.08	587.53
400.458	580.52
400.837	577.36
401.215	606.06
401.594	606.06
401.972	584.36
402.351	636.57
402.729	602.22
403.107	625.94
403.486	617.58
403.864	623.46
404.242	633.63
404.62	617.58
404.999	646.51
405.377	637.92
405.755	678.82
406.133	683.57
406.511	639.28
406.889	646.06
407.267	681.08
407.645	681.31
408.023	685.6
408.401	671.14
408.779	697.13
409.156	708.88
409.534	709.56
409.912	733.29
410.29	732.38
410.667	715.21
411.045	732.83
411.422	738.48
411.8	748.43
412.178	760.18
412.555	770.57
412.933	772.38
413.31	780.97
413.687	781.65
414.065	823.68
414.442	794.08
414.819	799.95
415.197	828.2
415.574	833.17
415.951	824.36
416.328	847.18
416.705	853.28
417.082	869.1
417.46	865.71
417.837	859.61
418.214	887.18
418.591	884.92
418.967	863.9
419.344	882.66
419.721	888.76
420.098	901.87
420.475	895.54
420.852	936.44
421.228	902.09
421.605	951.81
421.982	929.89
422.358	947.97
422.735	973.05
423.111	942.55
423.488	971.25
423.864	962.88
424.241	991.58
424.617	975.31
424.994	996.78
425.37	1013.28
425.746	1020.96
426.123	989.78
426.499	1028.19
426.875	1050.11
427.251	1070
427.627	1083.33
428.003	1064.12
428.379	1083.79
428.756	1109.77
429.132	1124.69
429.507	1104.35
429.883	1125.59
430.259	1145.93
430.635	1174.4
431.011	1173.27
431.387	1182.77
431.763	1230.9
432.138	1230.45
432.514	1262.54
432.89	1258.7
433.265	1252.37
433.641	1291.69
434.016	1284.01
434.392	1303.67
434.767	1341.86
435.143	1310.45
435.518	1334.85
435.894	1342.76
436.269	1363.55
436.644	1391.8
437.02	1400.39
437.395	1416.43
437.77	1424.79
438.145	1431.8
438.52	1441.74
438.895	1482.42
439.271	1440.16
439.646	1484
440.021	1470.67
440.395	1486.26
440.77	1465.47
441.145	1514.73
441.52	1552.25
441.895	1544.56
442.27	1577.78
442.645	1554.06
443.019	1569.2
443.394	1618.69
443.769	1607.16
444.143	1552.02
444.518	1611.91
444.892	1622.53
445.267	1595.64
445.641	1604.45
446.016	1625.69
446.39	1657.56
446.764	1644.67
447.139	1655.3
447.513	1683.32
447.887	1681.51
448.262	1666.82
448.636	1694.39
449.01	1732.81
449.384	1761.96
449.758	1746.37
450.132	1782.98
450.506	1778.23
450.88	1794.27
451.254	1775.52
451.628	1850.09
452.002	1839.7
452.376	1876.98
452.75	1890.54
453.123	1883.31
453.497	1909.3
453.871	1922.41
454.244	1991.78
454.618	1995.85
454.992	1988.62
455.365	2036.75
455.739	2054.16
456.112	2093.25
456.486	2107.26
456.859	2126.24
457.232	2193.13
457.606	2177.77
457.979	2231.78
458.352	2236.75
458.725	2247.6
459.099	2300.93
459.472	2316.52
459.845	2362.4
460.218	2373.47
460.591	2389.74
460.964	2403.75
461.337	2475.61
461.71	2457.99
462.083	2520.81
462.456	2556.74
462.829	2553.8
463.201	2572.33
463.574	2593.12
463.947	2646.68
464.32	2680.35
464.692	2711.76
465.065	2736.4
465.438	2752.89
465.81	2790.86
466.183	2805.1
466.555	2866.56
466.928	2873.79
467.3	2892.55
467.672	2921.7
468.045	3015.94
468.417	2989.05
468.789	3016.39
469.161	3075.37
469.534	3088.25
469.906	3195.82
470.278	3187.68
470.65	3241.69
471.022	3274.91
471.394	3346.32
471.766	3378.64
472.138	3413.89
472.51	3477.39
472.882	3518.3
473.253	3502.48
473.625	3592.42
473.997	3676.26
474.369	3716.94
474.74	3738.4
475.112	3794.9
475.484	3893.88
475.855	3947.44
476.227	3974.33
476.598	4084.61
476.97	4106.76
477.341	4183.14
477.713	4215.68
478.084	4277.37
478.455	4372.51
478.827	4447.99
479.198	4538.16
479.569	4646.18
479.94	4657.93
480.311	4723.24
480.682	4849.11
481.053	4985.15
481.424	5042.55
481.795	5108.31
482.166	5174.75
482.537	5261.08
482.908	5390.11
483.279	5434.18
483.65	5567.51
484.021	5643.89
484.391	5746.26
484.762	5849.76
485.133	5844.56
485.503	5918.46
485.874	6122.75
486.244	6182.18
486.615	6341.5
486.985	6418.79
487.356	6557.09
487.726	6626.46
488.097	6722.73
488.467	6767.93
488.837	6929.51
489.207	7034.36
489.578	7093.34
489.948	7203.62
490.318	7338.76
490.688	7372.66
491.058	7516.84
491.428	7654.91
491.798	7677.96
492.168	7830.5
492.538	7956.6
492.908	8063.71
493.278	8191.39
493.648	8187.78
494.017	8327.89
494.387	8496.02
494.757	8492.86
495.126	8599.52
495.496	8652.63
495.866	8776.92
496.235	8871.83
496.605	9001.99
496.974	9028.21
497.344	9135.32
497.713	9265.72
498.082	9322.89
498.452	9423.23
498.821	9515.2
499.19	9530.12
499.559	9622.09
499.928	9699.83
500.298	9797.23
500.667	9818.7
501.036	9938.02
501.405	10006.26
501.774	10032.02
502.143	10172.13
502.512	10199.48
502.88	10334.16
503.249	10400.6
503.618	10483.54
503.987	10491.67
504.356	10571.22
504.724	10575.96
505.093	10699.35
505.462	10737.32
505.83	10769.18
506.199	10880.59
506.567	11094.82
506.936	11069.06
507.304	11242.39
507.672	11292.33
508.041	11308.83
508.409	11375.04
508.777	11493.45
509.145	11591.98
509.514	11615.71
509.882	11679.21
510.25	11744.75
510.618	11812.77
510.986	11857.51
511.354	12058.64
511.722	12109.26
512.09	12278.29
512.458	12084.4
512.826	12380.89
513.193	12426.54
513.561	12422.92
513.929	12571.17
514.297	12671.73
514.664	12678.96
515.032	12766.87
515.4	12892.51
515.767	12869.69
516.135	13016.35
516.502	12949.46
516.869	13233.97
517.237	13256.35
517.604	13286.63
517.972	13485.27
518.339	13539.05
518.706	13625.83
519.073	13615.66
519.44	13795.54
519.808	13894.75
520.175	13929.1
520.542	14078.7
520.909	14223.33
521.276	14324.11
521.643	14439.82
522.009	14563.66
522.376	14712.13
522.743	14722.97
523.11	15063.98
523.477	15094.04
523.843	15166.58
524.21	15341.49
524.577	15483.41
524.943	15541.26
525.31	15661.93
525.676	15879.33
526.043	15925.88
526.409	16078.42
526.776	16198.19
527.142	16384.85
527.508	16554.79
527.874	16578.07
528.241	16672.75
528.607	16845.86
528.973	17045.85
529.339	16929.7
529.705	17185.06
530.071	17323.81
530.437	17490.81
530.803	17535.56
531.169	17680.41
531.535	17776.68
531.901	17743.46
532.267	17866.62
532.632	18139.38
532.998	18146.84
533.364	18303.22
533.73	18361.07
534.095	18517.45
534.461	18645.58
534.826	18736.43
535.192	18836.31
535.557	19067.04
535.923	19004.44
536.288	19112.24
536.653	19226.13
537.019	19125.34
537.384	19260.26
537.749	19444.21
538.114	19422.74
538.479	19480.82
538.845	19661.6
539.21	19632
539.575	19690.98
539.94	19833.12
540.305	19983.18
540.67	19920.13
541.034	20087.35
541.399	20144.53
541.764	20207.58
542.129	20205.99
542.494	20382.94
542.858	20436.27
543.223	20429.94
543.587	20582.26
543.952	20593.78
544.316	20774.79
544.681	20747
545.045	20897.73
545.41	20995.8
545.774	20885.07
546.138	21008.68
546.503	21043.03
546.867	21052.07
547.231	21311.5
547.595	21353.08
547.959	21384.04
548.324	21556.02
548.688	21532.06
549.052	21599.63
549.416	21466.07
549.779	21684.83
550.143	21737.93
550.507	21884.37
550.871	21948.77
551.235	21932.28
551.599	22137.24
551.962	22099.96
552.326	22226.73
552.689	22386.95
553.053	22163.68
553.417	22436.44
553.78	22621.52
554.143	22617.91
554.507	22731.35
554.87	22912.59
555.234	22942.19
555.597	22830.56
555.96	23021.97
556.323	23254.05
556.686	23316.42
557.05	23389.19
557.413	23626.92
557.776	23489.07
558.139	23797.76
558.502	23717.09
558.865	23806.8
559.228	24163.4
559.59	24079.56
559.953	24131.99
560.316	24417.63
560.679	24438.88
561.041	24580.12
561.404	24778.53
561.767	25003.61
562.129	24929.49
562.492	25329.7
562.854	25195.69
563.217	25286.31
563.579	25341.9
563.941	25577.15
564.304	25771.05
564.666	25917.03
565.028	26054.2
565.39	26179.62
565.753	26316.57
566.115	26405.61
566.477	26464.13
566.839	26749.1
567.201	26961.52
567.563	26952.48
567.925	27101.41
568.287	27306.6
568.648	27434.73
569.01	27571
569.372	27929.41
569.734	27776.19
570.095	28015.51
570.457	28164.43
570.819	28362.62
571.18	28305.89
571.542	28751.76
571.903	28586.79
572.265	28969.38
572.626	29049.38
572.987	29141.13
573.349	29409.37
573.71	29521.91
574.071	29620.21
574.432	29768.91
574.794	29994.21
575.155	30082.8
575.516	29992.63
575.877	30269.68
576.238	30336.12
576.599	30496.35
576.96	30636.45
577.32	30775.66
577.681	30843.68
578.042	31162.77
578.403	31249.32
578.763	31175.42
579.124	31430.33
579.485	31620.61
579.845	31882.52
580.206	31887.49
580.566	31953.71
580.927	32034.16
581.287	32317.99
581.648	32369.06
582.008	32706.46
582.368	32699.9
582.728	32917.98
583.089	33065.09
583.449	33196.39
583.809	33346.21
584.169	33691.52
584.529	33788.24
584.889	34223.48
585.249	34051.28
585.609	34208.56
585.969	34873.86
586.329	34893.52
586.688	35291.7
587.048	35496.44
587.408	35777.34
587.768	36046.71
588.127	36282.63
588.487	36489.86
588.846	37106.57
589.206	37201.48
589.565	37462.49
589.925	37974.34
590.284	38155.8
590.643	38611.61
591.003	38917.59
591.362	39581.98
591.721	39693.62
592.08	40175.64
592.44	40704.66
592.799	40925.45
593.158	41427.13
593.517	41543.74
593.876	42155.7
594.235	42418.52
594.593	42904.38
594.952	43274.99
595.311	43545.27
595.67	44048.76
596.029	44564
596.387	44998.34
596.746	45517.87
597.104	45675.15
597.463	45969.84
597.822	46523.49
598.18	46843.71
598.538	47094.1
598.897	47752.84
599.255	47839.84
599.613	48669.43
599.972	48592.37
600.33	48949.19
600.688	49213.37
601.046	49742.39
601.404	50113.68
601.762	50302.83
602.12	50698.53
602.478	50919.99
602.836	51205.63
603.194	51198.17
603.552	51650.59
603.91	51927.65
604.268	52263
604.625	52328.31
604.983	52721.98
605.341	52758.13
605.698	53121.74
606.056	53465.01
606.413	53496.64
606.771	53792.91
607.128	53950.64
607.485	54056.63
607.843	54325.1
608.2	54567.8
608.557	54856.16
608.914	54880.56
609.272	55152.65
609.629	55400.77
609.986	55542.69
610.343	55696.59
610.7	55985.17
611.057	55963.02
611.414	56045.28
611.771	56397.81
612.127	56548.54
612.484	56620.18
612.841	56812.26
613.198	56814.52
613.554	56972.26
613.911	57192.59
614.267	57385.13
614.624	57360.27
614.98	57526.37
615.337	57747.15
615.693	57784.89
616.05	57932.69
616.406	58092.46
616.762	58091.1
617.118	58198.22
617.475	58188.72
617.831	58402.96
618.187	58479.56
618.543	58506.46
618.899	58688.15
619.255	58705.09
619.611	58749.61
619.967	58925.65
620.323	59033
620.678	59021.7
621.034	59028.25
621.39	59108.47
621.746	59186.44
622.101	59385.75
622.457	59209.94
622.812	59418.3
623.168	59449.71
623.523	59444.06
623.879	59557.28
624.234	59492.64
624.589	59587.33
624.945	59699.42
625.3	59712.75
625.655	59722.7
626.01	59756.82
626.365	59823.94
626.72	59734.9
627.075	59744.39
627.43	59799.08
627.785	59834.56
628.14	59909.58
628.495	59908.9
628.85	59910.71
629.205	59854.22
629.559	60009.02
629.914	59893.54
630.269	59912.75
630.623	59810.83
630.978	59798.4
631.332	59986.19
631.687	59944.38
632.041	59954.55
632.396	59931.96
632.75	59858.51
633.104	59865.06
633.459	59847.21
633.813	59837.49
634.167	59854.67
634.521	59916.59
634.875	59892.41
635.229	59811.28
635.583	59656.93
635.937	59770.83
636.291	59669.82
636.645	59753.2
636.999	59639.31
637.352	59747.78
637.706	59597.95
638.06	59683.15
638.413	59607.22
638.767	59509.14
639.121	59608.12
639.474	59504.17
639.828	59481.57
640.181	59433.89
640.534	59538.29
640.888	59368.81
641.241	59231.63
641.594	59362.7
641.947	59399.99
642.301	59246.1
642.654	59281.8
643.007	59262.14
643.36	59284.97
643.713	59255.36
644.066	59329.03
644.419	59173.11
644.771	58891.53
645.124	58713.68
645.477	58692.44
645.83	58615.83
646.182	58577.87
646.535	58471.88
646.888	58571.99
647.24	58565.21
647.593	58596.85
647.945	58524.76
648.298	58420.81
648.65	58305.11
649.002	58257.2
649.355	58181.27
649.707	58074.83
650.059	58088.84
650.411	58476.17
650.763	58578.32
651.115	58921.81
651.467	58754.36
651.819	58791.65
652.171	58781.48
652.523	58722.04
652.875	58638.2
653.227	58663.51
653.578	58765.43
653.93	58659.9
654.282	58570.18
654.633	58553.01
654.985	58550.3
655.337	58530.18
655.688	58512.56
656.039	58628.26
656.391	58406.35
656.742	58452.22
657.094	58501.03
657.445	58492.22
657.796	58481.82
658.147	58418.55
658.498	58468.49
658.849	58481.6
659.2	58359.79
659.551	58336.52
659.902	58550.07
660.253	58394.14
660.604	58465.1
660.955	58292.22
661.306	58509.62
661.656	58425.55
662.007	58426.23
662.358	58392.11
662.708	58403.18
663.059	58349.85
663.409	58273.02
663.76	58369.28
664.11	58392.56
664.461	58371.54
664.811	58451.99
665.161	58376.74
665.511	58434.37
665.862	58339
666.212	58495.83
666.562	58475.04
666.912	58354.14
667.262	58287.7
667.612	58385.56
667.962	58447.7
668.312	58317.76
668.662	58475.95
669.011	58320.02
669.361	58326.8
669.711	58309.17
670.06	58330.19
670.41	58328.16
670.76	58214.94
671.109	58308.72
671.459	58318.89
671.808	58247.25
672.157	58323.41
672.507	58178.78
672.856	58205.45
673.205	58244.77
673.554	58318.89
673.904	58204.32
674.253	58361.38
674.602	58201.61
674.951	57866.25
675.3	57760.71
675.649	58170.19
675.998	58173.58
676.346	58146.24
676.695	58244.99
677.044	58045.45
677.393	58113.25
677.741	58242.28
678.09	58064.43
678.438	58046.13
678.787	58072.8
679.135	58095.39
679.484	57938.56
679.832	58070.99
680.181	57861.95
680.529	57941.73
680.877	57839.35
681.225	57729.53
681.573	57989.63
681.922	57812.24
682.27	57745.57
682.618	57786.93
682.966	57644.56
683.314	57775.85
683.661	57637.78
684.009	57615.63
684.357	57565.69
684.705	57508.74
685.053	57467.84
685.4	57399.14
685.748	57330.44
686.095	57274.17
686.443	57230.11
686.79	57091.13
687.138	57253.61
687.485	57154.18
687.832	57070.34
688.18	57063.78
688.527	56990.79
688.874	56885.26
689.221	56836.9
689.568	56802.55
689.915	56699.72
690.262	56719.16
690.609	56634.41
690.956	56485.72
691.303	56544.02
691.65	56442.33
691.997	56342.45
692.344	56252.28
692.69	56233.97
693.037	56132.06
693.383	55965.73
693.73	56052.51
694.077	55851.61
694.423	55854.1
694.769	55776.36
695.116	55704.27
695.462	55561.45
695.808	55418.18
696.155	55459.53
696.501	55289.59
696.847	55386.54
697.193	55184.74
697.539	55187.9
697.885	54933.89
698.231	54897.96
698.577	54891.41
698.923	54895.03
699.269	54659.78
699.614	54552.21
699.96	54473.79
700.306	54496.62
700.651	54295.27
700.997	54260.24
701.342	54200.81
701.688	54185.89
702.033	54141.37
702.379	54008.04
702.724	53779.8
703.069	53888.95
703.415	53613.7
703.76	53584.33
704.105	53701.84
704.45	53523.99
704.795	53390.66
705.14	53292.58
705.485	53307.27
705.83	53008.97
706.175	53202.64
706.52	52995.19
706.865	52903.89
707.209	52776.21
707.554	52804.91
707.899	52790
708.243	52680.39
708.588	52518.14
708.932	52316.11
709.277	52465.03
709.621	52234.53
709.966	52163.35
710.31	52190.01
710.654	51954.99
710.998	52051.26
711.342	52009.68
711.687	51886.07
712.031	51895.78
712.375	51709.12
712.719	51621.44
713.063	51540.99
713.407	51762
713.75	51504.61
714.094	51404.95
714.438	51310.49
714.782	51250.83
715.125	51133.54
715.469	51331.5
715.812	51070.72
716.156	50934.9
716.499	50945.75
716.843	50960.21
717.186	50758.19
717.53	50948.69
717.873	50832.76
718.216	50661.01
718.559	50669.83
718.902	50389.16
719.246	50410.17
719.589	50299.21
719.932	50265.77
720.275	50217.63
720.617	50355.26
720.96	50106.22
721.303	50224.41
721.646	50074.59
721.989	49920.47
722.331	50019.67
722.674	49915.72
723.016	49877.76
723.359	49669.4
723.701	49771.54
724.044	49548.27
724.386	49423.53
724.729	49693.13
725.071	49432.12
725.413	49414.72
725.755	49443.19
726.097	49341.5
726.439	49130.66
726.782	49169.3
727.124	49307.6
727.465	49164.33
727.807	49003.88
728.149	48967.72
728.491	48967.27
728.833	48943.32
729.175	48977.22
729.516	48772.47
729.858	48694.28
730.199	48875.75
730.541	48797.56
730.882	48689.31
731.224	48673.95
731.565	48570.9
731.906	48513.95
732.248	48548.98
732.589	48443.44
732.93	48308.98
733.271	48400.96
733.612	48259.72
733.953	48428.75
734.294	48298.36
734.635	48199.38
734.976	48326.16
735.317	48158.25
735.658	48218.36
735.999	48156.45
736.339	48094.98
736.68	48073.28
737.021	48018.6
737.361	47893.4
737.702	48063.11
738.042	47934.3
738.383	47945.83
738.723	47950.58
739.063	47760.3
739.404	47957.13
739.744	47877.81
740.084	47738.38
740.424	47797.81
740.764	47728.21
741.104	47824.03
741.444	47723.46
741.784	47544.48
742.124	47719.17
742.464	47610.02
742.804	47434.2
743.143	47507.42
743.483	47558.72
743.823	47275.56
744.162	47386.3
744.502	47338.84
744.841	47156.7
745.181	47427.65
745.52	47317.82
745.86	47300.42
746.199	47124.16
746.538	47148.56
746.877	47261.55
747.216	47086.19
747.556	47030.83
747.895	47260.88
748.234	47023.82
748.573	46962.58
748.911	46805.75
749.25	46829.25
749.589	46764.84
749.928	46885.52
750.267	46876.03
750.605	46733.43
750.944	46742.02
751.283	46595.81
751.621	46878.29
751.96	46437.85
752.298	46550.61
752.636	46619.08
752.975	46373.22
753.313	46329.15
753.651	46558.07
753.989	46316.27
754.327	46296.16
754.666	45928.71
755.004	46179.32
