Data from 1797_FLMS001491_004.txt Node
Date: Thu Apr 19 16:33:55 BST 2018
User: hsy
Spectrometer: FLMS00149
Trigger mode: 0
Integration Time (sec): 1.000000E-2
Scans to average: 10
Electric dark correction enabled: true
Nonlinearity correction enabled: false
Boxcar width: 0
XAxis mode: Wavelengths
Number of Pixels in Spectrum: 2048
>>>>>Begin Spectral Data<<<<<
341.393	-8.02
341.776	-8.02
342.16	-8.02
342.543	-70.17
342.927	-86.89
343.31	-68.59
343.693	-71.75
344.077	-76.95
344.46	-76.04
344.843	-52.54
345.226	-43.05
345.61	-50.96
345.993	-35.37
346.376	0.79
346.759	19.32
347.142	41.69
347.525	42.82
347.908	77.63
348.291	83.95
348.674	76.27
349.057	132.76
349.44	133.22
349.823	144.97
350.206	177.96
350.588	248.69
350.971	238.3
351.354	249.6
351.737	268.35
352.119	278.52
352.502	301.8
352.884	305.64
353.267	319.2
353.65	342.48
354.032	340.44
354.414	364.17
354.797	365.53
355.179	374.79
355.562	362.59
355.944	369.59
356.326	354.68
356.709	383.83
357.091	366.43
357.473	373.66
357.855	396.71
358.238	396.71
358.62	385.87
359.002	395.58
359.384	402.81
359.766	365.3
360.148	384.74
360.53	408.92
360.912	384.28
361.294	383.38
361.676	378.63
362.057	394.45
362.439	385.87
362.821	383.38
363.203	365.53
363.584	379.09
363.966	391.52
364.348	385.87
364.729	374.79
365.111	357.84
365.493	398.52
365.874	398.97
366.256	377.05
366.637	383.61
367.019	394.9
367.4	396.03
367.781	368.01
368.163	390.61
368.544	360.1
368.925	380.22
369.306	384.06
369.688	387.67
370.069	404.85
370.45	377.96
370.831	391.97
371.212	401.91
371.593	376.83
371.974	395.36
372.355	398.52
372.736	404.4
373.117	375.24
373.498	388.8
373.879	404.4
374.26	385.19
374.641	384.74
375.021	400.33
375.402	403.49
375.783	408.46
376.163	419.99
376.544	419.54
376.925	399.2
377.305	430.61
377.686	418.18
378.066	430.61
378.447	409.59
378.827	400.1
379.208	419.54
379.588	417.73
379.968	401.46
380.349	416.83
380.729	393.77
381.109	409.37
381.489	417.28
381.87	424.96
382.25	430.61
382.63	429.71
383.01	455.47
383.39	441.46
383.77	445.75
384.15	455.24
384.53	475.13
384.91	457.05
385.29	437.62
385.67	474.22
386.049	470.84
386.429	465.19
386.809	481
387.189	467.67
387.568	480.1
387.948	485.75
388.328	467.22
388.707	489.82
389.087	484.85
389.466	498.18
389.846	482.59
390.225	486.65
390.605	482.13
390.984	505.86
391.363	503.6
391.743	502.92
392.122	529.82
392.501	520.78
392.881	523.49
393.26	524.62
393.639	534.11
394.018	556.71
394.397	517.61
394.776	543.15
395.155	551.28
395.534	557.16
395.913	534.11
396.292	556.93
396.671	545.41
397.05	561
397.429	555.35
397.808	546.99
398.186	568.01
398.565	548.12
398.944	570.49
399.323	584.05
399.701	579.08
400.08	563.04
400.458	572.53
400.837	593.77
401.215	601.23
401.594	608.46
401.972	609.81
402.351	617.95
402.729	588.57
403.107	605.07
403.486	631.28
403.864	618.85
404.242	626.76
404.62	657.27
404.999	608.23
405.377	637.84
405.755	651.4
406.133	674.9
406.511	664.5
406.889	666.08
407.267	665.63
407.645	647.78
408.023	685.74
408.401	678.51
408.779	669.02
409.156	699.3
409.534	711.51
409.912	718.29
410.29	725.97
410.667	718.51
411.045	737.49
411.422	742.24
411.8	791.05
412.178	769.58
412.555	753.31
412.933	813.65
413.31	791.96
413.687	792.41
414.065	786.76
414.442	790.15
414.819	789.02
415.197	810.94
415.574	828.11
415.951	837.38
416.328	818.17
416.705	829.47
417.082	856.81
417.46	875.8
417.837	871.73
418.214	864.95
418.591	888.45
418.967	859.3
419.344	880.99
419.721	902.01
420.098	896.81
420.475	890.71
420.852	932.52
421.228	897.94
421.605	927.55
421.982	925.29
422.358	929.35
422.735	939.52
423.111	942.91
423.488	957.83
423.864	975.68
424.241	961.22
424.617	1000.09
424.994	998.73
425.37	991.95
425.746	1030.59
426.123	1011.16
426.499	996.47
426.875	1046.64
427.251	1045.51
427.627	1073.08
428.003	1073.31
428.379	1078.28
428.756	1081.21
429.132	1115.11
429.507	1113.76
429.883	1127.31
430.259	1170.48
430.635	1174.32
431.011	1186.07
431.387	1195.34
431.763	1187.2
432.138	1179.52
432.514	1231.72
432.89	1197.82
433.265	1253.64
433.641	1280.76
434.016	1285.5
434.392	1299.97
434.767	1320.53
435.143	1308.55
435.518	1344.03
435.894	1370.02
436.269	1349.46
436.644	1377.25
437.02	1382.45
437.395	1374.09
437.77	1436.46
438.145	1446.63
438.52	1438.72
438.895	1455.22
439.271	1454.76
439.646	1457.02
440.021	1522.78
440.395	1460.87
440.77	1469.45
441.145	1478.94
441.52	1528.89
441.895	1530.47
442.27	1534.31
442.645	1532.28
443.019	1532.95
443.394	1574.53
443.769	1569.34
444.143	1555.33
444.518	1581.09
444.892	1571.15
445.267	1606.4
445.641	1620.86
446.016	1638.71
446.39	1642.33
446.764	1659.05
447.139	1665.15
447.513	1688.88
447.887	1728.43
448.262	1678.26
448.636	1730.24
449.01	1728.43
449.384	1716
449.758	1731.59
450.132	1750.8
450.506	1783.57
450.88	1769.56
451.254	1780.41
451.628	1813.62
452.002	1802.78
452.376	1879.84
452.75	1904.24
453.123	1898.59
453.497	1890.91
453.871	1942.89
454.244	1986.05
454.618	1984.24
454.992	2001.87
455.365	1971.13
455.739	2101.07
456.112	2045.71
456.486	2091.58
456.859	2110.79
457.232	2178.81
457.606	2188.08
457.979	2200.51
458.352	2230.56
458.725	2279.38
459.099	2256.1
459.472	2299.71
459.845	2360.73
460.218	2348.07
460.591	2373.16
460.964	2404.57
461.337	2452.25
461.71	2466.04
462.083	2492.7
462.456	2523.89
462.829	2528.86
463.201	2579.03
463.574	2609.08
463.947	2608.41
464.32	2658.8
464.692	2679.82
465.065	2687.05
465.438	2722.75
465.81	2734.96
466.183	2783.77
466.555	2873.26
466.928	2884.33
467.3	2859.47
467.672	2899.7
468.045	3007.72
468.417	3004.78
468.789	3051.78
469.161	3056.08
469.534	3130.43
469.906	3143.08
470.278	3132.01
470.65	3144.44
471.022	3259.01
471.394	3275.73
471.766	3313.47
472.138	3387.82
472.51	3503.3
472.882	3420.14
473.253	3487.25
473.625	3573.35
473.997	3667.14
474.369	3686.12
474.74	3704.65
475.112	3750.07
475.484	3819.67
475.855	3883.85
476.227	3942.38
476.598	4046.56
476.97	4088.14
477.341	4195.93
477.713	4184.64
478.084	4288.14
478.455	4380.79
478.827	4384.4
479.198	4525.64
479.569	4562.03
479.94	4651.97
480.311	4743.27
480.682	4869.14
481.053	4929.93
481.424	5039.3
481.795	5086.31
482.166	5181.9
482.537	5199.75
482.908	5335.57
483.279	5447.65
483.65	5527.2
484.021	5651.94
484.391	5693.52
484.762	5759.74
485.133	5830.69
485.503	5943.69
485.874	6091.25
486.244	6157.69
486.615	6284.92
486.985	6344.58
487.356	6445.59
487.726	6484.69
488.097	6648.75
488.467	6705.02
488.837	6828.41
489.207	6979.14
489.578	7106.14
489.948	7196.76
490.318	7348.62
490.688	7314.04
491.058	7556.52
491.428	7610.99
491.798	7693.92
492.168	7809.4
492.538	7914.71
492.908	8010.75
493.278	8136.4
493.648	8185.21
494.017	8334.36
494.387	8391.3
494.757	8460.23
495.126	8563.05
495.496	8673.56
495.866	8715.14
496.235	8869.26
496.605	8957.39
496.974	9012.76
497.344	9071.74
497.713	9178.18
498.082	9277.84
498.452	9361.67
498.821	9455.91
499.19	9527.32
499.559	9638.28
499.928	9679.41
500.298	9747.2
500.667	9881.21
501.036	9825.17
501.405	9969.12
501.774	10043.69
502.143	10141.54
502.512	10175.44
502.88	10335.21
503.249	10339.95
503.618	10464.02
503.987	10467.86
504.356	10549.89
504.724	10605.71
505.093	10678.7
505.462	10772.03
505.83	10851.35
506.199	10931.8
506.567	11106.26
506.936	11072.36
507.304	11219.93
507.672	11240.27
508.041	11282.98
508.409	11373.37
508.777	11495.4
509.145	11581.28
509.514	11670.99
509.882	11657.21
510.25	11768.17
510.618	11799.12
510.986	11805.68
511.354	11998.67
511.722	12112.34
512.09	12189.17
512.458	12191.43
512.826	12314.37
513.193	12350.52
513.561	12481.59
513.929	12528.15
514.297	12650.85
514.664	12739.67
515.032	12832.09
515.4	12961.58
515.767	13009.04
516.135	13082.93
516.502	13005.87
516.869	13250.39
517.237	13331.51
517.604	13290.61
517.972	13522.7
518.339	13512.07
518.706	13628.23
519.073	13657.16
519.44	13825.06
519.808	13932.18
520.175	14057.14
520.542	14162
520.909	14209.68
521.276	14271.15
521.643	14561.76
522.009	14623.23
522.376	14718.82
522.743	14774.64
523.11	15080.85
523.477	15113.39
523.843	15200.39
524.21	15374.85
524.577	15487.84
524.943	15604
525.31	15730.09
525.676	15895.51
526.043	16068.39
526.409	16208.05
526.776	16341.15
527.142	16412.34
527.508	16580.02
527.874	16702.95
528.241	16813.91
528.607	16825.43
528.973	17021.36
529.339	17082.6
529.705	17278.75
530.071	17409.6
530.437	17577.96
530.803	17637.84
531.169	17810.27
531.535	17810.94
531.901	17987.21
532.267	18030.37
532.632	18188.56
532.998	18252.06
533.364	18380.42
533.73	18480.31
534.095	18695.21
534.461	18681.66
534.826	18911.48
535.192	18954.42
535.557	19052.49
535.923	19026.51
536.288	19147.18
536.653	19285.26
537.019	19279.61
537.384	19404.35
537.749	19516.66
538.114	19476.44
538.479	19725.47
538.845	19757.79
539.21	19789.42
539.575	19899.25
539.94	19922.53
540.305	20102.86
540.67	20141.96
541.034	20281.39
541.399	20306.47
541.764	20418.56
542.129	20414.49
542.494	20560.48
542.858	20589.18
543.223	20591.21
543.587	20757.53
543.952	20876.85
544.316	20897.19
544.681	20873.01
545.045	21039.33
545.41	21113.46
545.774	21135.15
546.138	21204.98
546.503	21395.26
546.867	21420.11
547.231	21505.99
547.595	21581.01
547.959	21612.2
548.324	21628.92
548.688	21818.52
549.052	21796.38
549.416	21763.61
549.779	21936.49
550.143	21991.4
550.507	22096.93
550.871	22188
551.235	22206.31
551.599	22485.62
551.962	22466.41
552.326	22477.94
552.689	22704.15
553.053	22562.23
553.417	22688.78
553.78	23002.22
554.143	22889.45
554.507	23027.76
554.87	23101.88
555.234	23326.28
555.597	23211.93
555.96	23373.28
556.323	23578.02
556.686	23561.98
557.05	23827.74
557.413	23791.8
557.776	23900.73
558.139	24108.41
558.502	24151.34
558.865	24185.24
559.228	24465.46
559.59	24527.15
559.953	24469.75
560.316	24865.67
560.679	24872.23
561.041	24931.66
561.404	25151.54
561.767	25304.76
562.129	25313.57
562.492	25517.41
562.854	25561.93
563.217	25564.64
563.579	25742.26
563.941	25925.31
564.304	26144.74
564.666	26471.28
565.028	26350.15
565.39	26483.71
565.753	26724.38
566.115	26702.01
566.477	27018.16
566.839	27054.77
567.201	27254.31
567.563	27302.9
567.925	27490.46
568.287	27622.89
568.648	27701.08
569.01	27939.94
569.372	28156.66
569.734	28194.4
570.095	28410.89
570.457	28559.36
570.819	28621.06
571.18	28735.18
571.542	28978.33
571.903	28996.64
572.265	29255.39
572.626	29376.29
572.987	29462.16
573.349	29674.14
573.71	29727.01
574.071	29871.87
574.432	30111.86
574.794	30451.97
575.155	30310.95
575.516	30336.72
575.877	30524.28
576.238	30711.17
576.599	30747.1
576.96	31082.69
577.32	31100.09
577.681	31208.33
578.042	31384.82
578.403	31367.65
578.763	31481.55
579.124	31660.3
579.485	31831.37
579.845	32089.44
580.206	32086.73
580.566	32255.08
580.927	32273.39
581.287	32607.17
581.648	32650.78
582.008	32906.82
582.368	33005.8
582.728	33154.72
583.089	33161.73
583.449	33509.29
583.809	33589.51
584.169	33908.37
584.529	33957.41
584.889	34642.82
585.249	34473.78
585.609	34591.75
585.969	34897.27
586.329	35088.23
586.688	35469.01
587.048	35638.05
587.408	35927.08
587.768	36151.7
588.127	36544.24
588.487	36731.8
588.846	37432.12
589.206	37378.11
589.565	37736.97
589.925	38348.48
590.284	38604.52
590.643	38839.54
591.003	39351.62
591.362	39853.75
591.721	39923.36
592.08	40407.86
592.44	41000.16
592.799	41238.35
593.158	41585.69
593.517	41777.55
593.876	42429.96
594.235	42700.01
594.593	43092.09
594.952	43497.5
595.311	43629.02
595.67	44257.48
596.029	44847.52
596.387	45162.77
596.746	45655.18
597.104	45793.49
597.463	46208.84
597.822	46796.62
598.18	46948.03
598.538	47274.35
598.897	47833.43
599.255	47972.41
599.613	48737.59
599.972	48733.07
600.33	49189.78
600.688	49416.67
601.046	49815.53
601.404	50285.12
601.762	50463.42
602.12	50929.4
602.478	51043.74
602.836	51385.65
603.194	51365.54
603.552	51783.61
603.91	51939.31
604.268	52231.96
604.625	52463.82
604.983	52868.1
605.341	52956.46
605.698	53372.27
606.056	53567.07
606.413	53612.26
606.771	53998.92
607.128	54113.94
607.485	54171.34
607.843	54388.29
608.2	54762.51
608.557	54858.78
608.914	55062.39
609.272	55312.56
609.629	55462.84
609.986	55709.38
610.343	55812.43
610.7	56104.4
611.057	56142.59
611.414	56198.64
611.771	56459.87
612.127	56633.88
612.484	56729.24
612.841	56933.98
613.198	56942.57
613.554	57105.73
613.911	57287.65
614.267	57478.6
614.624	57512.73
614.98	57630.91
615.337	57837.01
615.693	57921.3
616.05	57963.11
616.406	58201.75
616.762	58187.06
617.118	58261.41
617.475	58339.82
617.831	58522.87
618.187	58549.31
618.543	58697.78
618.899	58826.14
619.255	58904.33
619.611	58889.41
619.967	59039.69
620.323	59141.38
620.678	59082.18
621.034	59108.39
621.39	59198.78
621.746	59300.25
622.101	59558.55
622.457	59348.61
622.812	59534.37
623.168	59629.96
623.523	59620.92
623.879	59735.27
624.234	59632.67
624.589	59788.6
624.945	59894.81
625.3	59894.13
625.655	59939.55
626.01	59932.32
626.365	60019.55
626.72	59925.99
627.075	59976.84
627.43	60007.35
627.785	60024.3
628.14	59985.43
628.495	60078.53
628.85	60149.72
629.205	60070.17
629.559	60182.03
629.914	60061.13
630.269	60121.47
630.623	60016.84
630.978	59991.53
631.332	60140.9
631.687	60143.62
632.041	60038.08
632.396	60012.77
632.75	60029.5
633.104	60044.64
633.459	59949.05
633.813	59944.98
634.167	60014.81
634.521	59954.92
634.875	59972.32
635.229	59928.71
635.583	59818.2
635.937	59813.91
636.291	59854.36
636.645	59838.54
636.999	59793.8
637.352	59860.01
637.706	59728.03
638.06	59836.28
638.413	59704.76
638.767	59649.39
639.121	59723.97
639.474	59632.44
639.828	59592.9
640.181	59531.66
640.534	59679.45
640.888	59562.39
641.241	59461.37
641.594	59536.85
641.947	59520.13
642.301	59455.5
642.654	59499.11
643.007	59436.74
643.36	59476.06
643.713	59408.27
644.066	59431.32
644.419	59303.19
644.771	59072.46
645.124	58834.72
645.477	58869.07
645.83	58708.85
646.182	58651.68
646.535	58712.92
646.888	58769.19
647.24	58724.67
647.593	58766.7
647.945	58694.61
648.298	58560.61
648.65	58491.23
649.002	58309.54
649.355	58291.46
649.707	58245.81
650.059	58267.73
650.411	58643.54
650.763	58723.54
651.115	59056.64
651.467	58983.19
651.819	58961.95
652.171	58958.11
652.523	58879.24
652.875	58898.68
653.227	58788.62
653.578	59025.91
653.93	58876.98
654.282	58723.54
654.633	58714.5
654.985	58774.16
655.337	58822.75
655.688	58741.39
656.039	58854.38
656.391	58611.45
656.742	58696.2
657.094	58666.59
657.445	58669.53
657.796	58721.73
658.147	58644.22
658.498	58685.35
658.849	58761.51
659.2	58606.03
659.551	58560.83
659.902	58703.43
660.253	58586.82
660.604	58675.41
660.955	58557.9
661.306	58707.27
661.656	58609.87
662.007	58547.95
662.358	58591.34
662.708	58606.03
663.059	58551.34
663.409	58428.86
663.76	58554.51
664.11	58610.55
664.461	58648.29
664.811	58608.29
665.161	58616.42
665.511	58521.51
665.862	58565.35
666.212	58622.07
666.562	58645.58
666.912	58652.58
667.262	58533.26
667.612	58544.11
667.962	58618.23
668.312	58484
668.662	58670.43
669.011	58631.34
669.361	58553.38
669.711	58618.01
670.06	58568.97
670.41	58508.86
670.76	58529.2
671.109	58632.24
671.459	58537.56
671.808	58500.5
672.157	58527.84
672.507	58383.89
672.856	58402.87
673.205	58475.86
673.554	58544.79
673.904	58363.78
674.253	58553.15
674.602	58426.83
674.951	58108.87
675.3	57978.7
675.649	58410.1
675.998	58363.55
676.346	58399.93
676.695	58424.57
677.044	58237.68
677.393	58310.22
677.741	58418.69
678.09	58360.16
678.438	58258.47
678.787	58253.72
679.135	58260.73
679.484	58154.06
679.832	58251.91
680.181	58103.67
680.529	58167.4
680.877	57956.78
681.225	58041.3
681.573	58236.32
681.922	58017.34
682.27	57909.78
682.618	57995.65
682.966	57821.19
683.314	57950.91
683.661	57872.04
684.009	57772.83
684.357	57691.48
684.705	57647.86
685.053	57741.87
685.4	57585.72
685.748	57583.91
686.095	57584.14
686.443	57433.41
686.79	57418.04
687.138	57483.12
687.485	57398.15
687.832	57207.2
688.18	57223.47
688.527	57164.03
688.874	57145.96
689.221	57120.42
689.568	57015.79
689.915	56905.96
690.262	56987.09
690.609	56923.59
690.956	56841.78
691.303	56763.82
691.65	56606.31
691.997	56580.55
692.344	56483.83
692.69	56462.36
693.037	56447.22
693.383	56200.67
693.73	56233.44
694.077	56152.53
694.423	56139.88
694.769	55970.62
695.116	55950.05
695.462	55811.07
695.808	55776.27
696.155	55811.75
696.501	55491.08
696.847	55557.75
697.193	55440.69
697.539	55484.53
697.885	55257.64
698.231	55168.61
698.577	55194.82
698.923	55083.18
699.269	54913.25
699.614	54850.42
699.96	54774.27
700.306	54762.51
700.651	54671.9
700.997	54537.89
701.342	54525.23
701.688	54435.07
702.033	54421.73
702.379	54304.67
702.724	54159.37
703.069	54197.11
703.415	53865.14
703.76	53919.83
704.105	53861.07
704.45	53721.64
704.795	53626.05
705.14	53607.74
705.485	53504.02
705.83	53401.42
706.175	53499.5
706.52	53328.65
706.865	53235.55
707.209	53112.61
707.554	53060.41
707.899	53029.68
708.243	52901.09
708.588	52917.82
708.932	52685.96
709.277	52692.29
709.621	52642.57
709.966	52463.14
710.31	52432.86
710.654	52281
710.998	52246.87
711.342	52261.56
711.687	52130.72
712.031	52147.44
712.375	51874.68
712.719	51923.72
713.063	51818.41
713.407	51991.29
713.75	51700.45
714.094	51639.21
714.438	51621.13
714.782	51580
715.125	51391.3
715.469	51549.94
715.812	51270.4
716.156	51270.63
716.499	51235.38
716.843	51255.04
717.186	51003.74
717.53	51272.66
717.873	51196.28
718.216	51034.03
718.559	50909.06
718.902	50657.99
719.246	50801.49
719.589	50668.39
719.932	50490.31
720.275	50569.4
720.617	50598.33
720.96	50412.12
721.303	50376.42
721.646	50547.03
721.989	50296.87
722.331	50275.4
722.674	50218.45
723.016	50319.69
723.359	50065.46
723.701	50188.4
724.044	50012.58
724.386	49941.17
724.729	50007.84
725.071	49980.27
725.413	49814.17
725.755	49790.67
726.097	49567.17
726.439	49662.31
726.782	49509.77
727.124	49659.37
727.465	49707.05
727.807	49459.6
728.149	49524.46
728.491	49334.64
728.833	49378.02
729.175	49296.9
729.516	49267.74
729.858	49165.37
730.199	49366.72
730.541	49270.23
730.882	49053.29
731.224	49115.21
731.565	48981.88
731.906	49013.29
732.248	49014.87
732.589	48799.28
732.93	48767.87
733.271	48811.94
733.612	48780.53
733.953	48828.89
734.294	48706.18
734.635	48604.71
734.976	48726.29
735.317	48592.51
735.658	48621.21
735.999	48625.05
736.339	48382.12
736.68	48473.87
737.021	48586.63
737.361	48327.43
737.702	48611.72
738.042	48367.2
738.383	48407.2
738.723	48443.13
739.063	48198.39
739.404	48457.14
739.744	48235
740.084	48228.68
740.424	48355.23
740.764	48049.25
741.104	48350.03
741.444	48096.7
741.784	47980.55
742.124	48190.26
742.464	48033.88
742.804	47931.96
743.143	47945.52
743.483	47890.61
743.823	47797.27
744.162	47799.31
744.502	47759.54
744.841	47670.05
745.181	47925.86
745.52	47636.83
745.86	47854.22
746.199	47545.76
746.538	47579.88
746.877	47741.23
747.216	47583.49
747.556	47602.25
747.895	47672.98
748.234	47554.79
748.573	47461.92
748.911	47385.76
749.25	47417.4
749.589	47376.04
749.928	47335.14
750.267	47450.16
750.605	47232.77
750.944	47289.94
751.283	47129.04
751.621	47281.58
751.96	47058.54
752.298	47139.66
752.636	47061.7
752.975	47094.02
753.313	46847.69
753.651	47087.01
753.989	46807.7
754.327	46805.89
754.666	46525.44
755.004	46727.47
