Data from 18-1248_FLMS001491_005.txt Node
Date: Thu Apr 19 16:24:33 BST 2018
User: hsy
Spectrometer: FLMS00149
Trigger mode: 0
Integration Time (sec): 1.000000E-2
Scans to average: 10
Electric dark correction enabled: true
Nonlinearity correction enabled: false
Boxcar width: 0
XAxis mode: Wavelengths
Number of Pixels in Spectrum: 2048
>>>>>Begin Spectral Data<<<<<
341.393	-27.88
341.776	-27.88
342.16	-27.88
342.543	-35.79
342.927	-83.25
343.31	-77.37
343.693	-88.22
344.077	-76.47
344.46	-58.61
344.843	-49.35
345.226	-24.72
345.61	-19.52
345.993	-17.94
346.376	-17.26
346.759	14.38
347.142	43.98
347.525	51.44
347.908	50.54
348.291	81.27
348.674	68.84
349.057	119.01
349.44	123.53
349.823	132.57
350.206	182.96
350.588	224.77
350.971	253.02
351.354	267.93
351.737	282.85
352.119	297.53
352.502	298.89
352.884	335.73
353.267	321.49
353.65	352
354.032	346.12
354.414	354.71
354.797	351.54
355.179	365.78
355.562	373.92
355.944	363.07
356.326	353.13
356.709	402.62
357.091	383.63
357.473	366.01
357.855	380.47
358.238	376.63
358.62	382.73
359.002	384.76
359.384	395.39
359.766	389.74
360.148	373.24
360.53	368.27
360.912	413.01
361.294	395.61
361.676	394.71
362.057	396.74
362.439	403.29
362.821	384.09
363.203	393.8
363.584	375.05
363.966	379.11
364.348	388.61
364.729	401.49
365.111	382.73
365.493	402.62
365.874	377.76
366.256	367.59
366.637	372.79
367.019	373.92
367.4	382.28
367.781	394.93
368.163	391.32
368.544	379.11
368.925	393.35
369.306	375.5
369.688	392.22
370.069	402.62
370.45	390.19
370.831	399.68
371.212	388.61
371.593	376.85
371.974	385.89
372.355	380.7
372.736	391.77
373.117	400.36
373.498	388.83
373.879	405.55
374.26	389.96
374.641	397.64
375.021	413.24
375.402	391.77
375.783	394.03
376.163	431.77
376.544	397.19
376.925	394.26
377.305	414.82
377.686	404.2
378.066	425.89
378.447	407.14
378.827	430.19
379.208	431.54
379.588	421.83
379.968	456.4
380.349	415.27
380.729	429.28
381.109	440.36
381.489	430.41
381.87	419.11
382.25	441.03
382.63	459.34
383.01	465.44
383.39	440.81
383.77	430.41
384.15	436.29
384.53	459.79
384.91	475.16
385.29	466.8
385.67	463.63
386.049	479.9
386.429	482.39
386.809	483.29
387.189	474.93
387.568	481.26
387.948	467.25
388.328	493.24
388.707	491.88
389.087	522.39
389.466	494.37
389.846	519.22
390.225	492.56
390.605	500.69
390.984	516.74
391.363	509.28
391.743	533.23
392.122	523.07
392.501	511.54
392.881	554.25
393.26	534.82
393.639	549.51
394.018	549.51
394.397	530.07
394.776	546.34
395.155	548.6
395.534	549.73
395.913	568.94
396.292	560.35
396.671	574.82
397.05	568.94
397.429	552.44
397.808	569.39
398.186	578.88
398.565	554.25
398.944	584.53
399.323	593.8
399.701	600.35
400.08	572.33
400.458	612.55
400.837	600.35
401.215	618.66
401.594	619.33
401.972	606.23
402.351	622.72
402.729	614.14
403.107	635.6
403.486	640.58
403.864	642.61
404.242	617.07
404.62	663.63
404.999	662.04
405.377	657.3
405.755	660.24
406.133	669.95
406.511	682.61
406.889	707.47
407.267	677.86
407.645	707.02
408.023	703.85
408.401	717.86
408.779	724.42
409.156	722.83
409.534	723.06
409.912	753.57
410.29	747.69
410.667	754.02
411.045	787.69
411.422	791.53
411.8	762.38
412.178	807.8
412.555	832.66
412.933	826.79
413.31	810.97
413.687	826.79
414.065	822.49
414.442	831.98
414.819	844.86
415.197	851.42
415.574	886.67
415.951	880.12
416.328	884.19
416.705	888.48
417.082	871.76
417.46	870.17
417.837	934.13
418.214	905.2
418.591	916.73
418.967	925.99
419.344	945.88
419.721	937.97
420.098	950.85
420.475	964.86
420.852	946.11
421.228	953.11
421.605	972.32
421.982	984.97
422.358	987.46
422.735	1002.83
423.111	1005.31
423.488	1021.13
423.864	1027.01
424.241	1043.73
424.617	1039.89
424.994	1037.85
425.37	1073.79
425.746	1072.66
426.123	1096.61
426.499	1088.02
426.875	1094.8
427.251	1074.92
427.627	1130.51
428.003	1135.03
428.379	1163.5
428.756	1149.49
429.132	1180.22
429.507	1184.74
429.883	1196.27
430.259	1217.28
430.635	1225.42
431.011	1235.59
431.387	1246.66
431.763	1270.84
432.138	1298.41
432.514	1319.88
432.89	1308.36
433.265	1315.36
433.641	1337.73
434.016	1327.34
434.392	1349.71
434.767	1373.89
435.143	1376.38
435.518	1398.07
435.894	1441.46
436.269	1453.66
436.644	1447.33
437.02	1452.76
437.395	1485.3
437.77	1504.73
438.145	1508.58
438.52	1504.73
438.895	1539.08
439.271	1511.06
439.646	1564.85
440.021	1555.58
440.395	1580.66
440.77	1562.59
441.145	1596.48
441.52	1607.1
441.895	1597.61
442.27	1632.64
442.645	1621.79
443.019	1651.62
443.394	1648.69
443.769	1638.97
444.143	1694.33
444.518	1677.84
444.892	1669.25
445.267	1699.08
445.641	1728.46
446.016	1733.88
446.39	1741.79
446.764	1719.87
447.139	1723.49
447.513	1772.98
447.887	1771.85
448.262	1787.44
448.636	1776.37
449.01	1830.15
449.384	1820.88
449.758	1845.29
450.132	1843.03
450.506	1886.19
450.88	1856.14
451.254	1874.22
451.628	1939.75
452.002	1948.56
452.376	1957.83
452.75	1976.81
453.123	1978.39
453.497	2025.17
453.871	2026.75
454.244	2073.76
454.618	2071.27
454.992	2104.04
455.365	2139.75
455.739	2169.12
456.112	2182.23
456.486	2189.24
456.859	2223.13
457.232	2240.99
457.606	2273.08
457.979	2318.95
458.352	2318.5
458.725	2356.46
459.099	2352.17
459.472	2425.39
459.845	2465.84
460.218	2448.66
460.591	2472.84
460.964	2495.89
461.337	2535.67
461.71	2619.73
462.083	2584.25
462.456	2643.69
462.829	2625.16
463.201	2678.94
463.574	2727.3
463.947	2721.2
464.32	2736.34
464.692	2783.12
465.065	2844.13
465.438	2848.88
465.81	2879.84
466.183	2888.65
466.555	2958.03
466.928	2989.67
467.3	3001.87
467.672	3030.34
468.045	3100.17
468.417	3112.15
468.789	3140.4
469.161	3139.72
469.534	3189.89
469.906	3258.36
470.278	3292.94
470.65	3334.29
471.022	3384.91
471.394	3425.36
471.766	3473.5
472.138	3503.55
472.51	3587.84
472.882	3606.15
473.253	3647.95
473.625	3710.33
473.997	3786.26
474.369	3764.79
474.74	3845.24
475.112	3894.28
475.484	3975.4
475.855	4016.31
476.227	4075.29
476.598	4144.67
476.97	4213.59
477.341	4296.75
477.713	4365.68
478.084	4379.24
478.455	4494.49
478.827	4559.34
479.198	4634.14
479.569	4671.66
479.94	4807.25
480.311	4873.46
480.682	4943.51
481.053	5039.33
481.424	5123.85
481.795	5190.97
482.166	5243.62
482.537	5348.48
482.908	5470.51
483.279	5482.03
483.65	5734.68
484.021	5754.34
484.391	5841.57
484.762	5909.82
485.133	5970.83
485.503	6051.06
485.874	6247.21
486.244	6306.19
486.615	6397.49
486.985	6522.68
487.356	6600.19
487.726	6703.24
488.097	6844.93
488.467	6939.85
488.837	7110.69
489.207	7176.68
489.578	7286.73
489.948	7354.75
490.318	7543.45
490.688	7613.5
491.058	7738.02
491.428	7794.96
491.798	7906.6
492.168	8126.03
492.538	8193.15
492.908	8253.26
493.278	8343.88
493.648	8460.71
494.017	8563.31
494.387	8627.71
494.757	8796.07
495.126	8843.07
495.496	8985.44
495.866	8979.11
496.235	9154.7
496.605	9215.94
496.974	9373.23
497.344	9454.81
497.713	9541.36
498.082	9554.69
498.452	9747
498.821	9834.91
499.19	9873.33
499.559	9970.27
499.928	10138.41
500.298	10189.93
500.667	10225.41
501.036	10290.49
501.405	10423.37
501.774	10427.89
502.143	10608.22
502.512	10691.84
502.88	10779.07
503.249	10816.58
503.618	10939.29
503.987	10950.81
504.356	11075.33
504.724	11218.83
505.093	11196.68
505.462	11324.59
505.83	11369.33
506.199	11556.67
506.567	11648.87
506.936	11653.85
507.304	11793.73
507.672	11955.53
508.041	11945.36
508.409	12095.87
508.777	12121.63
509.145	12270.78
509.514	12273.49
509.882	12447.72
510.25	12499.25
510.618	12596.87
510.986	12619.92
511.354	12713.93
511.722	12896.75
512.09	12957.09
512.458	12869.63
512.826	13137.65
513.193	13127.93
513.561	13268.72
513.929	13374.7
514.297	13460.8
514.664	13583.74
515.032	13637.97
515.4	13761.81
515.767	13775.82
516.135	13859.21
516.502	13813.34
516.869	14065.99
517.237	14181.92
517.604	14204.06
517.972	14406.32
518.339	14448.35
518.706	14510.72
519.073	14614.9
519.44	14737.83
519.808	14865.51
520.175	14931.73
520.542	15115
520.909	15076.35
521.276	15218.72
521.643	15388.66
522.009	15530.81
522.376	15596.79
522.743	15700.97
523.11	15869.78
523.477	16047.18
523.843	16128.53
524.21	16358.81
524.577	16417.34
524.943	16518.58
525.31	16591.34
525.676	16831.56
526.043	16994.95
526.409	17088.73
526.776	17263.64
527.142	17308.84
527.508	17350.42
527.874	17618.66
528.241	17718.09
528.607	17810.07
528.973	18002.15
529.339	17977.07
529.705	18228.59
530.071	18405.76
530.437	18457.74
530.803	18643.27
531.169	18758.52
531.535	18685.07
531.901	18861.11
532.267	18871.96
532.632	19115.12
532.998	19185.63
533.364	19316.92
533.73	19307.88
534.095	19502
534.461	19579.51
534.826	19693.63
535.192	19833.07
535.557	20002.33
535.923	19907.64
536.288	20091.14
536.653	20153.74
537.019	20119.16
537.384	20271.7
537.749	20285.71
538.114	20460.62
538.479	20501.07
538.845	20551.24
539.21	20492.48
539.575	20739.48
539.94	20716.88
540.305	20904
540.67	20895.19
541.034	20900.38
541.399	21063.77
541.764	21088.17
542.129	21155.29
542.494	21145.8
542.858	21297.89
543.223	21354.38
543.587	21465.57
543.952	21353.03
544.316	21543.53
544.681	21533.13
545.045	21640.7
545.41	21682.96
545.774	21787.14
546.138	21861.94
546.503	21870.98
546.867	21892.22
547.231	21998.43
547.595	22145.32
547.959	22139.45
548.324	22230.74
548.688	22234.81
549.052	22282.04
549.416	22296.73
549.779	22435.26
550.143	22435.26
550.507	22631.64
550.871	22754.35
551.235	22670.96
551.599	22917.28
551.962	22862.82
552.326	22970.16
552.689	23110.27
553.053	22919.09
553.417	23150.94
553.78	23350.49
554.143	23338.96
554.507	23492.4
554.87	23479.98
555.234	23682.68
555.597	23558.39
555.96	23719.29
556.323	23891.49
556.686	23900.53
557.05	24052.62
557.413	24066.4
557.776	24127.64
558.139	24316.34
558.502	24339.39
558.865	24480.4
559.228	24591.81
559.59	24730.79
559.953	24577.12
560.316	25034.51
560.679	25028.64
561.041	25112.48
561.404	25246.94
561.767	25510.66
562.129	25464.78
562.492	25631.78
562.854	25689.64
563.217	25752.46
563.579	25824.09
563.941	26048.95
564.304	26198.32
564.666	26455.04
565.028	26396.51
565.39	26500.24
565.753	26819.55
566.115	26881.92
566.477	26935.03
566.839	27111.07
567.201	27377.73
567.563	27322.81
567.925	27703.37
568.287	27555.8
568.648	27664.05
569.01	28009.57
569.372	28210.47
569.734	28286.18
570.095	28363.46
570.457	28667.18
570.819	28779.5
571.18	28808.2
571.542	29143.1
571.903	29102.65
572.265	29414.74
572.626	29520.72
572.987	29544.68
573.349	29782.41
573.71	29821.05
574.071	30047.71
574.432	30268.72
574.794	30601.82
575.155	30578.32
575.516	30574.7
575.877	30782.38
576.238	30918.2
576.599	31121.58
576.96	31250.62
577.32	31355.47
577.681	31352.76
578.042	31704.17
578.403	31747.78
578.763	31808.34
579.124	31866.87
579.485	32213.98
579.845	32340.53
580.206	32255.11
580.566	32420.76
580.927	32559.74
581.287	32725.38
581.648	32785.49
582.008	33134.64
582.368	33081.31
582.728	33237.46
583.089	33188.87
583.449	33421.18
583.809	33419.15
584.169	33696.43
584.529	33881.74
584.889	34102.75
585.249	34088.06
585.609	34056.42
585.969	34568.5
586.329	34439.91
586.688	34876.06
587.048	34909.05
587.408	35110.86
587.768	35065.66
588.127	35403.05
588.487	35538.87
588.846	36013.21
589.206	35862.02
589.565	36095.01
589.925	36559.18
590.284	36714.43
590.643	36998.49
591.003	37219.05
591.362	37586.95
591.721	37742.43
592.08	37983.78
592.44	38313.26
592.799	38505.57
593.158	38694.49
593.517	38810.65
593.876	39233.23
594.235	39418.54
594.593	39754.35
594.952	40148.01
595.311	40179.2
595.67	40525.86
596.029	40957.71
596.387	41140.3
596.746	41672.49
597.104	41620.06
597.463	41798.59
597.822	42371.46
598.18	42444.22
598.538	42672.47
598.897	43297.99
599.255	43257.53
599.613	44069.94
599.972	43814.58
600.33	44228.13
600.688	44386.54
601.046	44657.72
601.404	45245.28
601.762	45335.9
602.12	45661.31
602.478	45879.16
602.836	46003.9
603.194	46067.18
603.552	46474.4
603.91	46610.22
604.268	46870.1
604.625	47180.82
604.983	47524.09
605.341	47434.15
605.698	47892.44
606.056	48182.6
606.413	48225.54
606.771	48475.7
607.128	48715.02
607.485	48662.82
607.843	48928.12
608.2	49165.63
608.557	49532.17
608.914	49607.65
609.272	49829.57
609.629	50138.71
609.986	50341.19
610.343	50314.07
610.7	50764.91
611.057	50859.82
611.414	50866.6
611.771	51139.81
612.127	51299.81
612.484	51366.47
612.841	51507.94
613.198	51466.36
613.554	51620.7
613.911	52001.03
614.267	52009.17
614.624	52167.13
614.98	52277.18
615.337	52541.36
615.693	52539.32
616.05	52661.36
616.406	52848.24
616.762	52805.31
617.118	52885.53
617.475	53001.69
617.831	53175.69
618.187	53190.16
618.543	53430.37
618.899	53502.24
619.255	53499.53
619.611	53544.27
619.967	53780.65
620.323	53877.14
620.678	53788.33
621.034	53833.08
621.39	53888.67
621.746	53988.78
622.101	54376.11
622.457	54029.91
622.812	54229.68
623.168	54324.81
623.523	54302.22
623.879	54447.07
624.234	54381.54
624.589	54495.66
624.945	54500.4
625.3	54596.9
625.655	54636.22
626.01	54606.16
626.365	54608.2
626.72	54644.81
627.075	54521.87
627.43	54650
627.785	54602.55
628.14	54689.1
628.495	54769.32
628.85	54722.32
629.205	54707.18
629.559	54859.94
629.914	54713.96
630.269	54764.58
630.623	54601.64
630.978	54604.13
631.332	54787.18
631.687	54825.82
632.041	54674.64
632.396	54735.88
632.75	54694.75
633.104	54712.6
633.459	54520.74
633.813	54646.39
634.167	54624.24
634.521	54578.59
634.875	54584.24
635.229	54511.48
635.583	54438.71
635.937	54518.48
636.291	54506.28
636.645	54415.43
636.999	54287.08
637.352	54459.95
637.706	54220.41
638.06	54384.7
638.413	54235.78
638.767	54203.91
639.121	54306.51
639.474	54140.19
639.828	54106.29
640.181	54200.52
640.534	54220.18
640.888	54153.75
641.241	53972.96
641.594	54126.63
641.947	54091.15
642.301	54068.78
642.654	54104.26
643.007	53966.41
643.36	54119.62
643.713	54024.71
644.066	54174.76
644.419	53883.24
644.771	53607.77
645.124	53396.93
645.477	53265.86
645.83	53195.58
646.182	53130.04
646.535	53090.04
646.888	53248.91
647.24	53104.96
647.593	53205.07
647.945	53126.65
648.298	53059.54
648.65	52833.55
649.002	52705.42
649.355	52725.08
649.707	52690.06
650.059	52574.58
650.411	53052.53
650.763	53193.77
651.115	53623.36
651.467	53503.37
651.819	53512.41
652.171	53446.87
652.523	53402.8
652.875	53412.52
653.227	53328.46
653.578	53516.93
653.93	53417.72
654.282	53346.08
654.633	53342.02
654.985	53389.25
655.337	53393.31
655.688	53419.53
656.039	53498.17
656.391	53117.84
656.742	53180.21
657.094	53278.74
657.445	53270.83
657.796	53340.89
658.147	53254.56
658.498	53353.99
658.849	53390.6
659.2	53317.38
659.551	53238.06
659.902	53445.29
660.253	53335.01
660.604	53388.57
660.955	53223.6
661.306	53330.49
661.656	53273.99
662.007	53268.35
662.358	53230.83
662.708	53358.29
663.059	53204.84
663.409	53150.61
663.76	53270.15
664.11	53270.38
664.461	53272.19
664.811	53376.14
665.161	53226.99
665.511	53178.63
665.862	53226.99
666.212	53344.73
666.562	53305.41
666.912	53225.86
667.262	53165.97
667.612	53282.36
667.962	53238.06
668.312	53234
668.662	53320.1
669.011	53287.78
669.361	53208.01
669.711	53147.22
670.06	53123.49
670.41	53138.86
670.76	53062.02
671.109	53269.02
671.459	53116.94
671.808	53112.42
672.157	53172.53
672.507	53040.78
672.856	53023.83
673.205	53019.76
673.554	53110.61
673.904	53034.9
674.253	53226.09
674.602	53049.37
674.951	52651.64
675.3	52432.66
675.649	53034.23
675.998	52924.17
676.346	53025.41
676.695	53012.98
677.044	52791.75
677.393	52896.6
677.741	52959.43
678.09	52886.43
678.438	52736.16
678.787	52862.48
679.135	52871.75
679.484	52646.67
679.832	52798.08
680.181	52720.79
680.529	52661.36
680.877	52593.11
681.225	52582.04
681.573	52693.22
681.922	52578.42
682.27	52451.42
682.618	52413.23
682.966	52347.92
683.314	52403.06
683.661	52290.29
684.009	52176.17
684.357	52128.94
684.705	52110.41
685.053	52203.97
685.4	51982.73
685.748	51891.43
686.095	51866.35
686.443	51610.31
686.79	51680.82
687.138	51734.37
687.485	51739.57
687.832	51481.27
688.18	51554.27
688.527	51411.44
688.874	51349.3
689.221	51283.99
689.568	51062.98
689.915	51071.79
690.262	51102.75
690.609	51019.82
690.956	50820.95
691.303	50836.32
691.65	50684.91
691.997	50554.97
692.344	50550.68
692.69	50504.35
693.037	50404.92
693.383	50074.53
693.73	50254.64
694.077	50058.49
694.423	49964.48
694.769	49758.83
695.116	49742.56
695.462	49593.19
695.808	49468.9
696.155	49472.74
696.501	49263.93
696.847	49273.87
697.193	49031.62
697.539	49081.79
697.885	48724.28
698.231	48618.75
698.577	48813.32
698.923	48649.48
699.269	48503.27
699.614	48426.21
699.96	48150.74
700.306	48360.68
700.651	47991.65
700.997	47842.73
701.342	47783.97
701.688	47774.93
702.033	47451.77
702.379	47499.91
702.724	47296.07
703.069	47242.51
703.415	46821.28
703.76	46727.95
704.105	46940.15
704.45	46594.85
704.795	46437.34
705.14	46384.46
705.485	46366.83
705.83	45975.66
706.175	46180.17
706.52	46035.31
706.865	45930.46
707.209	45732.5
707.554	45663.35
707.899	45671.03
708.243	45565.72
708.588	45477.59
708.932	45148.78
709.277	45166.19
709.621	44991.05
709.966	44742.69
710.31	44846.19
710.654	44527.78
710.998	44493.21
711.342	44680.55
711.687	44425.64
712.031	44267.45
712.375	43998.98
712.719	44117.17
713.063	43954.47
713.407	44188.58
713.75	43834.02
714.094	43869.95
714.438	43706.56
714.782	43785.43
715.125	43515.38
715.469	43787.92
715.812	43236.07
716.156	43235.61
716.499	43225.45
716.843	43269.51
717.186	43011.21
717.53	43262.51
717.873	43347.7
718.216	43114.94
718.559	42935.06
718.902	42636.08
719.246	42841.5
719.589	42603.54
719.932	42619.59
720.275	42592.69
720.617	42641.96
720.96	42509.53
721.303	42533.03
721.646	42568.06
721.989	42263.66
722.331	42380.72
722.674	42290.78
723.016	42134.63
723.359	42097.34
723.701	42154.51
724.044	42141.18
724.386	41894.18
724.729	42083.33
725.071	42020.28
725.413	41955.2
725.755	41887.18
726.097	41856.89
726.439	41821.64
726.782	41679.95
727.124	42079.26
727.465	41775.99
727.807	41600.63
728.149	41731.02
728.491	41652.15
728.833	41710.68
729.175	41751.59
729.516	41675.88
729.858	41772.15
730.199	41664.81
730.541	41667.07
730.882	41549.78
731.224	41620.52
731.565	41570.35
731.906	41615.54
732.248	41659.84
732.589	41449.67
732.93	41493.29
733.271	41649.22
733.612	41442.89
733.953	41637.24
734.294	41551.37
734.635	41536.68
734.976	41673.62
735.317	41590.23
735.658	41357.92
735.999	41534.42
736.339	41405.38
736.68	41619.61
737.021	41591.14
737.361	41574.64
737.702	41851.7
738.042	41611.02
738.383	41673.62
738.723	41830.45
739.063	41692.15
739.404	41953.16
739.744	41894.63
740.084	41926.72
740.424	41959.94
740.764	41893.5
741.104	42093.95
741.444	41885.37
741.784	41793.62
742.124	42056.66
742.464	42022.31
742.804	42037
743.143	42025.48
743.483	42074.52
743.823	42007.62
744.162	42173.5
744.502	42374.85
744.841	42246.04
745.181	42331.01
745.52	42289.2
745.86	42599.25
746.199	42513.83
746.538	42565.58
746.877	42829.98
747.216	42879.92
747.556	42722.18
747.895	43012.34
748.234	42950.2
748.573	43033.13
748.911	43017.32
749.25	43048.95
749.589	43208.27
749.928	43441.71
750.267	43548.15
750.605	43391.54
750.944	43539.11
751.283	43504.08
751.621	43824.75
751.96	43697.3
752.298	43792.21
752.636	43919.66
752.975	43928.7
753.313	43858.65
753.651	44288.47
753.989	44143.84
