Data from 18-1248_FLMS001491_006.txt Node
Date: Thu Apr 19 16:24:35 BST 2018
User: hsy
Spectrometer: FLMS00149
Trigger mode: 0
Integration Time (sec): 1.000000E-2
Scans to average: 10
Electric dark correction enabled: true
Nonlinearity correction enabled: false
Boxcar width: 0
XAxis mode: Wavelengths
Number of Pixels in Spectrum: 2048
>>>>>Begin Spectral Data<<<<<
341.393	-2.54
341.776	-2.54
342.16	-2.54
342.543	-45.48
342.927	-57.91
343.31	-59.72
343.693	-60.17
344.077	-64.46
344.46	-62.43
344.843	-57.23
345.226	-51.81
345.61	-33.95
345.993	-15.42
346.376	12.6
346.759	10.11
347.142	38.81
347.525	37
347.908	35.87
348.291	59.15
348.674	99.83
349.057	111.8
349.44	116.1
349.823	140.28
350.206	171.24
350.588	236.77
350.971	245.13
351.354	258.02
351.737	295.3
352.119	312.25
352.502	303.21
352.884	320.16
353.267	328.07
353.65	357.22
354.032	340.5
354.414	358.35
354.797	365.13
355.179	370.56
355.562	367.17
355.944	364.91
356.326	373.49
356.709	391.12
357.091	390.22
357.473	392.48
357.855	416.88
358.238	397.67
358.62	383.21
359.002	378.01
359.384	390.67
359.766	381.18
360.148	400.84
360.53	376.88
360.912	401.51
361.294	383.44
361.676	375.75
362.057	381.85
362.439	392.02
362.821	380.72
363.203	389.54
363.584	403.55
363.966	382.76
364.348	392.7
364.729	399.48
365.111	384.79
365.493	364.45
365.874	365.36
366.256	364.91
366.637	365.58
367.019	383.66
367.4	366.71
367.781	392.25
368.163	391.35
368.544	383.66
368.925	370.1
369.306	380.72
369.688	390.89
370.069	394.96
370.45	375.53
370.831	390.22
371.212	395.64
371.593	356.77
371.974	407.16
372.355	404.45
372.736	391.57
373.117	400.61
373.498	395.87
373.879	397.67
374.26	408.52
374.641	406.49
375.021	403.55
375.402	417.11
375.783	404.23
376.163	435.86
376.544	416.43
376.925	418.92
377.305	415.07
377.686	420.72
378.066	424.57
378.447	424.57
378.827	422.53
379.208	420.27
379.588	445.58
379.968	443.77
380.349	437.45
380.729	431.12
381.109	464.34
381.489	440.16
381.87	452.59
382.25	440.16
382.63	451.46
383.01	441.06
383.39	458.01
383.77	467.05
384.15	455.3
384.53	451.91
384.91	456.43
385.29	483.09
385.67	479.7
386.049	490.78
386.429	457.33
386.809	500.95
387.189	471.57
387.568	488.07
387.948	471.34
388.328	501.4
388.707	476.54
389.087	500.04
389.466	513.38
389.846	504.56
390.225	516.09
390.605	520.61
390.984	527.61
391.363	505.69
391.743	521.96
392.122	529.65
392.501	519.7
392.881	520.16
393.26	548.18
393.639	535.07
394.018	546.37
394.397	532.58
394.776	565.13
395.155	587.72
395.534	565.8
395.913	566.03
396.292	586.14
396.671	563.77
397.05	603.77
397.429	583.88
397.808	582.53
398.186	591.79
398.565	610.1
398.944	596.76
399.323	588.63
399.701	608.52
400.08	593.15
400.458	633.15
400.837	610.32
401.215	630.21
401.594	641.96
401.972	631.57
402.351	613.49
402.729	625.01
403.107	636.76
403.486	642.64
403.864	663.43
404.242	665.91
404.62	642.19
404.999	671.11
405.377	681.96
405.755	684.45
406.133	696.87
406.511	693.26
406.889	710.21
407.267	705.01
407.645	729.64
408.023	705.46
408.401	733.26
408.779	742.07
409.156	760.38
409.534	754.95
409.912	773.71
410.29	774.39
410.667	788.4
411.045	799.47
411.422	817.55
411.8	810.32
412.178	834.95
412.555	808.06
412.933	841.28
413.31	835.4
413.687	842.41
414.065	846.47
414.442	864.78
414.819	866.14
415.197	890.09
415.574	907.72
415.951	898
416.328	899.35
416.705	917.43
417.082	899.81
417.46	921.05
417.837	935.74
418.214	922.63
418.591	944.33
418.967	969.18
419.344	974.16
419.721	960.37
420.098	970.31
420.475	972.12
420.852	990.43
421.228	1010.99
421.605	998.56
421.982	999.92
422.358	1024.55
422.735	1021.61
423.111	1040.82
423.488	1043.08
423.864	1061.84
424.241	1075.62
424.617	1086.47
424.994	1103.64
425.37	1141.38
425.746	1091.67
426.123	1089.18
426.499	1134.38
426.875	1144.32
427.251	1149.52
427.627	1169.86
428.003	1185.9
428.379	1170.53
428.756	1186.35
429.132	1227.03
429.507	1222.74
429.883	1242.4
430.259	1250.31
430.635	1294.15
431.011	1300.47
431.387	1311.55
431.763	1317.65
432.138	1333.02
432.514	1355.61
432.89	1347.48
433.265	1397.42
433.641	1403.3
434.016	1411.88
434.392	1438.32
434.767	1450.3
435.143	1448.49
435.518	1450.75
435.894	1485.55
436.269	1527.81
436.644	1521.26
437.02	1526.23
437.395	1508.38
437.77	1533.91
438.145	1590.64
438.52	1591.31
438.895	1593.35
439.271	1587.7
439.646	1623.86
440.021	1618.66
440.395	1674.7
440.77	1617.53
441.145	1653.01
441.52	1687.58
441.895	1680.8
442.27	1745.89
442.645	1716.06
443.019	1708.6
443.394	1723.06
443.769	1751.31
444.143	1743.4
444.518	1708.83
444.892	1760.58
445.267	1753.8
445.641	1784.08
446.016	1794.47
446.39	1829.05
446.764	1838.99
447.139	1784.76
447.513	1835.38
447.887	1828.37
448.262	1905.2
448.636	1886
449.01	1870.85
449.384	1912.89
449.758	1935.26
450.132	1951.76
450.506	1960.57
450.88	1976.61
451.254	1969.16
451.628	2014.35
452.002	2026.78
452.376	2020.46
452.75	2054.13
453.123	2097.97
453.497	2084.63
453.871	2152.2
454.244	2161.47
454.618	2173.9
454.992	2201.02
455.365	2233.56
455.739	2255.03
456.112	2296.38
456.486	2321.69
456.859	2335.48
457.232	2334.57
457.606	2392.87
457.979	2415.47
458.352	2468.81
458.725	2474.45
459.099	2492.53
459.472	2526.43
459.845	2576.37
460.218	2598.52
460.591	2641.23
460.964	2658.18
461.337	2708.12
461.71	2760.77
462.083	2732.3
462.456	2773.2
462.829	2756.93
463.201	2823.6
463.574	2807.1
463.947	2855.01
464.32	2917.15
464.692	3000.77
465.065	2970.03
465.438	2999.64
465.81	3037.15
466.183	3059.07
466.555	3164.38
466.928	3131.61
467.3	3134.32
467.672	3150.14
468.045	3281.67
468.417	3254.55
468.789	3301.33
469.161	3330.7
469.534	3383.36
469.906	3449.8
470.278	3445.5
470.65	3485.73
471.022	3570.47
471.394	3610.47
471.766	3624.48
472.138	3677.81
472.51	3770.92
472.882	3783.35
473.253	3866.96
473.625	3901.76
473.997	3954.19
474.369	4020.4
474.74	4054.07
475.112	4115.77
475.484	4188.76
475.855	4283.67
476.227	4244.58
476.598	4409.55
476.97	4427.4
477.341	4515.53
477.713	4599.82
478.084	4629.43
478.455	4728.63
478.827	4775.41
479.198	4952.81
479.569	4972.69
479.94	5087.95
480.311	5150.09
480.682	5215.4
481.053	5395.06
481.424	5481.83
481.795	5494.94
482.166	5650.19
482.537	5653.58
482.908	5783.07
483.279	5866.46
483.65	5978.09
484.021	6121.59
484.391	6188.93
484.762	6252.89
485.133	6316.39
485.503	6454.01
485.874	6571.75
486.244	6612.88
486.615	6731.97
486.985	6936.71
487.356	7016.26
487.726	7086.08
488.097	7239.98
488.467	7327.21
488.837	7471.16
489.207	7587.09
489.578	7718.38
489.948	7819.85
490.318	7970.81
490.688	7930.81
491.058	8203.57
491.428	8263.23
491.798	8325.83
492.168	8519.27
492.538	8669.55
492.908	8737.57
493.278	8960.39
493.648	8914.06
494.017	9078.12
494.387	9183.66
494.757	9264.11
495.126	9367.83
495.496	9455.06
495.866	9568.05
496.235	9690.31
496.605	9764.43
496.974	9915.39
497.344	9964.65
497.713	10013.69
498.082	10203.97
498.452	10316.73
498.821	10400.35
499.19	10450.52
499.559	10565.32
499.928	10622.26
500.298	10745.88
500.667	10848.25
501.036	10895.7
501.405	11030.39
501.774	11067
502.143	11136.37
502.512	11273.55
502.88	11393.09
503.249	11417.27
503.618	11583.37
503.987	11628.11
504.356	11600.09
504.724	11775
505.093	11830.14
505.462	12003.92
505.83	12013.64
506.199	12198.94
506.567	12382.67
506.936	12309.68
507.304	12511.25
507.672	12514.64
508.041	12632.61
508.409	12744.47
508.777	12878.02
509.145	13000.51
509.514	13001.64
509.882	13072.37
510.25	13081.18
510.618	13234.17
510.986	13284.11
511.354	13394.39
511.722	13492.02
512.09	13695.18
512.458	13661.05
512.826	13805.91
513.193	13878.22
513.561	13958.45
513.929	14000.71
514.297	14199.57
514.664	14355.5
515.032	14375.38
515.4	14509.62
515.767	14488.38
516.135	14677.07
516.502	14576.96
516.869	14974.24
517.237	14950.74
517.604	14893.34
517.972	15153.67
518.339	15300.78
518.706	15323.83
519.073	15273.21
519.44	15411.74
519.808	15625.75
520.175	15687.21
520.542	15968.11
520.909	15979.18
521.276	16044.95
521.643	16244.71
522.009	16300.76
522.376	16516.35
522.743	16654.87
523.11	16763.12
523.477	16949.33
523.843	17002.21
524.21	17301.64
524.577	17335.31
524.943	17510.67
525.31	17562.42
525.676	17808.51
526.043	18003.31
526.409	17929.42
526.776	18213.7
527.142	18243.98
527.508	18479.46
527.874	18588.16
528.241	18640.13
528.607	18812.78
528.973	19132.32
529.339	18984.3
529.705	19294.58
530.071	19448.02
530.437	19559.43
530.803	19623.38
531.169	19720.33
531.535	19841
531.901	19904.5
532.267	20055.91
532.632	20285.74
532.998	20241.9
533.364	20327.77
533.73	20461.55
534.095	20556.01
534.461	20723.69
534.826	20728.44
535.192	20795.78
535.557	20973.18
535.923	21078.26
536.288	21131.14
536.653	21283.9
537.019	21206.39
537.384	21340.4
537.749	21424.69
538.114	21571.81
538.479	21570
538.845	21687.51
539.21	21535.65
539.575	21647.51
539.94	21803.44
540.305	21968.18
540.67	21943.55
541.034	21953.72
541.399	22025.13
541.764	22137.89
542.129	22219.7
542.494	22201.62
542.858	22482.06
543.223	22310.32
543.587	22484.1
543.952	22602.51
544.316	22652.23
544.681	22659.69
545.045	22746.01
545.41	22757.54
545.774	22849.96
546.138	22963.86
546.503	22993.01
546.867	23132.44
547.231	23247.92
547.595	23218.77
547.959	23283.85
548.324	23335.6
548.688	23432.77
549.052	23488.59
549.416	23477.97
549.779	23633.45
550.143	23583.96
550.507	23773.78
550.871	23820.33
551.235	23879.99
551.599	24021.23
551.962	24094.23
552.326	24102.81
552.689	24322.47
553.053	24115.92
553.417	24175.81
553.78	24541.45
554.143	24470.49
554.507	24607.88
554.87	24717.26
555.234	24889.23
555.597	24750.03
555.96	24949.12
556.323	25056.23
556.686	25107.98
557.05	25220.75
557.413	25266.4
557.776	25193.63
558.139	25516.79
558.502	25563.57
558.865	25695.99
559.228	25828.64
559.59	25860.05
559.953	26060.5
560.316	26332.58
560.679	26310.66
561.041	26542.3
561.404	26515.4
561.767	26827.71
562.129	26768.51
562.492	27016.86
562.854	26967.14
563.217	27116.52
563.579	27217.76
563.941	27384.31
564.304	27531.42
564.666	27840.79
565.028	27816.84
565.39	27908.14
565.753	28097.74
566.115	28171.63
566.477	28398.74
566.839	28528.01
567.201	28803.03
567.563	28798.51
567.925	28954.66
568.287	29048.9
568.648	29170.48
569.01	29448.89
569.372	29830.57
569.734	29704.7
570.095	29942.66
570.457	30083.22
570.819	30224.23
571.18	30174.74
571.542	30452.02
571.903	30630.78
572.265	30838.23
572.626	31017.43
572.987	31033.03
573.349	31324.77
573.71	31307.59
574.071	31592.56
574.432	31787.58
574.794	32063.06
575.155	31982.15
575.516	32061.02
575.877	32235.71
576.238	32538.07
576.599	32627.56
576.96	32597.96
577.32	32825.75
577.681	32920.43
578.042	33053.99
578.403	33132.86
578.763	33293.98
579.124	33378.05
579.485	33657.14
579.845	33881.09
580.206	33812.16
580.566	33968.99
580.927	34175.09
581.287	34189.33
581.648	34156.11
582.008	34361.75
582.368	34745.47
582.728	34715.41
583.089	34689.88
583.449	34852.59
583.809	35045.58
584.169	35217.77
584.529	35168.28
584.889	35535.28
585.249	35405.11
585.609	35575.73
585.969	35956.74
586.329	36056.85
586.688	36321.25
587.048	36395.6
587.408	36472.43
587.768	36746.32
588.127	37037.61
588.487	37079.42
588.846	37609.8
589.206	37383.37
589.565	37756.01
589.925	38104.03
590.284	38171.14
590.643	38446.84
591.003	38742.2
591.362	38902.2
591.721	39171.34
592.08	39391.68
592.44	39800.48
592.799	39960.93
593.158	40173.35
593.517	40367.24
593.876	40682.72
594.235	40898.08
594.593	41088.13
594.952	41524.5
595.311	41712.29
595.67	41968.56
596.029	42517.24
596.387	42658.93
596.746	43063.22
597.104	43051.24
597.463	43318.35
597.822	43805.35
598.18	43795.63
598.538	44189.06
598.897	44517.87
599.255	44601.71
599.613	45354.46
599.972	45128.47
600.33	45647.1
600.688	45665.41
601.046	46132.52
601.404	46540.87
601.762	46716.23
602.12	46868.32
602.478	47237.8
602.836	47304.91
603.194	47400.73
603.552	47646.37
603.91	47946.71
604.268	48261.73
604.625	48333.81
604.983	48693.8
605.341	48512.79
605.698	49066
606.056	49419.89
606.413	49286.33
606.771	49710.27
607.128	49813.77
607.485	49803.38
607.843	50099.19
608.2	50373.99
608.557	50590.03
608.914	50759.29
609.272	50972.16
609.629	51152.72
609.986	51299.61
610.343	51384.58
610.7	51691.24
611.057	51773.72
611.414	51798.58
611.771	51996.09
612.127	52168.74
612.484	52263.65
612.841	52432.24
613.198	52436.08
613.554	52447.6
613.911	52763.3
614.267	52866.35
614.624	52946.35
614.98	53054.37
615.337	53309.95
615.693	53315.15
616.05	53341.37
616.406	53522.15
616.762	53526.67
617.118	53685.31
617.475	53747.91
617.831	53861.58
618.187	53941.58
618.543	53956.94
618.899	54300.21
619.255	54245.07
619.611	54285.97
619.967	54441.68
620.323	54551.05
620.678	54512.18
621.034	54489.81
621.39	54504.95
621.746	54671.05
622.101	54990.36
622.457	54770.48
622.812	54965.5
623.168	54956.69
623.523	54884.6
623.879	55111.04
624.234	54843.7
624.589	55117.36
624.945	55127.76
625.3	55152.84
625.655	55223.12
626.01	55388.54
626.365	55303.8
626.72	55214.76
627.075	55272.61
627.43	55307.19
627.785	55197.36
628.14	55357.36
628.495	55384.7
628.85	55476.9
629.205	55337.02
629.559	55480.07
629.914	55319.62
630.269	55374.31
630.623	55269.9
630.978	55158.72
631.332	55363.46
631.687	55444.59
632.041	55365.04
632.396	55331.6
632.75	55323.91
633.104	55339.73
633.459	55257.93
633.813	55161.66
634.167	55247.53
634.521	55235.1
634.875	55245.95
635.229	55175.44
635.583	55101.77
635.937	55098.61
636.291	55105.84
636.645	55085.5
636.999	55051.83
637.352	55042.79
637.706	54847.54
638.06	55049.8
638.413	54932.06
638.767	54857.48
639.121	54984.49
639.474	54879.86
639.828	54855
640.181	54833.76
640.534	54864.26
640.888	54699.75
641.241	54628.79
641.594	54660.88
641.947	54768.45
642.301	54587.43
642.654	54650.26
643.007	54510.15
643.36	54618.85
643.713	54510.37
644.066	54681.67
644.419	54455.69
644.771	54236.71
645.124	53932.54
645.477	53903.61
645.83	53801.92
646.182	53797.17
646.535	53694.58
646.888	53757.17
647.24	53796.04
647.593	53873.78
647.945	53765.31
648.298	53692.09
648.65	53505.43
649.002	53348.15
649.355	53303.17
649.707	53161.26
650.059	53216.17
650.411	53749.49
650.763	53831.3
651.115	54208.69
651.467	54132.31
651.819	54167.56
652.171	54144.73
652.523	54017.96
652.875	54084.4
653.227	53876.04
653.578	54128.01
653.93	54090.27
654.282	53862.03
654.633	53958.07
654.985	53917.17
655.337	53945.19
655.688	53945.42
656.039	54087.79
656.391	53716.27
656.742	53912.88
657.094	53882.37
657.445	53878.75
657.796	53906.1
658.147	53806.89
658.498	53851.63
658.849	53821.13
659.2	53811.64
659.551	53723.5
659.902	53948.36
660.253	53735.71
660.604	53916.49
660.955	53683.05
661.306	53888.24
661.656	53708.59
662.007	53792.2
662.358	53765.99
662.708	53904.29
663.059	53775.48
663.409	53632.21
663.76	53790.17
664.11	53854.8
664.461	53817.51
664.811	53913.55
665.161	53779.32
665.511	53790.39
665.862	53798.53
666.212	53838.75
666.562	53873.1
666.912	53864.29
667.262	53697.97
667.612	53769.83
667.962	53872.65
668.312	53744.29
668.662	53924.63
669.011	53877.4
669.361	53803.05
669.711	53853.89
670.06	53650.96
670.41	53610.96
670.76	53689.61
671.109	53873.56
671.459	53661.36
671.808	53774.35
672.157	53736.16
672.507	53591.98
672.856	53621.36
673.205	53636.27
673.554	53681.7
673.904	53595.82
674.253	53846.44
674.602	53646.89
674.951	53109.96
675.3	53081.03
675.649	53553.79
675.998	53489.61
676.346	53490.51
676.695	53620.68
677.044	53403.06
677.393	53403.29
677.741	53570.74
678.09	53409.84
678.438	53322.84
678.787	53500.46
679.135	53411.42
679.484	53199.45
679.832	53328.03
680.181	53278.99
680.529	53245.55
680.877	53134.14
681.225	53110.41
681.573	53348.15
681.922	53068.15
682.27	53025.22
682.618	52949.74
682.966	52846.92
683.314	52946.12
683.661	52856.18
684.009	52714.26
684.357	52695.28
684.705	52644.89
685.053	52655.96
685.4	52557.66
685.748	52495.06
686.095	52459.81
686.443	52353.82
686.79	52238.12
687.138	52268.63
687.485	52384.1
687.832	52140.72
688.18	52086.48
688.527	51941.85
688.874	51966.71
689.221	51845.59
689.568	51715.42
689.915	51547.51
690.262	51647.85
690.609	51505.03
690.956	51550.45
691.303	51454.18
691.65	51164.25
691.997	51329.89
692.344	51156.11
692.69	50991.37
693.037	50950.92
693.383	50711.83
693.73	50811.49
694.077	50521.78
694.423	50572.17
694.769	50395.23
695.116	50397.94
695.462	50272.07
695.808	50061.68
696.155	50254.44
696.501	49798.18
696.847	49936.03
697.193	49690.61
697.539	49696.72
697.885	49482.03
698.231	49332.88
698.577	49220.8
698.923	49280.91
699.269	48938.54
699.614	48847.7
699.96	48744.42
700.306	48762.5
700.651	48545.11
700.997	48440.48
701.342	48288.17
701.688	48139.24
702.033	48026.48
702.379	48043.2
702.724	47798.23
703.069	47960.49
703.415	47399.15
703.76	47512.82
704.105	47496.1
704.45	47256.33
704.795	47118.25
705.14	46935.66
705.485	46976.79
705.83	46717.36
706.175	46967.07
706.52	46657.47
706.865	46448.44
707.209	46306.52
707.554	46267.43
707.899	46286.64
708.243	46048.9
708.588	45948.11
708.932	45685.07
709.277	45886.87
709.621	45586.77
709.966	45373.44
710.31	45410.73
710.654	45212.99
710.998	45292.99
711.342	45234.91
711.687	45146.33
712.031	45018.19
712.375	44770.97
712.719	44813
713.063	44600.35
713.407	44860.91
713.75	44553.8
714.094	44591.31
714.438	44422.96
714.782	44396.52
715.125	44255.73
715.469	44398.1
715.812	44071.33
716.156	43945
716.499	44040.59
716.843	44054.38
717.186	43806.7
717.53	43956.75
717.873	43905.23
718.216	43877.89
718.559	43728.29
718.902	43316.54
719.246	43450.1
719.589	43396.99
719.932	43301.86
720.275	43239.48
720.617	43279.26
720.96	43119.94
721.303	43134.18
721.646	43186.38
721.989	43055.76
722.331	43019.6
722.674	43046.5
723.016	43015.99
723.359	42771.7
723.701	42839.5
724.044	42622.33
724.386	42557.02
724.729	42930.11
725.071	42672.27
725.413	42748.42
725.755	42624.36
726.097	42429.11
726.439	42425.95
726.782	42491.93
727.124	42624.13
727.465	42492.84
727.807	42424.82
728.149	42510.92
728.491	42408.32
728.833	42404.03
729.175	42276.8
729.516	42159.06
729.858	42156.58
730.199	42354.08
730.541	42208.33
730.882	42185.05
731.224	42199.74
731.565	42118.38
731.906	42243.58
732.248	42300.75
732.589	42151.6
732.93	42099.18
733.271	42251.94
733.612	42090.36
733.953	42294.42
734.294	42027.09
734.635	42080.19
734.976	42198.83
735.317	42006.07
735.658	42003.36
735.999	41999.07
736.339	41941.67
736.68	42052.85
737.021	42197.7
737.361	41942.8
737.702	42213.75
738.042	42145.95
738.383	42276.12
738.723	42334.2
739.063	42280.19
739.404	42377.13
739.744	42337.81
740.084	42167.42
740.424	42399.73
740.764	42367.42
741.104	42512.27
741.444	42452.84
741.784	42347.76
742.124	42478.83
742.464	42508.66
742.804	42487.87
743.143	42527.41
743.483	42648.99
743.823	42500.52
744.162	42565.15
744.502	42682.66
744.841	42660.06
745.181	42929.66
745.52	42745.03
745.86	42920.4
746.199	42925.82
746.538	43015.99
746.877	43268.86
747.216	43130.33
747.556	43310.9
747.895	43287.17
748.234	43413.94
748.573	43278.58
748.911	43358.8
749.25	43631.34
749.589	43500.04
749.928	43703.2
750.267	43846.7
750.605	43735.74
750.944	43879.47
751.283	43908.17
751.621	44122.63
751.96	43993.36
752.298	44047.37
752.636	44347.7
752.975	44253.02
753.313	44469.06
753.651	44709.28
753.989	44563.29
754.327	44707.69
754.666	44533.01
755.004	44857.97
