Data from 18-1248_FLMS001491_007.txt Node
Date: Thu Apr 19 16:24:37 BST 2018
User: hsy
Spectrometer: FLMS00149
Trigger mode: 0
Integration Time (sec): 1.000000E-2
Scans to average: 10
Electric dark correction enabled: true
Nonlinearity correction enabled: false
Boxcar width: 0
XAxis mode: Wavelengths
Number of Pixels in Spectrum: 2048
>>>>>Begin Spectral Data<<<<<
341.393	-11.04
341.776	-11.04
342.16	-11.04
342.543	-55.56
342.927	-69.8
343.31	-81.55
343.693	-86.75
344.077	-56.47
344.46	-45.39
344.843	-53.08
345.226	-46.52
345.61	-31.38
345.993	-27.32
346.376	-14.66
346.759	8.62
347.142	16.98
347.525	82.96
347.908	39.58
348.291	65.34
348.674	103.75
349.057	125.9
349.44	132.23
349.823	153.47
350.206	167.26
350.588	237.76
350.971	250.64
351.354	252.23
351.737	275.5
352.119	296.97
352.502	303.07
352.884	317.31
353.267	338.32
353.65	338.55
354.032	348.04
354.414	355.27
354.797	368.15
355.179	368.15
355.562	346.23
355.944	360.7
356.326	363.63
356.709	383.3
357.091	374.26
357.473	387.81
357.855	382.39
358.238	390.53
358.62	385.33
359.002	388.94
359.384	390.07
359.766	376.06
360.148	407.93
360.53	380.36
360.912	381.26
361.294	387.59
361.676	390.3
362.057	387.59
362.439	357.98
362.821	388.94
363.203	381.71
363.584	371.32
363.966	371.54
364.348	376.74
364.729	381.94
365.111	389.62
365.493	398.21
365.874	377.65
366.256	367.48
366.637	367.93
367.019	358.21
367.4	364.99
367.781	372.9
368.163	352.79
368.544	387.81
368.925	388.04
369.306	384.88
369.688	359.79
370.069	378.32
370.45	390.07
370.831	373.58
371.212	358.89
371.593	377.87
371.974	376.74
372.355	375.39
372.736	391.43
373.117	390.3
373.498	371.54
373.879	388.94
374.26	398.89
374.641	381.49
375.021	388.27
375.402	420.81
375.783	396.63
376.163	426.68
376.544	419.45
376.925	411.09
377.305	415.16
377.686	409.96
378.066	380.58
378.447	415.61
378.827	415.16
379.208	407.93
379.588	431.66
379.968	426.23
380.349	423.97
380.729	409.73
381.109	423.52
381.489	429.4
381.87	430.53
382.25	437.3
382.63	424.88
383.01	422.16
383.39	422.84
383.77	426.91
384.15	440.02
384.53	470.98
384.91	467.81
385.29	458.32
385.67	458.1
386.049	454.71
386.429	478.43
386.809	487.7
387.189	475.27
387.568	457.19
387.948	479.79
388.328	469.85
388.707	483.41
389.087	493.8
389.466	499.45
389.846	490.41
390.225	511.65
390.605	517.3
390.984	505.78
391.363	513.24
391.743	501.26
392.122	520.01
392.501	496.51
392.881	525.44
393.26	543.06
393.639	521.37
394.018	543.52
394.397	547.36
394.776	552.1
395.155	544.87
395.534	548.49
395.913	556.85
396.292	551.65
396.671	564.08
397.05	554.14
397.429	565.89
397.808	576.06
398.186	576.96
398.565	591.88
398.944	567.92
399.323	595.72
399.701	570.63
400.08	588.71
400.458	599.56
400.837	578.54
401.215	620.8
401.594	611.99
401.972	628.26
402.351	608.37
402.729	616.28
403.107	636.85
403.486	622.38
403.864	645.21
404.242	628.03
404.62	646.34
404.999	672.33
405.377	654.47
405.755	670.97
406.133	675.04
406.511	705.77
406.889	679.11
407.267	692.44
407.645	690.86
408.023	692.44
408.401	700.57
408.779	727.47
409.156	717.52
409.534	726.79
409.912	734.25
410.29	741.25
410.667	771.76
411.045	752.78
411.422	790.06
411.8	769.73
412.178	767.92
412.555	783.51
412.933	822.15
413.31	817.18
413.687	814.7
414.065	823.28
414.442	835.26
414.819	857.63
415.197	839.78
415.574	866.22
415.951	852.89
416.328	876.16
416.705	871.87
417.082	886.78
417.46	896.05
417.837	894.02
418.214	898.54
418.591	908.7
418.967	916.39
419.344	919.78
419.721	934.24
420.098	962.04
420.475	957.97
420.852	960.68
421.228	958.65
421.605	947.35
421.982	954.13
422.358	994.13
422.735	970.85
423.111	1016.5
423.488	963.84
423.864	1001.81
424.241	1024.86
424.617	1050.62
424.994	1042.94
425.37	1044.97
425.746	1046.78
426.123	1084.75
426.499	1078.87
426.875	1087.46
427.251	1106.21
427.627	1136.72
428.003	1094.46
428.379	1134.91
428.756	1179.88
429.132	1150.05
429.507	1150.96
429.883	1180.34
430.259	1191.64
430.635	1218.3
431.011	1207.68
431.387	1274.12
431.763	1266.44
432.138	1277.06
432.514	1294.68
432.89	1285.42
433.265	1329.26
433.641	1327.68
434.016	1351.18
434.392	1357.96
434.767	1388.92
435.143	1386.66
435.518	1412.19
435.894	1425.08
436.269	1450.16
436.644	1453.78
437.02	1485.41
437.395	1472.98
437.77	1497.62
438.145	1491.06
438.52	1499.2
438.895	1520.44
439.271	1533.32
439.646	1540.55
440.021	1569.93
440.395	1571.74
440.77	1550.5
441.145	1596.37
441.52	1599.31
441.895	1636.6
442.27	1639.53
442.645	1608.35
443.019	1661.23
443.394	1663.04
443.769	1642.92
444.143	1633.88
444.518	1662.13
444.892	1683.15
445.267	1699.19
445.641	1720.89
446.016	1693.54
446.39	1719.98
446.764	1724.73
447.139	1734.9
447.513	1774.22
447.887	1767.89
448.262	1792.75
448.636	1782.58
449.01	1802.01
449.384	1807.21
449.758	1847.66
450.132	1844.73
450.506	1868.23
450.88	1910.03
451.254	1874.56
451.628	1945.29
452.002	1936.02
452.376	1941.45
452.75	1957.04
453.123	1985.06
453.497	2004.72
453.871	2017.15
454.244	2060.09
454.618	2088.56
454.992	2067.09
455.365	2115.45
455.739	2135.11
456.112	2156.13
456.486	2180.76
456.859	2190.03
457.232	2243.81
457.606	2272.96
457.979	2323.58
458.352	2307.99
458.725	2359.29
459.099	2378.27
459.472	2416.24
459.845	2451.26
460.218	2447.2
460.591	2484.93
460.964	2515.67
461.337	2496.46
461.71	2619.17
462.083	2631.37
462.456	2645.83
462.829	2625.27
463.201	2717.02
463.574	2665.95
463.947	2690.58
464.32	2752.5
464.692	2785.27
465.065	2777.58
465.438	2832.5
465.81	2899.39
466.183	2869.78
466.555	2951.36
466.928	2980.29
467.3	2983.9
467.672	3007.63
468.045	3062.77
468.417	3088.08
468.789	3078.37
469.161	3129.21
469.534	3251.47
469.906	3249.21
470.278	3241.52
470.65	3312.71
471.022	3370.56
471.394	3409.88
471.766	3410.79
472.138	3471.8
472.51	3578.47
472.882	3578.69
473.253	3613.72
473.625	3609.88
473.997	3729.87
474.369	3760.38
474.74	3795.63
475.112	3877.44
475.484	3884.45
475.855	3985.69
476.227	4005.57
476.598	4145.68
476.97	4169.64
477.341	4240.37
477.713	4302.06
478.084	4337.09
478.455	4467.03
478.827	4488.72
479.198	4591.77
479.569	4605.78
479.94	4754.25
480.311	4791.77
480.682	4912.44
481.053	5018.88
481.424	5086.45
481.795	5149.05
482.166	5263.39
482.537	5278.76
482.908	5389.72
483.279	5499.77
483.65	5600.56
484.021	5658.41
484.391	5717.62
484.762	5783.38
485.133	5914.45
485.503	5991.06
485.874	6141.34
486.244	6169.58
486.615	6323.7
486.985	6394.89
487.356	6528.44
487.726	6609.12
488.097	6711.94
488.467	6771.15
488.837	6898.6
489.207	6952.84
489.578	7128.43
489.948	7241.65
490.318	7364.35
490.688	7391.7
491.058	7573.84
491.428	7638.7
491.798	7747.62
492.168	7914.62
492.538	8006.15
492.908	8080.49
493.278	8191.23
493.648	8231.68
494.017	8408.39
494.387	8495.4
494.757	8550.76
495.126	8727.93
495.496	8764.54
495.866	8913.01
496.235	9011.09
496.605	9026.23
496.974	9109.62
497.344	9252.21
497.713	9391.65
498.082	9424.87
498.452	9519.1
498.821	9642.03
499.19	9623.28
499.559	9764.29
499.928	9837.74
500.298	9930.16
500.667	10035.02
501.036	10094.45
501.405	10145.3
501.774	10185.98
502.143	10297.84
502.512	10396.59
502.88	10465.74
503.249	10524.95
503.618	10626.42
503.987	10700.99
504.356	10795
504.724	10922.68
505.093	10938.95
505.462	11010.13
505.83	11040.87
506.199	11203.58
506.567	11362.22
506.936	11347.53
507.304	11468.65
507.672	11562.89
508.041	11620.97
508.409	11588.88
508.777	11822.09
509.145	11892.6
509.514	11895.76
509.882	12001.07
510.25	12162.87
510.618	12266.82
510.986	12237.9
511.354	12363.77
511.722	12481.73
512.09	12574.39
512.458	12583.88
512.826	12775.96
513.193	12782.74
513.561	12823.19
513.929	12940.93
514.297	13123.52
514.664	13123.3
515.032	13263.63
515.4	13369.85
515.767	13417.98
516.135	13503.85
516.502	13459.11
516.869	13746.33
517.237	13787.69
517.604	13775.94
517.972	13938.19
518.339	14000.11
518.706	14089.6
519.073	14167.79
519.44	14266.09
519.808	14455.92
520.175	14477.16
520.542	14627.89
520.909	14664.05
521.276	14807.77
521.643	15017.26
522.009	15107.43
522.376	15202.34
522.743	15322.56
523.11	15456.35
523.477	15538.15
523.843	15626.28
524.21	15856.56
524.577	15981.75
524.943	16030.57
525.31	16156.89
525.676	16353.04
526.043	16497.9
526.409	16547.84
526.776	16737.67
527.142	16857.44
527.508	16930.88
527.874	17152.35
528.241	17253.59
528.607	17371.1
528.973	17529.28
529.339	17534.71
529.705	17726.79
530.071	17898.31
530.437	18025.32
530.803	18111.87
531.169	18196.16
531.535	18246.78
531.901	18399.09
532.267	18403.84
532.632	18594.57
532.998	18724.73
533.364	18731.51
533.73	18825.52
534.095	18924.73
534.461	18996.14
534.826	19229.35
535.192	19169.02
535.557	19327.66
535.923	19423.02
536.288	19615.56
536.653	19667.76
537.019	19648.33
537.384	19751.37
537.749	19864.36
538.114	19964.93
538.479	19959.05
538.845	20046.05
539.21	19982.78
539.575	20145.49
539.94	20196.33
540.305	20387.97
540.67	20412.82
541.034	20345.93
541.399	20481.75
541.764	20471.35
542.129	20565.14
542.494	20696.21
542.858	20829.09
543.223	20787.05
543.587	20959.7
543.952	20887.84
544.316	21032.24
544.681	21067.72
545.045	21131
545.41	21277.43
545.774	21227.94
546.138	21336.19
546.503	21389.52
546.867	21356.75
547.231	21520.14
547.595	21588.39
547.959	21714.03
548.324	21694.15
548.688	21737.99
549.052	21789.74
549.416	21822.51
549.779	21877.19
550.143	21986.34
550.507	22119.45
550.871	22191.76
551.235	22248.03
551.599	22336.16
551.962	22388.59
552.326	22440.34
552.689	22524.18
553.053	22476.27
553.417	22583.62
553.78	22820.45
554.143	22727.57
554.507	22850.05
554.87	22994.68
555.234	23141.11
555.597	23126.2
555.96	23286.87
556.323	23315.57
556.686	23365.29
557.05	23558.5
557.413	23441.67
557.776	23654.55
558.139	23681.21
558.502	23866.97
558.865	23802.34
559.228	24050.47
559.59	24072.84
559.953	24163.69
560.316	24541.08
560.679	24539.95
561.041	24595.54
561.404	24704.92
561.767	25014.74
562.129	24877.11
562.492	25152.14
562.854	25182.87
563.217	25315.07
563.579	25329.53
563.941	25517.32
564.304	25658.11
564.666	25914.83
565.028	25935.62
565.39	26035.95
565.753	26118.21
566.115	26307.81
566.477	26384.42
566.839	26555.71
567.201	26722.04
567.563	26734.47
567.925	27019.66
568.287	27120.9
568.648	27223.49
569.01	27476.14
569.372	27793.87
569.734	27720.66
570.095	27820.77
570.457	28078.16
570.819	28118.16
571.18	28174.2
571.542	28380.98
571.903	28487.87
572.265	28698.48
572.626	28817.35
572.987	28945.48
573.349	29149.09
573.71	29237.23
574.071	29479.71
574.432	29742.07
574.794	29935.51
575.155	29999.47
575.516	29943.87
575.877	30062.29
576.238	30192
576.599	30434.03
576.96	30533.01
577.32	30599.45
577.681	30770.74
578.042	30967.12
578.403	31031.53
578.763	31130.28
579.124	31196.95
579.485	31384.51
579.845	31565.3
580.206	31587.45
580.566	31779.76
580.927	31786.54
581.287	32085.51
581.648	32009.13
582.008	32305.17
582.368	32250.03
582.728	32340.87
583.089	32639.62
583.449	32650.24
583.809	32889.33
584.169	33108.76
584.529	33163.68
584.889	33401.86
585.249	33298.36
585.609	33493.38
585.969	33779.71
586.329	33849.53
586.688	34174.27
587.048	34185.57
587.408	34325.91
587.768	34660.59
588.127	34751.2
588.487	34919.11
588.846	35457.85
589.206	35309.38
589.565	35649.94
589.925	36024.17
590.284	36112.07
590.643	36282.01
591.003	36611.49
591.362	37013.07
591.721	37126.51
592.08	37359.95
592.44	37811.01
592.799	37963.32
593.158	38197.67
593.517	38312.47
593.876	38662.51
594.235	38730.99
594.593	39220.01
594.952	39560.57
595.311	39706.1
595.67	40096.15
596.029	40507.66
596.387	40867.43
596.746	41143.35
597.104	41132.05
597.463	41362.56
597.822	42028.75
598.18	42066.27
598.538	42305.13
598.897	42769.75
599.255	42717.78
599.613	43446.34
599.972	43459.22
600.33	43784.41
600.688	43957.52
601.046	44334
601.404	44837.49
601.762	44927.66
602.12	45294.66
602.478	45504.37
602.836	45644.93
603.194	45734.64
603.552	46050.57
603.91	46211.47
604.268	46571.23
604.625	46637.45
604.983	47090.09
605.341	47049.41
605.698	47579.34
606.056	47799.45
606.413	47785.66
606.771	48139.1
607.128	48423.39
607.485	48275.37
607.843	48643.49
608.2	48990.38
608.557	49164.84
608.914	49382.46
609.272	49513.3
609.629	49884.59
609.986	49980.41
610.343	50115.09
610.7	50450.23
611.057	50511.02
611.414	50536.78
611.771	50867.62
612.127	50873.72
612.484	51044.34
612.841	51278.68
613.198	51343.31
613.554	51431.44
613.911	51745.79
614.267	51887.03
614.624	51860.13
614.98	52081.14
615.337	52231.2
615.693	52239.11
616.05	52267.35
616.406	52555.93
616.762	52531.08
617.118	52567.23
617.475	52762.71
617.831	52869.15
618.187	52952.99
618.543	53104.39
618.899	53273.2
619.255	53259.19
619.611	53273.88
619.967	53491.28
620.323	53564.72
620.678	53594.33
621.034	53617.6
621.39	53657.15
621.746	53694.21
622.101	53954.77
622.457	53724.94
622.812	53994.09
623.168	54039.51
623.523	54018.72
623.879	54125.16
624.234	54060.3
624.589	54190.24
624.945	54254.19
625.3	54340.07
625.655	54298.26
626.01	54469.33
626.365	54384.59
626.72	54446.05
627.075	54368.09
627.43	54489.44
627.785	54415.09
628.14	54504.81
628.495	54559.5
628.85	54551.59
629.205	54496
629.559	54559.5
629.914	54419.84
630.269	54453.74
630.623	54416
630.978	54420.07
631.332	54654.41
631.687	54568.08
632.041	54454.19
632.396	54507.3
632.75	54425.04
633.104	54411.7
633.459	54373.29
633.813	54354.76
634.167	54326.96
634.521	54436.56
634.875	54510.69
635.229	54249.9
635.583	54129.45
635.937	54225.72
636.291	54220.07
636.645	54280.18
636.999	54152.95
637.352	54218.72
637.706	53988.89
638.06	54091.49
638.413	54055.78
638.767	53998.83
639.121	54055.56
639.474	53911.61
639.828	53900.76
640.181	53881.32
640.534	53961.77
640.888	53842.23
641.241	53755.68
641.594	53810.36
641.947	53841.55
642.301	53747.77
642.654	53825.05
643.007	53646.3
643.36	53768.78
643.713	53639.07
644.066	53856.69
644.419	53635
644.771	53343.71
645.124	53031.4
645.477	53063.72
645.83	52941.46
646.182	52908.69
646.535	52800.9
646.888	52979.2
647.24	52826.21
647.593	53002.02
647.945	52776.72
648.298	52639.55
648.65	52630.73
649.002	52516.16
649.355	52369.27
649.707	52323.4
650.059	52341.02
650.411	52680.45
650.763	52974.45
651.115	53283.82
651.467	53325.86
651.819	53238.63
652.171	53237.05
652.523	53096.26
652.875	53197.27
653.227	53013.32
653.578	53238.85
653.93	53182.58
654.282	53029.82
654.633	52977.39
654.985	53133.32
655.337	53155.24
655.688	53149.37
656.039	53128.57
656.391	52891.52
656.742	53005.41
657.094	52963.61
657.445	52999.31
657.796	53110.27
658.147	52974.68
658.498	53103.49
658.849	53111.85
659.2	52985.75
659.551	52929.03
659.902	53206.99
660.253	52997.96
660.604	53192.53
660.955	53045.87
661.306	53120.21
661.656	53009.48
662.007	53087.67
662.358	53040.22
662.708	53049.48
663.059	53043.83
663.409	52875.25
663.76	53054.68
664.11	52993.66
664.461	53037.5
664.811	52990.73
665.161	53028.92
665.511	52980.78
665.862	52976.49
666.212	53114.34
666.562	53131.06
666.912	53033.89
667.262	52815.36
667.612	52954.79
667.962	52932.87
668.312	52978.97
668.662	53038.86
669.011	53042.48
669.361	52919.31
669.711	53030.72
670.06	52894.91
670.41	52805.19
670.76	52871.86
671.109	52964.06
671.459	52840.45
671.808	52860.11
672.157	52978.07
672.507	52797.51
672.856	52803.61
673.205	52795.25
673.554	52877.06
673.904	52726.78
674.253	53013.1
674.602	52716.83
674.951	52372.66
675.3	52143.74
675.649	52734.69
675.998	52651.75
676.346	52647.23
676.695	52790.73
677.044	52539.66
677.393	52536.05
677.741	52695.82
678.09	52690.39
678.438	52432.77
678.787	52547.35
679.135	52582.6
679.484	52380.12
679.832	52478.65
680.181	52398.65
680.529	52359.78
680.877	52282.27
681.225	52259.45
681.573	52500.79
681.922	52217.41
682.27	52134.48
682.618	52184.19
682.966	51983.97
683.314	52168.37
683.661	52088.38
684.009	51944.43
684.357	51802.51
684.705	51732.45
685.053	51783.07
685.4	51685.45
685.748	51567.26
686.095	51648.61
686.443	51408.17
686.79	51380.15
687.138	51487.26
687.485	51326.59
687.832	51231.68
688.18	51170.21
688.527	51046.6
688.874	51063.09
689.221	51018.35
689.568	50876.66
689.915	50802.08
690.262	50893.38
690.609	50717.56
690.956	50579.04
691.303	50639.6
691.65	50413.84
691.997	50277.35
692.344	50201.42
692.69	50089.56
693.037	50073.74
693.383	49756.23
693.73	49795.56
694.077	49626.07
694.423	49696.8
694.769	49572.96
695.116	49492.29
695.462	49362.57
695.808	49246.87
696.155	49225.63
696.501	48898.63
696.847	48928.01
697.193	48715.58
697.539	48827.44
697.885	48538.19
698.231	48398.3
698.577	48417.51
698.923	48264.3
699.269	48056.17
699.614	47904.98
699.96	47864.76
700.306	47801.03
700.651	47541.15
700.997	47463.64
701.342	47400.59
701.688	47276.3
702.033	46994.72
702.379	47168.73
702.724	46841.73
703.069	47001.96
703.415	46535.53
703.76	46517.68
704.105	46505.7
704.45	46290.56
704.795	46064.13
705.14	46092.6
705.485	46065.94
705.83	45755.21
706.175	45964.47
706.52	45559.51
706.865	45486.29
707.209	45451.94
707.554	45360.19
707.899	45329.68
708.243	45107.99
708.588	45126.75
708.932	44775.8
709.277	44951.61
709.621	44722.24
709.966	44319.31
710.31	44550.04
710.654	44218.53
710.998	44185.99
711.342	44177.85
711.687	44023.28
712.031	43959.1
712.375	43836.39
712.719	43658.54
713.063	43621.48
713.407	43807.46
713.75	43380.81
714.094	43441.82
714.438	43378.32
714.782	43354.82
715.125	43089.06
715.469	43328.83
715.812	42876.19
716.156	42963.64
716.499	42924.78
716.843	43004.1
717.186	42750.09
717.53	42902.85
717.873	42918
718.216	42819.02
718.559	42766.36
718.902	42324.11
719.246	42407.95
719.589	42330.21
719.932	42194.4
720.275	42211.8
720.617	42152.14
720.96	41977.23
721.303	42154.63
721.646	42118.02
721.989	42033.95
722.331	42008.64
722.674	41886.16
723.016	42057.91
723.359	41839.38
723.701	41856.33
724.044	41648.2
724.386	41685.71
724.729	41809.78
725.071	41828.76
725.413	41790.79
725.755	41495.66
726.097	41480.07
726.439	41381.09
726.782	41436.9
727.124	41593.51
727.465	41312.39
727.807	41283.91
728.149	41295.67
728.491	41314.42
728.833	41480.29
729.175	41336.57
729.516	41232.16
729.858	41282.56
730.199	41518.03
730.541	41476.9
730.882	41346.06
731.224	41347.19
731.565	41230.36
731.906	41253.18
732.248	41315.55
732.589	41175.67
732.93	41039.63
733.271	41155.56
733.612	41182
733.953	41298.15
734.294	41272.16
734.635	41014.54
734.976	41378.38
735.317	41239.4
735.658	41116.24
735.999	41158.04
736.339	41251.15
736.68	41295.89
737.021	41146.52
737.361	41246.18
737.702	41430.13
738.042	41169.34
738.383	41251.15
738.723	41498.6
739.063	41289.56
739.404	41529.56
739.744	41444.81
740.084	41520.74
740.424	41602.32
740.764	41451.14
741.104	41699.27
741.444	41570.91
741.784	41654.53
742.124	41821.08
742.464	41719.38
742.804	41829.66
743.143	41818.59
743.483	41972.03
743.823	41650.91
744.162	41821.53
744.502	42071.46
744.841	41927.06
745.181	42266.49
745.52	42041.18
745.86	42068.07
746.199	42231.01
746.538	42222.65
746.877	42436.43
747.216	42503.77
747.556	42568.63
747.895	42613.15
748.234	42639.36
748.573	42633.03
748.911	42706.93
749.25	42897.88
749.589	42777.43
749.928	43037.77
750.267	43181.04
750.605	43120.48
750.944	43331.77
751.283	43220.36
751.621	43508.26
751.96	43538.77
752.298	43587.13
752.636	43681.37
752.975	43738.54
753.313	43699.22
753.651	44072.32
753.989	44024.41
754.327	44060.79
