Data from 18-1248_FLMS001491_003.txt Node
Date: Thu Apr 19 16:24:29 BST 2018
User: hsy
Spectrometer: FLMS00149
Trigger mode: 0
Integration Time (sec): 1.000000E-2
Scans to average: 10
Electric dark correction enabled: true
Nonlinearity correction enabled: false
Boxcar width: 0
XAxis mode: Wavelengths
Number of Pixels in Spectrum: 2048
>>>>>Begin Spectral Data<<<<<
341.393	-19.97
341.776	-19.97
342.16	-19.97
342.543	-56.13
342.927	-48.22
343.31	-82.57
343.693	-74.89
344.077	-44.15
344.46	-66.98
344.843	-55.45
345.226	-48.45
345.61	-36.92
345.993	-5.96
346.376	-27.88
346.759	17.09
347.142	37.43
347.525	32.23
347.908	62.51
348.291	74.26
348.674	96.41
349.057	123.3
349.44	143.19
349.823	142.51
350.206	191.55
350.588	247.82
350.971	251.66
351.354	271.32
351.737	291.43
352.119	313.35
352.502	326.23
352.884	302.51
353.267	310.42
353.65	343.64
354.032	355.39
354.414	340.02
354.797	354.48
355.179	362.17
355.562	379.11
355.944	380.47
356.326	375.72
356.709	375.72
357.091	363.3
357.473	369.4
357.855	392
358.238	406.68
358.62	393.58
359.002	375.27
359.384	372.11
359.766	380.24
360.148	388.83
360.53	380.7
360.912	394.26
361.294	373.46
361.676	368.04
362.057	383.41
362.439	386.35
362.821	393.8
363.203	384.09
363.584	383.18
363.966	369.85
364.348	387.93
364.729	364.2
365.111	375.27
365.493	392.22
365.874	384.54
366.256	386.35
366.637	409.85
367.019	380.7
367.4	393.13
367.781	386.57
368.163	382.05
368.544	382.73
368.925	396.74
369.306	397.64
369.688	365.1
370.069	384.09
370.45	385.44
370.831	392.9
371.212	393.58
371.593	392
371.974	379.11
372.355	413.46
372.736	398.77
373.117	389.96
373.498	376.85
373.879	386.57
374.26	373.69
374.641	388.83
375.021	382.73
375.402	398.32
375.783	429.28
376.163	411.88
376.544	427.47
376.925	395.39
377.305	417.31
377.686	407.36
378.066	418.44
378.447	418.44
378.827	403.07
379.208	440.36
379.588	407.59
379.968	432.67
380.349	440.36
380.729	436.06
381.109	440.58
381.489	421.15
381.87	435.61
382.25	434.25
382.63	440.13
383.01	450.3
383.39	451.65
383.77	454.82
384.15	463.41
384.53	443.97
384.91	456.17
385.29	453.69
385.67	461.37
386.049	471.09
386.429	470.41
386.809	496.4
387.189	490.98
387.568	487.36
387.948	489.39
388.328	506.34
388.707	482.16
389.087	488.04
389.466	486
389.846	485.55
390.225	510.18
390.605	501.15
390.984	516.96
391.363	512.67
391.743	530.75
392.122	531.2
392.501	530.52
392.881	534.59
393.26	544.99
393.639	533.91
394.018	566.45
394.397	534.59
394.776	543.18
395.155	514.93
395.534	557.19
395.913	542.5
396.292	561.03
396.671	544.99
397.05	570.97
397.429	562.16
397.808	576.62
398.186	567.81
398.565	585.21
398.944	580.46
399.323	589.05
399.701	582.27
400.08	587.24
400.458	608.94
400.837	591.76
401.215	610.75
401.594	620.24
401.972	630.63
402.351	609.39
402.729	641.71
403.107	627.47
403.486	655.27
403.864	615.04
404.242	641.03
404.62	643.97
404.999	658.88
405.377	634.47
405.755	664.53
406.133	664.3
406.511	668.37
406.889	709.05
407.267	699.78
407.645	686.9
408.023	687.58
408.401	709.95
408.779	714.92
409.156	751.08
409.534	732.55
409.912	732.55
410.29	728.48
410.667	745.66
411.045	768.48
411.422	781.82
411.8	795.6
412.178	788.14
412.555	791.76
412.933	810.74
413.31	813
413.687	799.67
414.065	829.05
414.442	844.19
414.819	836.05
415.197	867.92
415.574	873.34
415.951	857.75
416.328	846.67
416.705	880.57
417.082	897.97
417.46	890.06
417.837	892.1
418.214	901.13
418.591	936.39
418.967	906.56
419.344	935.71
419.721	924.64
420.098	951.08
420.475	929.38
420.852	956.27
421.228	958.31
421.605	975.26
421.982	970.96
422.358	987.69
422.735	989.27
423.111	997.18
423.488	1024.52
423.864	1014.35
424.241	1037.63
424.617	1032.66
424.994	1026.78
425.37	1039.89
425.746	1057.06
426.123	1060.9
426.499	1075.59
426.875	1068.59
427.251	1129.38
427.627	1128.25
428.003	1151.07
428.379	1165.76
428.756	1163.27
429.132	1154.24
429.507	1184.97
429.883	1207.79
430.259	1209.15
430.635	1206.66
431.011	1227.91
431.387	1226.55
431.763	1252.54
432.138	1275.14
432.514	1294.57
432.89	1307.45
433.265	1332.08
433.641	1342.25
434.016	1351.29
434.392	1370.95
434.767	1387.9
435.143	1371.4
435.518	1420.67
435.894	1453.21
436.269	1446.43
436.644	1459.09
437.02	1475.81
437.395	1467.9
437.77	1474
438.145	1515.58
438.52	1522.36
438.895	1556.03
439.271	1517.39
439.646	1554
440.021	1567.56
440.395	1606.43
440.77	1547.22
441.145	1569.37
441.52	1633.77
441.895	1642.13
442.27	1646.88
442.645	1641
443.019	1634.22
443.394	1617.27
443.769	1636.93
444.143	1643.04
444.518	1682.58
444.892	1686.2
445.267	1697.5
445.641	1682.36
446.016	1699.31
446.39	1735.01
446.764	1706.31
447.139	1723.03
447.513	1749.93
447.887	1771.17
448.262	1769.13
448.636	1798.29
449.01	1809.13
449.384	1807.78
449.758	1818.85
450.132	1866.53
450.506	1838.28
450.88	1880.54
451.254	1849.13
451.628	1905.63
452.002	1942.92
452.376	1968
452.75	1936.81
453.123	1946.98
453.497	1977.04
453.871	2012.29
454.244	2057.71
454.618	2076.24
454.992	2105.17
455.365	2080.54
455.739	2136.81
456.112	2180.87
456.486	2191.95
456.859	2190.14
457.232	2267.88
457.606	2263.58
457.979	2290.7
458.352	2338.84
458.725	2349.01
459.099	2347.2
459.472	2382.9
459.845	2421.55
460.218	2454.99
460.591	2500.19
460.964	2455.9
461.337	2544.48
461.71	2581.09
462.083	2620.41
462.456	2593.29
462.829	2642.78
463.201	2684.36
463.574	2684.36
463.947	2717.13
464.32	2750.35
464.692	2774.31
465.065	2796.68
465.438	2832.16
465.81	2866.96
466.183	2859.73
466.555	2950.8
466.928	2944.92
467.3	2963
467.672	3018.37
468.045	3068.99
468.417	3077.57
468.789	3083.45
469.161	3122.09
469.534	3182.66
469.906	3218.81
470.278	3233.73
470.65	3292.48
471.022	3366.83
471.394	3403.89
471.766	3447.73
472.138	3475.76
472.51	3494.51
472.882	3604.79
473.253	3562.76
473.625	3667.62
473.997	3761.17
474.369	3724.34
474.74	3835.52
475.112	3869.87
475.484	3922.75
475.855	3980.6
476.227	4017.21
476.598	4119.81
476.97	4166.13
477.341	4263.98
477.713	4331.33
478.084	4318.67
478.455	4495.16
478.827	4444.09
479.198	4597.99
479.569	4643.63
479.94	4748.04
480.311	4787.59
480.682	4916.17
481.053	5034.59
481.424	5029.61
481.795	5176.73
482.166	5267.12
482.537	5267.35
482.908	5433.67
483.279	5485.65
483.65	5627.79
484.021	5678.41
484.391	5762.02
484.762	5826.2
485.133	5889.7
485.503	6040.89
485.874	6103.26
486.244	6215.57
486.615	6372.86
486.985	6430.71
487.356	6563.81
487.726	6608.33
488.097	6746.18
488.467	6882.22
488.837	6987.3
489.207	7036.57
489.578	7186.39
489.948	7321.53
490.318	7396.1
490.688	7482.66
491.058	7662.76
491.428	7743.21
491.798	7800.61
492.168	7993.6
492.538	8098.91
492.908	8184.56
493.278	8293.71
493.648	8312.47
494.017	8440.37
494.387	8560.59
494.757	8623.64
495.126	8709.97
495.496	8864.99
495.866	8936.63
496.235	9057.76
496.605	9130.75
496.974	9240.58
497.344	9361.25
497.713	9415.71
498.082	9515.82
498.452	9644.63
498.821	9699.77
499.19	9799.88
499.559	9946.77
499.928	9984.51
500.298	10066.09
500.667	10207.1
501.036	10217.73
501.405	10372.98
501.774	10409.36
502.143	10529.81
502.512	10565.74
502.88	10763.7
503.249	10645.74
503.618	10871.72
503.987	10965.28
504.356	11070.58
504.724	11036.01
505.093	11221.09
505.462	11263.57
505.83	11320.52
506.199	11469.44
506.567	11642.1
506.936	11548.76
507.304	11741.75
507.672	11811.36
508.041	11863.11
508.409	12027.17
508.777	12169.09
509.145	12270.78
509.514	12277.56
509.882	12360.49
510.25	12408.85
510.618	12605.01
510.986	12610.21
511.354	12674.16
511.722	12819.92
512.09	12885
512.458	12963.64
512.826	13084.54
513.193	13192.34
513.561	13256.97
513.929	13375.61
514.297	13457.87
514.664	13433.01
515.032	13569.73
515.4	13740.34
515.767	13773.34
516.135	13896.27
516.502	13735.37
516.869	14098.75
517.237	14181.24
517.604	14090.39
517.972	14292.19
518.339	14445.86
518.706	14540.32
519.073	14535.8
519.44	14732.18
519.808	14859.86
520.175	14926.08
520.542	15006.3
520.909	15129.23
521.276	15257.37
521.643	15427.76
522.009	15519.96
522.376	15532.39
522.743	15664.81
523.11	15904.36
523.477	16065.93
523.843	16140.96
524.21	16316.1
524.577	16396.32
524.943	16555.41
525.31	16647.84
525.676	16944.78
526.043	16945.91
526.409	17004.89
526.776	17206.47
527.142	17312
527.508	17518.32
527.874	17686.23
528.241	17764.19
528.607	17824.76
528.973	18091.19
529.339	18035.15
529.705	18196.72
530.071	18379.77
530.437	18465.19
530.803	18655.02
531.169	18766.65
531.535	18786.09
531.901	18866.99
532.267	18954.45
532.632	19114.44
532.998	19242.8
533.364	19346.75
533.73	19527.31
534.095	19630.13
534.461	19759.4
534.826	19787.42
535.192	19886.85
535.557	20032.83
535.923	20035.77
536.288	20206.16
536.653	20202.77
537.019	20334.75
537.384	20375.2
537.749	20414.75
538.114	20503.56
538.479	20516.66
538.845	20708.07
539.21	20675.08
539.575	20826.03
539.94	20804.34
540.305	21035.52
540.67	21003.88
541.034	21010.66
541.399	21089.53
541.764	21167.49
542.129	21174.5
542.494	21359.35
542.858	21431.44
543.223	21465.11
543.587	21577.65
543.952	21560.7
544.316	21616.75
544.681	21620.14
545.045	21821.04
545.41	21846.57
545.774	21923.41
546.138	21903.75
546.503	22067.13
546.867	22014.25
547.231	22264.87
547.595	22276.17
547.959	22271.42
548.324	22389.61
548.688	22465.99
549.052	22446.1
549.416	22473.22
549.779	22581.92
550.143	22588.02
550.507	22746.44
550.871	22945.3
551.235	22713.44
551.599	23129.25
551.962	23054.68
552.326	23062.13
552.689	23215.12
553.053	23231.85
553.417	23278.63
553.78	23511.16
554.143	23456.02
554.507	23677.94
554.87	23649.46
555.234	23857.37
555.597	23815.56
555.96	23860.53
556.323	23988.89
556.686	24047.64
557.05	24180.3
557.413	24272.27
557.776	24319.05
558.139	24506.84
558.502	24658.48
558.865	24569.66
559.228	24900.28
559.59	24891.92
559.953	24936.21
560.316	25196.77
560.679	25231.79
561.041	25409.42
561.404	25555.4
561.767	25701.39
562.129	25736.19
562.492	26030.19
562.854	26001.49
563.217	25966.24
563.579	26102.05
563.941	26408.26
564.304	26431.76
564.666	26809.83
565.028	26644.86
565.39	26843.05
565.753	27086.43
566.115	27123.95
566.477	27336.37
566.839	27374.34
567.201	27767.09
567.563	27762.58
567.925	27958.5
568.287	28003.25
568.648	28156.01
569.01	28386.06
569.372	28554.42
569.734	28746.28
570.095	28790.57
570.457	29056.55
570.819	29158.02
571.18	29245.7
571.542	29429.2
571.903	29540.83
572.265	29721.17
572.626	29879.36
572.987	30052.23
573.349	30310.98
573.71	30362.51
574.071	30467.81
574.432	30743.74
574.794	31057.63
575.155	31072.09
575.516	31117.74
575.877	31162.26
576.238	31289.26
576.599	31545.07
576.96	31659.2
577.32	31780.55
577.681	31879.75
578.042	32136.47
578.403	32241.33
578.763	32226.86
579.124	32508.44
579.485	32672.73
579.845	32890.35
580.206	32842.89
580.566	32972.61
580.927	33056.9
581.287	33307.06
581.648	33276.33
582.008	33603.33
582.368	33667.5
582.728	33684.45
583.089	33763.55
583.449	34029.98
583.809	34101.84
584.169	34173.71
584.529	34318.79
584.889	34745.89
585.249	34729.4
585.609	34598.1
585.969	34867.7
586.329	34967.36
586.688	35482.37
587.048	35536.61
587.408	35561.24
587.768	35801.46
588.127	36129.59
588.487	36114.9
588.846	36643.7
589.206	36368.68
589.565	36736.58
589.925	37272.61
590.284	37315.32
590.643	37548.76
591.003	37933.16
591.362	38292.69
591.721	38366.14
592.08	38573.14
592.44	39220.13
592.799	39216.06
593.158	39457.18
593.517	39597.52
593.876	39946.66
594.235	40167.22
594.593	40428.46
594.952	40851.72
595.311	40924.04
595.67	41409.9
596.029	41726.28
596.387	42023.67
596.746	42361.51
597.104	42312.48
597.463	42795.85
597.822	43093.25
598.18	43196.29
598.538	43501.14
598.897	43999.44
599.255	44095.25
599.613	44594.67
599.972	44567.78
600.33	44960.54
600.688	45145.62
601.046	45520.98
601.404	45828.77
601.762	46042.32
602.12	46499.94
602.478	46554.85
602.836	46780.83
603.194	46906.03
603.552	47237.77
603.91	47327.03
604.268	47663.29
604.625	47848.83
604.983	48154.58
605.341	48200.91
605.698	48504.4
606.056	48793.89
606.413	48858.52
606.771	49185.97
607.128	49442.23
607.485	49527.88
607.843	49663.02
608.2	49924.25
608.557	50185.71
608.914	50201.99
609.272	50574.86
609.629	50836.54
609.986	50958.58
610.343	50973.72
610.7	51345.46
611.057	51336.64
611.414	51449.41
611.771	51677.88
612.127	51704.54
612.484	51889.62
612.841	52068.15
613.198	52056.63
613.554	52127.58
613.911	52471.08
614.267	52636.72
614.624	52665.65
614.98	52819.09
615.337	53079.2
615.693	53037.84
616.05	53135.47
616.406	53361.45
616.762	53465.85
617.118	53442.8
617.475	53382.01
617.831	53624.72
618.187	53787.65
618.543	53764.83
618.899	54010.92
619.255	54003.24
619.611	54030.36
619.967	54237.59
620.323	54286.85
620.678	54330.01
621.034	54393.97
621.39	54417.69
621.746	54438.03
622.101	54776.55
622.457	54527.97
622.812	54746.5
623.168	54829.66
623.523	54767.51
623.879	54978.36
624.234	54789.66
624.589	54924.57
624.945	54933.61
625.3	54910.79
625.655	55062.65
626.01	55058.81
626.365	55005.02
626.72	54997.11
627.075	55054.29
627.43	55086.6
627.785	55103.33
628.14	55097.45
628.495	55186.71
628.85	55220.61
629.205	55064.91
629.559	55240.5
629.914	55139.48
630.269	55186.26
630.623	55040.95
630.978	55080.27
631.332	55193.04
631.687	55175.41
632.041	55100.61
632.396	55119.6
632.75	55057
633.104	55078.24
633.459	55042.31
633.813	54984.68
634.167	54991.69
634.521	55020.84
634.875	55055.64
635.229	55002.08
635.583	54807.97
635.937	54857.46
636.291	54931.58
636.645	54931.58
636.999	54857.68
637.352	54889.32
637.706	54732.71
638.06	54831.24
638.413	54807.74
638.767	54674.64
639.121	54737.01
639.474	54639.61
639.828	54644.81
640.181	54636.44
640.534	54672.83
640.888	54532.04
641.241	54478.48
641.594	54483
641.947	54616.56
642.301	54395.55
642.654	54504.24
643.007	54372.72
643.36	54432.38
643.713	54424.02
644.066	54567.07
644.419	54286.62
644.771	54011.83
645.124	53764.15
645.477	53711.5
645.83	53632.63
646.182	53586.98
646.535	53609.13
646.888	53697.71
647.24	53534.78
647.593	53747.65
647.945	53629.01
648.298	53555.34
648.65	53345.63
649.002	53238.06
649.355	53157.39
649.707	53097.73
650.059	53113.77
650.411	53530.26
650.763	53638.96
651.115	54132.05
651.467	53939.97
651.819	53963.24
652.171	53947.65
652.523	53844.38
652.875	53936.8
653.227	53847.31
653.578	54019.74
653.93	53881.89
654.282	53693.64
654.633	53739.07
654.985	53828.33
655.337	53803.02
655.688	53761.67
656.039	53844.6
656.391	53650.71
656.742	53687.54
657.094	53679.18
657.445	53793.98
657.796	53763.93
658.147	53648.22
658.498	53823.81
658.849	53818.16
659.2	53609.58
659.551	53615.91
659.902	53778.39
660.253	53639.86
660.604	53797.6
660.955	53647.77
661.306	53743.59
661.656	53576.13
662.007	53763.93
662.358	53731.38
662.708	53738.84
663.059	53595.79
663.409	53525.29
663.76	53671.72
664.11	53773.42
664.461	53766.19
664.811	53796.92
665.161	53765.28
665.511	53752.63
665.862	53754.66
666.212	53777.94
666.562	53835.79
666.912	53802.12
667.262	53699.75
667.612	53718.28
667.962	53798.27
668.312	53678.96
668.662	53854.32
669.011	53714.89
669.361	53727.77
669.711	53773.42
670.06	53655.45
670.41	53670.82
670.76	53650.93
671.109	53837.14
671.459	53653.42
671.808	53679.41
672.157	53722.34
672.507	53495.46
672.856	53570.48
673.205	53674.89
673.554	53554.89
673.904	53457.04
674.253	53775.22
674.602	53532.52
674.951	53128.01
675.3	52838.75
675.649	53453.65
675.998	53505.4
676.346	53507.21
676.695	53466.31
677.044	53374.33
677.393	53401.45
677.741	53393.99
678.09	53319.64
678.438	53212.98
678.787	53311.06
679.135	53307.21
679.484	53098.18
679.832	53305.18
680.181	53102.47
680.529	53154.68
680.877	53068.35
681.225	53041.01
681.573	53190.38
681.922	52996.04
682.27	52840.33
682.618	52833.33
682.966	52892.08
683.314	52781.13
683.661	52780
684.009	52582.94
684.357	52574.8
684.705	52432.89
685.053	52558.99
685.4	52440.12
685.748	52253.91
686.095	52265.21
686.443	52222.5
686.79	52143.4
687.138	52157.19
687.485	52153.57
687.832	51993.58
688.18	52087.13
688.527	51839.91
688.874	51781.15
689.221	51829.51
689.568	51782.51
689.915	51608.95
690.262	51613.02
690.609	51528.96
690.956	51343.65
691.303	51347.72
691.65	51209.42
691.997	51074.96
692.344	51038.12
692.69	51014.62
693.037	50989.76
693.383	50637.23
693.73	50709.54
694.077	50595.42
694.423	50550.22
694.769	50340.29
695.116	50358.14
695.462	50162.44
695.808	50026.62
696.155	50206.5
696.501	49820.07
696.847	49976
697.193	49645.62
697.539	49669.12
697.885	49396.58
698.231	49253.76
698.577	49309.35
698.923	49195.01
699.269	49009.25
699.614	48828.24
699.96	48803.15
700.306	48688.8
700.651	48638.41
700.997	48448.36
701.342	48260.34
701.688	48172.89
702.033	48119.55
702.379	48058.76
702.724	47774.93
703.069	47905.1
703.415	47468.95
703.76	47385.11
704.105	47334.94
704.45	47315.73
704.795	47123.65
705.14	47024.67
705.485	46976.31
705.83	46748.52
706.175	46835.29
706.52	46617.9
706.865	46400.05
707.209	46287.74
707.554	46251.35
707.899	46134.75
708.243	45956.67
708.588	45937.69
708.932	45659.28
709.277	45803.46
709.621	45567.76
709.966	45293.64
710.31	45386.07
710.654	45134.77
710.998	45135.45
711.342	45115.34
711.687	45077.83
712.031	44759.87
712.375	44711.28
712.719	44689.14
713.063	44588.57
713.407	44794.22
713.75	44451.18
714.094	44527.56
714.438	44327.34
714.782	44239.88
715.125	43991.98
715.469	44242.37
715.812	43889.61
716.156	43813.9
716.499	43733.45
716.843	43894.81
717.186	43633.8
717.53	43751.99
717.873	43872.89
718.216	43726.68
718.559	43519.67
718.902	43258.44
719.246	43345.67
719.589	43275.61
719.932	43067.26
720.275	43247.14
720.617	43207.82
720.96	43197.2
721.303	43109.97
721.646	43176.63
721.989	42942.06
722.331	43021.38
722.674	42957.88
723.016	42941.16
723.359	42762.63
723.701	42867.04
724.044	42661.39
724.386	42433.38
724.729	42684.67
725.071	42563.32
725.413	42688.28
725.755	42539.59
726.097	42317.45
726.439	42383.66
726.782	42296.66
727.124	42534.84
727.465	42339.59
727.807	42095.98
728.149	42243.32
728.491	42189.31
728.833	42373.26
729.175	42295.75
729.516	42145.47
729.858	41953.61
730.199	42229.77
730.541	42114.97
730.882	42055.98
731.224	42002.88
731.565	41897.57
731.906	42037.91
732.248	42320.38
732.589	42103.67
732.93	41926.95
733.271	42049.88
733.612	42072.03
733.953	42145.25
734.294	42020.28
734.635	41993.39
734.976	42036.55
735.317	41898.02
735.658	41993.84
735.999	42166.26
736.339	42085.81
736.68	42021.86
737.021	42056.66
737.361	41998.58
737.702	42296.2
738.042	42102.99
738.383	42147.28
738.723	42218.47
739.063	42176.89
739.404	42391.57
739.744	42290.55
740.084	42246.94
740.424	42437.9
740.764	42401.29
741.104	42544.79
741.444	42241.06
741.784	42219.14
742.124	42477.44
742.464	42408.97
742.804	42355.19
743.143	42536.65
743.483	42596.76
743.823	42548.18
744.162	42472.02
744.502	42815.29
744.841	42726.02
745.181	43085.79
745.52	42920.59
745.86	43092.12
746.199	42970.54
746.538	43112.23
746.877	43240.59
747.216	43215.28
747.556	43200.14
747.895	43453.91
748.234	43456.85
748.573	43581.14
748.911	43439.9
749.25	43740.23
749.589	43576.62
749.928	43817.29
750.267	43940.91
750.605	43889.38
750.944	44092.99
751.283	44208.47
751.621	44443.04
751.96	44381.8
752.298	44462.7
752.636	44619.31
752.975	44517.61
753.313	44481.91
753.651	44930.71
753.989	44777.49
754.327	44868.57
754.666	44717.16
