Data from 18-1248_FLMS001491_002.txt Node
Date: Thu Apr 19 16:24:28 BST 2018
User: hsy
Spectrometer: FLMS00149
Trigger mode: 0
Integration Time (sec): 1.000000E-2
Scans to average: 10
Electric dark correction enabled: true
Nonlinearity correction enabled: false
Boxcar width: 0
XAxis mode: Wavelengths
Number of Pixels in Spectrum: 2048
>>>>>Begin Spectral Data<<<<<
341.393	0.82
341.776	0.82
342.16	0.82
342.543	-44.15
342.927	-78.27
343.31	-70.37
343.693	-54.32
344.077	-45.73
344.46	-66.52
344.843	-71.72
345.226	-34.89
345.61	-28.56
345.993	-19.75
346.376	-10.93
346.759	10.76
347.142	30.2
347.525	43.3
347.908	38.78
348.291	81.27
348.674	90.99
349.057	107.48
349.44	141.15
349.823	155.17
350.206	170.98
350.588	234.71
350.971	249.63
351.354	279.91
351.737	272.68
352.119	269.96
352.502	329.4
352.884	331.43
353.267	331.88
353.65	354.71
354.032	374.59
354.414	348.83
354.797	359.68
355.179	344.31
355.562	371.2
355.944	388.15
356.326	387.25
356.709	384.99
357.091	395.61
357.473	403.97
357.855	410.53
358.238	397.19
358.62	402.84
359.002	413.46
359.384	404.42
359.766	408.49
360.148	404.88
360.53	376.85
360.912	403.29
361.294	373.69
361.676	379.57
362.057	397.64
362.439	365.33
362.821	379.79
363.203	394.48
363.584	394.03
363.966	384.31
364.348	387.7
364.729	395.39
365.111	382.05
365.493	377.08
365.874	377.31
366.256	385.22
366.637	370.75
367.019	373.46
367.4	382.05
367.781	368.72
368.163	385.22
368.544	371.43
368.925	396.29
369.306	388.38
369.688	407.14
370.069	374.59
370.45	382.96
370.831	396.51
371.212	393.8
371.593	396.74
371.974	386.57
372.355	401.26
372.736	415.72
373.117	380.02
373.498	387.25
373.879	425.89
374.26	389.06
374.641	395.39
375.021	401.26
375.402	396.06
375.783	402.62
376.163	429.06
376.544	425.21
376.925	429.51
377.305	439.68
377.686	407.59
378.066	432.9
378.447	426.57
378.827	435.61
379.208	418.21
379.588	438.55
379.968	445.33
380.349	427.93
380.729	428.6
381.109	422.05
381.489	437.19
381.87	429.28
382.25	450.3
382.63	463.18
383.01	455.04
383.39	448.49
383.77	460.69
384.15	480.81
384.53	466.12
384.91	472.45
385.29	459.34
385.67	467.93
386.049	487.59
386.429	469.28
386.809	486.23
387.189	483.97
387.568	489.17
387.948	486.46
388.328	479.22
388.707	500.92
389.087	505.21
389.466	505.89
389.846	490.52
390.225	509.51
390.605	516.74
390.984	518.09
391.363	529.62
391.743	539.11
392.122	523.97
392.501	557.19
392.881	551.77
393.26	549.05
393.639	557.41
394.018	532.78
394.397	557.87
394.776	568.04
395.155	561.48
395.534	557.64
395.913	559.9
396.292	562.39
396.671	583.18
397.05	580.69
397.429	581.37
397.808	579.34
398.186	577.98
398.565	594.93
398.944	586.57
399.323	619.56
399.701	602.61
400.08	615.27
400.458	638.09
400.837	631.76
401.215	614.14
401.594	621.59
401.972	621.14
402.351	633.12
402.729	638.77
403.107	628.83
403.486	649.62
403.864	648.26
404.242	654.36
404.62	669.28
404.999	681.71
405.377	683.74
405.755	680.58
406.133	689.39
406.511	687.35
406.889	697.3
407.267	729.39
407.645	732.55
408.023	738.88
408.401	729.16
408.779	747.01
409.156	737.3
409.534	742.72
409.912	758.99
410.29	782.04
410.667	769.16
411.045	776.39
411.422	801.25
411.8	801.48
412.178	814.36
412.555	846.67
412.933	840.35
413.31	828.37
413.687	839.22
414.065	866.33
414.442	864.98
414.819	860.46
415.197	885.77
415.574	897.74
415.951	895.71
416.328	881.7
416.705	924.41
417.082	907.91
417.46	931.64
417.837	927.8
418.214	944.3
418.591	936.84
418.967	944.3
419.344	976.39
419.721	980.45
420.098	988.14
420.475	971.19
420.852	984.07
421.228	1008.25
421.605	1010.96
421.982	1013
422.358	1030.17
422.735	1048.02
423.111	1022.71
423.488	1044.41
423.864	1027.46
424.241	1076.95
424.617	1072.43
424.994	1077.85
425.37	1104.97
425.746	1091.19
426.123	1099.32
426.499	1109.26
426.875	1140.9
427.251	1153.56
427.627	1144.29
428.003	1184.29
428.379	1176.83
428.756	1189.71
429.132	1201.24
429.507	1249.83
429.883	1248.24
430.259	1254.12
430.635	1288.69
431.011	1295.25
431.387	1300.45
431.763	1341.57
432.138	1319.88
432.514	1358.98
432.89	1328.24
433.265	1393.1
433.641	1397.84
434.016	1383.16
434.392	1413.44
434.767	1461.35
435.143	1462.48
435.518	1462.02
435.894	1471.74
436.269	1502.7
436.644	1521.91
437.02	1531.85
437.395	1516.49
437.77	1524.17
438.145	1555.81
438.52	1590.38
438.895	1559.65
439.271	1587.22
439.646	1615.01
440.021	1629.7
440.395	1636.26
440.77	1655.24
441.145	1641.68
441.52	1682.13
441.895	1682.13
442.27	1695.46
442.645	1671.28
443.019	1703.15
443.394	1701.79
443.769	1693.66
444.143	1736.82
444.518	1757.16
444.892	1744.73
445.267	1723.26
445.641	1758.74
446.016	1805.52
446.39	1791.96
446.764	1779.98
447.139	1814.33
447.513	1818.4
447.887	1810.26
448.262	1811.85
448.636	1851.84
449.01	1852.07
449.384	1869.02
449.758	1892.52
450.132	1916.93
450.506	1926.64
450.88	1947.89
451.254	1904.27
451.628	1985.4
452.002	2020.88
452.376	1990.6
452.75	2012.29
453.123	2032.4
453.497	2055.45
453.871	2076.47
454.244	2116.24
454.618	2131.84
454.992	2158.5
455.365	2184.04
455.739	2213.42
456.112	2252.06
456.486	2298.39
456.859	2273.75
457.232	2328.22
457.606	2347.65
457.979	2353.75
458.352	2445.73
458.725	2478.72
459.099	2451.15
459.472	2487.08
459.845	2545.39
460.218	2523.92
460.591	2555.78
460.964	2582.67
461.337	2649.11
461.71	2672.16
462.083	2711.26
462.456	2725.04
462.829	2737.02
463.201	2790.58
463.574	2764.14
463.947	2810.91
464.32	2886.62
464.692	2891.14
465.065	2893.62
465.438	2937.92
465.81	3000.06
466.183	2988.31
466.555	3042.55
466.928	3104.47
467.3	3077.12
467.672	3120.06
468.045	3191.47
468.417	3208.87
468.789	3253.62
469.161	3266.5
469.534	3299.26
469.906	3385.36
470.278	3379.94
470.65	3455.19
471.022	3514.63
471.394	3546.71
471.766	3570.22
472.138	3616.32
472.51	3725.69
472.882	3747.61
473.253	3767.05
473.625	3809.31
473.997	3915.74
474.369	3891.56
474.74	3921.39
475.112	4054.5
475.484	4094.5
475.855	4141.95
476.227	4216.08
476.598	4306.92
476.97	4379.69
477.341	4483.41
477.713	4508.72
478.084	4559.57
478.455	4656.06
478.827	4692.22
479.198	4793.91
479.569	4847.25
479.94	4962.72
480.311	5040.69
480.682	5104.87
481.053	5254.24
481.424	5330.62
481.795	5388.25
482.166	5447
482.537	5577.4
482.908	5681.57
483.279	5732.65
483.65	5861
484.021	5956.37
484.391	5993.66
484.762	6143.03
485.133	6173.31
485.503	6258.51
485.874	6413.98
486.244	6493.3
486.615	6588.22
486.985	6697.59
487.356	6847.42
487.726	6924.03
488.097	7086.96
488.467	7125.15
488.837	7310.91
489.207	7323.56
489.578	7492.83
489.948	7570.79
490.318	7756.77
490.688	7760.62
491.058	7935.07
491.428	8084.67
491.798	8056.88
492.168	8251.9
492.538	8316.31
492.908	8504.55
493.278	8604.89
493.648	8706.58
494.017	8790.87
494.387	8912.68
494.757	8960.81
495.126	9089.17
495.496	9208.49
495.866	9221.82
496.235	9431.31
496.605	9462.49
496.974	9536.39
497.344	9692.99
497.713	9782.48
498.082	9902.48
498.452	9949.71
498.821	10103.38
499.19	10137.95
499.559	10295.92
499.928	10379.98
500.298	10396.93
500.667	10653.87
501.036	10575.23
501.405	10741.78
501.774	10808.9
502.143	10870.36
502.512	10990.81
502.88	11096.8
503.249	11126.4
503.618	11305.61
503.987	11264.48
504.356	11381.76
504.724	11492.04
505.093	11511.48
505.462	11652.94
505.83	11699.49
506.199	11760.51
506.567	11977.45
506.936	11976.55
507.304	12180.39
507.672	12262.19
508.041	12320.04
508.409	12494.05
508.777	12537.44
509.145	12619.24
509.514	12683.88
509.882	12818.11
510.25	12896.3
510.618	12943.76
510.986	13032.34
511.354	13128.38
511.722	13274.82
512.09	13404.31
512.458	13396.17
512.826	13555.94
513.193	13547.81
513.561	13657.86
513.929	13830.06
514.297	13983.73
514.664	14010.85
515.032	14039.32
515.4	14086.32
515.767	14238.64
516.135	14329.03
516.502	14343.94
516.869	14648.57
517.237	14586.2
517.604	14584.84
517.972	14915.23
518.339	14888.56
518.706	15017.37
519.073	15096.02
519.44	15216.92
519.808	15336.24
520.175	15377.14
520.542	15565.83
520.909	15684.47
521.276	15732.16
521.643	15997.23
522.009	16022.32
522.376	16228.42
522.743	16297.34
523.11	16525.58
523.477	16649.42
523.843	16646.26
524.21	16944.1
524.577	17077.88
524.943	17198.11
525.31	17228.39
525.676	17418.21
526.043	17621.15
526.409	17653.69
526.776	17875.15
527.142	17975.04
527.508	18047.58
527.874	18179.1
528.241	18338.87
528.607	18424.74
528.973	18663.61
529.339	18638.3
529.705	18891.4
530.071	18970.94
530.437	19138.4
530.803	19288.9
531.169	19402.57
531.535	19476.69
531.901	19612.96
532.267	19678.49
532.632	19786.97
532.998	19862.9
533.364	20059.05
533.73	20200.06
534.095	20313.51
534.461	20395.31
534.826	20445.48
535.192	20527.74
535.557	20745.81
535.923	20738.58
536.288	20859.93
536.653	20953.26
537.019	20957.1
537.384	21038.23
537.749	21130.89
538.114	21264.44
538.479	21116.87
538.845	21333.82
539.21	21322.74
539.575	21481.61
539.94	21567.26
540.305	21676.86
540.67	21722.96
541.034	21826.23
541.399	21861.94
541.764	21975.38
542.129	22174.7
542.494	21974.48
542.858	22142.61
543.223	22090.63
543.587	22440.68
543.952	22336.73
544.316	22393.45
544.681	22317.97
545.045	22482.26
545.41	22710.5
545.774	22655.59
546.138	22664.63
546.503	22720.67
546.867	22783.05
547.231	22912.31
547.595	23076.37
547.959	23039.08
548.324	23138.06
548.688	23171.74
549.052	23245.86
549.416	23225.29
549.779	23330.15
550.143	23543.25
550.507	23578.96
550.871	23580.76
551.235	23565.4
551.599	23832.73
551.962	23857.14
552.326	23864.15
552.689	23999.96
553.053	23894.88
553.417	24076.34
553.78	24307.07
554.143	24362.44
554.507	24505.71
554.87	24461.64
555.234	24647.4
555.597	24587.74
555.96	24710.45
556.323	24797.68
556.686	24827.74
557.05	25053.49
557.413	25128.29
557.776	25095.98
558.139	25314.5
558.502	25406.93
558.865	25392.47
559.228	25560.37
559.59	25779.8
559.953	25744.55
560.316	26154.71
560.679	26030.87
561.041	26281.03
561.404	26431.54
561.767	26660.68
562.129	26568.93
562.492	26853.9
562.854	26805.09
563.217	26925.99
563.579	27181.35
563.941	27239.65
564.304	27355.81
564.666	27616.36
565.028	27626.76
565.39	27829.47
565.753	28036.01
566.115	28149.01
566.477	28272.39
566.839	28412.28
567.201	28814.07
567.563	28724.58
567.925	28806.39
568.287	28972.26
568.648	29147.85
569.01	29371.35
569.372	29552.81
569.734	29561.4
570.095	29785.35
570.457	30022.85
570.819	30062.63
571.18	30108.95
571.542	30401.15
571.903	30455.39
572.265	30706.9
572.626	30854.47
572.987	30995.48
573.349	31122.26
573.71	31381.91
574.071	31495.36
574.432	31486.54
574.794	31878.17
575.155	31931.05
575.516	32069.35
575.877	32248.11
576.238	32378.72
576.599	32498.72
576.96	32693.74
577.32	32701.2
577.681	33051.7
578.042	33127.18
578.403	33146.61
578.763	33272.71
579.124	33275.42
579.485	33719.25
579.845	33741.85
580.206	33720.61
580.566	33879.25
580.927	33986.37
581.287	34157.21
581.648	34251.67
582.008	34457.31
582.368	34592.9
582.728	34684.2
583.089	34820.24
583.449	34890.52
583.809	35176.17
584.169	35262.49
584.529	35405.99
584.889	35677.17
585.249	35619.54
585.609	35614.57
585.969	35848.01
586.329	36098.18
586.688	36468.56
587.048	36560.76
587.408	36571.16
587.768	36907.42
588.127	36983.35
588.487	37082.33
588.846	37564.58
589.206	37317.35
589.565	37619.27
589.925	38235.29
590.284	38190.55
590.643	38365.91
591.003	38609.07
591.362	39036.85
591.721	39117.3
592.08	39313.91
592.44	39753.67
592.799	39998.64
593.158	40167.9
593.517	40357.5
593.876	40763.14
594.235	40938.5
594.593	41209
594.952	41548.2
595.311	41760.4
595.67	41992.48
596.029	42365.35
596.387	42722.41
596.746	42971.89
597.104	43132.79
597.463	43360.13
597.822	43684.19
598.18	43833.34
598.538	44113.11
598.897	44762.58
599.255	44611.85
599.613	45394.2
599.972	45372.96
600.33	45701.31
600.688	45758.71
601.046	46001.64
601.404	46611.12
601.762	46585.58
602.12	47092.46
602.478	47180.6
602.836	47464.43
603.194	47412.23
603.552	47712.33
603.91	47787.59
604.268	48126.33
604.625	48361.58
604.983	48669.82
605.341	48641.8
605.698	49077.95
606.056	49416.47
606.413	49270.94
606.771	49748.66
607.128	49793.63
607.485	49952.27
607.843	50069.33
608.2	50423.67
608.557	50585.93
608.914	50615.99
609.272	50932.36
609.629	51167.16
609.986	51334.38
610.343	51325.12
610.7	51723.53
611.057	51727.14
611.414	51780.93
611.771	52051.88
612.127	52174.36
612.484	52269.95
612.841	52405.32
613.198	52375.26
613.554	52427.01
613.911	52786.78
614.267	52914.68
614.624	52949.94
614.98	53033.32
615.337	53299.98
615.693	53345.18
616.05	53429.02
616.406	53616.13
616.762	53589.69
617.118	53670.59
617.475	53706.07
617.831	53898.39
618.187	54133.63
618.543	54091.6
618.899	54395.77
619.255	54320.52
619.611	54344.48
619.967	54598.48
620.323	54577.46
620.678	54557.58
621.034	54551.48
621.39	54527.97
621.746	54573.4
622.101	54996.66
622.457	54838.25
622.812	54927.96
623.168	54962.31
623.523	55000.28
623.879	55087.51
624.234	55003.44
624.589	55123.89
624.945	55135.87
625.3	55289.31
625.655	55246.37
626.01	55332.92
626.365	55393.71
626.72	55284.56
627.075	55287.28
627.43	55410.66
627.785	55305.35
628.14	55371.34
628.495	55355.97
628.85	55449.3
629.205	55365.92
629.559	55545.12
629.914	55447.04
630.269	55438.68
630.623	55284.56
630.978	55268.52
631.332	55511.9
631.687	55518.46
632.041	55416.76
632.396	55413.83
632.75	55376.54
633.104	55478.91
633.459	55292.47
633.813	55217.9
634.167	55251.8
634.521	55297.22
634.875	55307.84
635.229	55288.63
635.583	55174.51
635.937	55110.33
636.291	55146.94
636.645	55111.01
636.999	55073.27
637.352	55098.35
637.706	54934.06
638.06	54946.27
638.413	54857
638.767	54884.8
639.121	55019.49
639.474	54777.01
639.828	54786.27
640.181	54750.57
640.534	54926.83
640.888	54677.57
641.241	54591.25
641.594	54664.24
641.947	54833.5
642.301	54606.62
642.654	54738.81
643.007	54617.46
643.36	54667.18
643.713	54628.08
644.066	54732.26
644.419	54407.75
644.771	54245.27
645.124	53938.61
645.477	53890.7
645.83	53829.46
646.182	53784.72
646.535	53735.9
646.888	53880.08
647.24	53821.78
647.593	54061.77
647.945	53836.24
648.298	53654.78
648.65	53590.6
649.002	53432.41
649.355	53311.51
649.707	53240.1
650.059	53374.78
650.411	53746.3
650.763	53833.08
651.115	54373.17
651.467	54215.89
651.819	54177.93
652.171	54131.37
652.523	54107.87
652.875	54204.59
653.227	54058.61
653.578	54229.45
653.93	54087.76
654.282	53969.34
654.633	53967.31
654.985	54164.82
655.337	54082.11
655.688	54076.69
656.039	54198.04
656.391	53850.93
656.742	53946.75
657.094	53875.33
657.445	53958.5
657.796	54000.08
658.147	53953.3
658.498	53919.4
658.849	54062.67
659.2	54003.02
659.551	53894.09
659.902	53994.88
660.253	53909.01
660.604	54043.69
660.955	53744.49
661.306	53971.38
661.656	53807.99
662.007	53827.88
662.358	53905.39
662.708	53895.22
663.059	53871.72
663.409	53753.08
663.76	53899.74
664.11	53929.12
664.461	54030.36
664.811	53941.1
665.161	53949.68
665.511	53839.86
665.862	53910.59
666.212	53909.68
666.562	53988.33
666.912	53895.9
667.262	53830.82
667.612	53850.7
667.962	53901.77
668.312	53835.79
668.662	53992.17
669.011	53917.59
669.361	53872.62
669.711	53911.04
670.06	53838.05
670.41	53835.79
670.76	53785.17
671.109	53967.76
671.459	53870.59
671.808	53879.18
672.157	53847.31
672.507	53690.03
672.856	53706.75
673.205	53744.26
673.554	53785.39
673.904	53699.52
674.253	53901.1
674.602	53693.64
674.951	53335.24
675.3	53218.63
675.649	53731.84
675.998	53619.3
676.346	53602.12
676.695	53721.89
677.044	53572.07
677.393	53611.84
677.741	53627.88
678.09	53554.89
678.438	53511.05
678.787	53480.09
679.135	53470.6
679.484	53293.43
679.832	53458.62
680.181	53246.2
680.529	53365.97
680.877	53204.39
681.225	53150.16
681.573	53437.61
681.922	53156.48
682.27	53102.7
682.618	53013.66
682.966	53122.59
683.314	53059.54
683.661	53007.11
684.009	52879.2
684.357	52790.84
684.705	52778.87
685.053	52789.26
685.4	52549.49
685.748	52574.35
686.095	52617.74
686.443	52481.25
686.79	52363.96
687.138	52419.55
687.485	52495.03
687.832	52274.02
688.18	52283.06
688.527	52013.69
688.874	52023.63
689.221	52015.5
689.568	51942.96
689.915	51769.85
690.262	51870.64
690.609	51773.02
690.956	51614.15
691.303	51570.76
691.65	51493.48
691.997	51438.34
692.344	51213.03
692.69	51194.95
693.037	51125.8
693.383	50853.04
693.73	51022.08
694.077	50819.37
694.423	50773.5
694.769	50704.34
695.116	50672.71
695.462	50454.18
695.808	50319.5
696.155	50449.66
696.501	49963.35
696.847	50210.12
697.193	49881.32
697.539	49888.1
697.885	49728.55
698.231	49506.86
698.577	49515.68
698.923	49421.67
699.269	49179.41
699.614	49082.47
699.96	48891.06
700.306	49023.94
700.651	48768.58
700.997	48655.13
701.342	48567
701.688	48440.22
702.033	48298.31
702.379	48258.99
702.724	47971.31
703.069	48202.72
703.415	47751.65
703.76	47686.57
704.105	47697.19
704.45	47609.51
704.795	47427.14
705.14	47269.86
705.485	47133.82
705.83	46906.03
706.175	47078.45
706.52	46951.9
706.865	46811.57
707.209	46636.66
707.554	46489.09
707.899	46447.96
708.243	46293.61
708.588	46264.91
708.932	46009.1
709.277	45969.1
709.621	45846.62
709.966	45387.87
710.31	45750.35
710.654	45380.19
710.998	45454.31
711.342	45506.97
711.687	45132.97
712.031	45077.37
712.375	44885.51
712.719	44891.62
713.063	44809.81
713.407	45055.91
713.75	44754.22
714.094	44631.28
714.438	44443.94
714.782	44628.57
715.125	44253.21
715.469	44537.73
715.812	44157.85
716.156	44132.09
716.499	44118.53
716.843	44202.59
717.186	43996.27
717.53	44112.88
717.873	44085.08
718.216	43823.85
718.559	43810.74
718.902	43537.08
719.246	43712.21
719.589	43535.95
719.932	43475.38
720.275	43568.94
720.617	43567.58
720.96	43450.07
721.303	43449.62
721.646	43571.2
721.989	43249.4
722.331	43288.72
722.674	43129.85
723.016	43295.27
723.359	43053.92
723.701	43122.4
724.044	42945
724.386	42847.6
724.729	43036.3
725.071	42986.13
725.413	42916.75
725.755	42921.95
726.097	42742.52
726.439	42591.11
726.782	42495.52
727.124	42890.09
727.465	42633.14
727.807	42562.41
728.149	42694.84
728.491	42321.06
728.833	42574.16
729.175	42538.91
729.516	42303.44
729.858	42322.42
730.199	42532.36
730.541	42488.06
730.882	42467.27
731.224	42429.76
731.565	42284.45
731.906	42392.7
732.248	42342.08
732.589	42225.25
732.93	42198.13
733.271	42263.21
733.612	42404.68
733.953	42322.19
734.294	42262.53
734.635	42114.29
734.976	42338.69
735.317	42149.77
735.658	42241.06
735.999	42217.79
736.339	42257.34
736.68	42175.08
737.021	42301.18
737.361	42141.18
737.702	42495.75
738.042	42258.92
738.383	42413.49
738.723	42353.6
739.063	42303.21
739.404	42652.35
739.744	42440.83
740.084	42373.04
740.424	42446.93
740.764	42461.85
741.104	42662.3
741.444	42478.57
741.784	42406.71
742.124	42653.93
742.464	42529.19
742.804	42677.44
743.143	42639.92
743.483	42714.05
743.823	42705.23
744.162	42660.49
744.502	42918.33
744.841	42882.4
745.181	42987.94
745.52	42925.11
745.86	43150.65
746.199	43120.82
746.538	43195.16
746.877	43489.17
747.216	43381.83
747.556	43330.53
747.895	43524.87
748.234	43536.62
748.573	43556.28
748.911	43711.31
749.25	43710.86
749.589	43756.28
749.928	43925.09
750.267	44117.17
750.605	44133.44
750.944	44098.64
751.283	44234.46
751.621	44497.95
751.96	44279.43
752.298	44500.89
752.636	44549.03
752.975	44460.67
753.313	44525.98
753.651	44918.96
753.989	44741.56
754.327	44937.04
754.666	44709.47
