Data from 18-1248_FLMS001491_001.txt Node
Date: Thu Apr 19 16:24:25 BST 2018
User: hsy
Spectrometer: FLMS00149
Trigger mode: 0
Integration Time (sec): 1.000000E-2
Scans to average: 10
Electric dark correction enabled: true
Nonlinearity correction enabled: false
Boxcar width: 0
XAxis mode: Wavelengths
Number of Pixels in Spectrum: 2048
>>>>>Begin Spectral Data<<<<<
341.393	-19.99
341.776	-19.99
342.16	-19.99
342.543	-47.33
342.927	-59.08
343.31	-75.58
343.693	-70.83
344.077	-53.43
344.46	-59.98
344.843	-64.73
345.226	-47.33
345.61	-33.32
345.993	-13.43
346.376	5.32
346.759	24.53
347.142	13.23
347.525	46.23
347.908	52.1
348.291	85.32
348.674	93.01
349.057	98.88
349.44	123.06
349.823	134.13
350.206	182.95
350.588	224.08
350.971	244.19
351.354	262.72
351.737	257.07
352.119	291.42
352.502	316.05
352.884	300.23
353.267	325.54
353.65	326.45
354.032	339.33
354.414	339.1
354.797	351.3
355.179	359.21
355.562	370.96
355.944	367.58
356.326	368.25
356.709	377.07
357.091	364.41
357.473	391.53
357.855	377.97
358.238	401.25
358.62	389.04
359.002	386.56
359.384	388.82
359.766	369.38
360.148	390.85
360.53	404.64
360.912	400.79
361.294	391.08
361.676	386.11
362.057	370.96
362.439	377.07
362.821	359.67
363.203	366.45
363.584	365.54
363.966	392.43
364.348	380
364.729	377.74
365.111	370.74
365.493	366.45
365.874	389.72
366.256	380.46
366.637	392.43
367.019	358.08
367.4	360.12
367.781	379.78
368.163	370.74
368.544	404.18
368.925	362.83
369.306	384.3
369.688	380.68
370.069	373.68
370.45	368.7
370.831	350.17
371.212	388.82
371.593	384.52
371.974	377.52
372.355	365.32
372.736	394.47
373.117	417.97
373.498	391.3
373.879	390.85
374.26	379.78
374.641	402.83
375.021	369.83
375.402	394.92
375.783	402.15
376.163	408.03
376.544	430.62
376.925	412.32
377.305	391.98
377.686	397.63
378.066	399.89
378.447	412.09
378.827	407.35
379.208	432.21
379.588	412.32
379.968	433.79
380.349	432.66
380.729	445.99
381.109	400.34
381.489	415.94
381.87	430.85
382.25	443.28
382.63	440.34
383.01	442.6
383.39	439.44
383.77	443.05
384.15	415.03
384.53	445.77
384.91	467.23
385.29	462.49
385.67	465.65
386.049	462.71
386.429	468.82
386.809	465.2
387.189	463.39
387.568	477.4
387.948	480.11
388.328	486.89
388.707	460
389.087	495.03
389.466	481.7
389.846	499.77
390.225	501.81
390.605	507.01
390.984	473.56
391.363	511.07
391.743	523.05
392.122	514.69
392.501	515.14
392.881	516.05
393.26	524.41
393.639	549.04
394.018	546.33
394.397	539.55
394.776	554.91
395.155	519.66
395.534	543.84
395.913	549.94
396.292	556.72
396.671	570.73
397.05	572.32
397.429	547.68
397.808	558.3
398.186	575.25
398.565	553.56
398.944	551.3
399.323	577.06
399.701	587.68
400.08	572.77
400.458	582.03
400.837	589.72
401.215	601.69
401.594	612.09
401.972	583.39
402.351	564.86
402.729	614.35
403.107	620.45
403.486	612.77
403.864	626.1
404.242	612.77
404.62	629.04
404.999	636.95
405.377	663.61
405.755	645.31
406.133	659.54
406.511	654.12
406.889	684.18
407.267	679.43
407.645	693.22
408.023	696.15
408.401	683.5
408.779	702.26
409.156	700.67
409.534	730.28
409.912	700.22
410.29	741.58
410.667	753.55
411.045	762.82
411.422	761.01
411.8	764.63
412.178	754.23
412.555	784.06
412.933	784.06
413.31	789.03
413.687	821.35
414.065	798.07
414.442	804.4
414.819	831.07
415.197	845.08
415.574	839.2
415.951	842.59
416.328	864.74
416.705	849.14
417.082	859.99
417.46	889.37
417.837	878.3
418.214	890.95
418.591	882.82
418.967	896.83
419.344	927.11
419.721	909.71
420.098	944.74
420.475	917.84
420.852	942.7
421.228	942.25
421.605	949.03
421.982	956.03
422.358	988.35
422.735	960.78
423.111	978.18
423.488	983.83
423.864	993.77
424.241	998.07
424.617	1009.82
424.994	1046.2
425.37	1053.21
425.746	1030.16
426.123	1035.58
426.499	1074
426.875	1069.03
427.251	1091.85
427.627	1092.3
428.003	1141.79
428.379	1082.36
428.756	1126.43
429.132	1108.57
429.507	1152.19
429.883	1177.72
430.259	1180.66
430.635	1213.88
431.011	1201.23
431.387	1208.91
431.763	1251.85
432.138	1248.23
432.514	1277.16
432.89	1279.64
433.265	1301.56
433.641	1313.31
434.016	1295.69
434.392	1345.18
434.767	1323.71
435.143	1354.89
435.518	1364.16
435.894	1361.45
436.269	1402.8
436.644	1410.49
437.02	1403.48
437.395	1430.15
437.77	1432.86
438.145	1483.03
438.52	1494.78
438.895	1511.05
439.271	1489.13
439.646	1501.56
440.021	1550.59
440.395	1544.27
440.77	1528.45
441.145	1548.56
441.52	1563.25
441.895	1562.8
442.27	1587.88
442.645	1577.03
443.019	1612.06
443.394	1580.88
443.769	1630.14
444.143	1619.52
444.518	1626.98
444.892	1609.58
445.267	1642.8
445.641	1645.73
446.016	1658.39
446.39	1680.76
446.764	1659.97
447.139	1706.97
447.513	1701.33
447.887	1728.22
448.262	1755.11
448.636	1717.37
449.01	1750.14
449.384	1742
449.758	1771.61
450.132	1805.96
450.506	1813.19
450.88	1801.66
451.254	1828.1
451.628	1839.63
452.002	1886.18
452.376	1902.9
452.75	1915.78
453.123	1906.07
453.497	1944.93
453.871	1939.96
454.244	2029.23
454.618	2014.31
454.992	2041.66
455.365	2033.07
455.739	2083.24
456.112	2092.95
456.486	2132.95
456.859	2151.48
457.232	2191.26
457.606	2209.56
457.979	2230.8
458.352	2283
458.725	2283.46
459.099	2308.32
459.472	2313.96
459.845	2348.54
460.218	2396.67
460.591	2428.54
460.964	2418.14
461.337	2427.86
461.71	2494.3
462.083	2532.04
462.456	2540.17
462.829	2537.91
463.201	2622.21
463.574	2571.81
463.947	2641.41
464.32	2690.68
464.692	2683.22
465.065	2722.99
465.438	2759.38
465.81	2784.23
466.183	2788.3
466.555	2839.15
466.928	2862.42
467.3	2908.07
467.672	2884.12
468.045	3006.38
468.417	2992.59
468.789	3033.72
469.161	3073.72
469.534	3105.81
469.906	3113.27
470.278	3157.33
470.65	3194.62
471.022	3238.01
471.394	3326.59
471.766	3355.75
472.138	3376.08
472.51	3426.48
472.882	3495.18
473.253	3499.24
473.625	3601.61
473.997	3637.55
474.369	3661.05
474.74	3705.79
475.112	3793.25
475.484	3806.81
475.855	3898.33
476.227	3874.83
476.598	4041.38
476.97	4009.29
477.341	4119.57
477.713	4203.41
478.084	4223.52
478.455	4322.95
478.827	4344.87
479.198	4484.3
479.569	4519.78
479.94	4568.59
480.311	4713.22
480.682	4753.67
481.053	4867.34
481.424	4958.64
481.795	5017.85
482.166	5036.15
482.537	5187.56
482.908	5292.64
483.279	5350.95
483.65	5370.38
484.021	5579.87
484.391	5578.74
484.762	5691.95
485.133	5738.73
485.503	5811.95
485.874	5991.38
486.244	6046.3
486.615	6217.59
486.985	6257.82
487.356	6393.86
487.726	6418.04
488.097	6574.64
488.467	6606.96
488.837	6785.03
489.207	6855.31
489.578	6946.16
489.948	7113.61
490.318	7227.96
490.688	7269.99
491.058	7399.48
491.428	7500.49
491.798	7559.25
492.168	7644.67
492.538	7782.3
492.908	7915.85
493.278	8029.29
493.648	8063.87
494.017	8284.66
494.387	8298.21
494.757	8404.88
495.126	8563.52
495.496	8564.2
495.866	8682.84
496.235	8809.16
496.605	8893.9
496.974	8956.5
497.344	9109.27
497.713	9168.25
498.082	9267.45
498.452	9296.61
498.821	9422.7
499.19	9439.88
499.559	9582.02
499.928	9627.67
500.298	9753.99
500.667	9865.63
501.036	9887.1
501.405	9986.08
501.774	10095.91
502.143	10178.16
502.512	10183.59
502.88	10358.27
503.249	10408.67
503.618	10450.93
503.987	10584.48
504.356	10741.54
504.724	10703.57
505.093	10854.53
505.462	10897.24
505.83	10945.6
506.199	11045.94
506.567	11178.59
506.936	11280.06
507.304	11358.47
507.672	11436.66
508.041	11500.84
508.409	11589.2
508.777	11700.16
509.145	11764.11
509.514	11783.32
509.882	11917.1
510.25	11960.26
510.618	12076.42
510.986	12119.13
511.354	12239.58
511.722	12362.29
512.09	12505.56
512.458	12416.07
512.826	12579.91
513.193	12678.21
513.561	12762.73
513.929	12873.01
514.297	12961.59
514.664	13104.42
515.032	13104.19
515.4	13282.04
515.767	13291.3
516.135	13299.21
516.502	13269.38
516.869	13603.16
517.237	13602.93
517.604	13610.62
517.972	13895.13
518.339	13914.11
518.706	13924.73
519.073	14103.49
519.44	14114.33
519.808	14281.33
520.175	14374.21
520.542	14475.68
520.909	14593.64
521.276	14671.61
521.643	14784.6
522.009	14961.99
522.376	15081.09
522.743	15159.73
523.11	15269.78
523.477	15531.24
523.843	15574.86
524.21	15757.9
524.577	15825.02
524.943	15938.47
525.31	16150.44
525.676	16273.37
526.043	16432.92
526.409	16487.83
526.776	16688.73
527.142	16650.76
527.508	16866.35
527.874	17037.19
528.241	17123.97
528.607	17180.69
528.973	17367.13
529.339	17436.73
529.705	17629.49
530.071	17680.79
530.437	17836.27
530.803	17892.76
531.169	18109.26
531.535	18085.75
531.901	18217.95
532.267	18365.52
532.632	18581.11
532.998	18496.82
533.364	18686.64
533.73	18735.68
534.095	18946.75
534.461	18899.97
534.826	19097.25
535.192	19194.88
535.557	19240.3
535.923	19244.14
536.288	19360.75
536.653	19518.26
537.019	19514.87
537.384	19561.87
537.749	19743.11
538.114	19722.32
538.479	19790.57
538.845	19879.38
539.21	20000.73
539.575	19978.58
539.94	20121.18
540.305	20373.6
540.67	20222.65
541.034	20387.16
541.399	20369.31
541.764	20434.17
542.129	20518.91
542.494	20559.81
542.858	20776.76
543.223	20661.5
543.587	20781.28
543.952	20724.78
544.316	20943.53
544.681	20924.55
545.045	21004.09
545.41	21074.15
545.774	21096.52
546.138	21207.93
546.503	21150.98
546.867	21234.82
547.231	21420.81
547.595	21434.82
547.959	21574.02
548.324	21572.22
548.688	21633.68
549.052	21736.05
549.416	21739.22
549.779	21797.75
550.143	21952.09
550.507	22051.07
550.871	22098.3
551.235	22081.35
551.599	22209.49
551.962	22278.19
552.326	22363.61
552.689	22480.67
553.053	22404.74
553.417	22513.21
553.78	22767.89
554.143	22822.35
554.507	22928.56
554.87	22940.77
555.234	23065.06
555.597	22969.24
555.96	23113.19
556.323	23287.42
556.686	23187.54
557.05	23378.95
557.413	23576.46
557.776	23548.21
558.139	23691.03
558.502	23783.68
558.865	23830.23
559.228	24043.56
559.59	23983.23
559.953	24086.05
560.316	24416.66
560.679	24375.31
561.041	24570.55
561.404	24715.64
561.767	24870.89
562.129	24725.13
562.492	25029.75
562.854	25090.99
563.217	25256.19
563.579	25312.68
563.941	25533.47
564.304	25537.31
564.666	25742.5
565.028	25928.71
565.39	25916.28
565.753	26151.98
566.115	26236.73
566.477	26340.68
566.839	26373.9
567.201	26732.76
567.563	26747.45
567.925	26926.2
568.287	27082.35
568.648	27375.68
569.01	27306.75
569.372	27593.53
569.734	27630.14
570.095	27852.28
570.457	28062.89
570.819	28026.73
571.18	28137.01
571.542	28418.14
571.903	28391.92
572.265	28629.66
572.626	28723.67
572.987	28760.5
573.349	29082.3
573.71	29173.37
574.071	29321.39
574.432	29546.69
574.794	29791.66
575.155	29771.55
575.516	29860.36
575.877	29927.7
576.238	30001.6
576.599	30242.72
576.96	30349.84
577.32	30484.07
577.681	30596.16
578.042	30808.13
578.403	30833.67
578.763	30873.89
579.124	31099.2
579.485	31284.05
579.845	31448.11
580.206	31504.61
580.566	31672.29
580.927	31704.15
581.287	31740.76
581.648	31981.43
582.008	32105.27
582.368	32168.32
582.728	32410.35
583.089	32416.22
583.449	32573.06
583.809	32719.04
584.169	32794.52
584.529	32949.54
584.889	33438.12
585.249	33198.8
585.609	33183.66
585.969	33462.52
586.329	33517.89
586.688	33807.6
587.048	34017.99
587.408	34200.81
587.768	34300.69
588.127	34497.98
588.487	34709.5
588.846	35178.41
589.206	34961.47
589.565	35223.83
589.925	35626.31
590.284	35736.36
590.643	35994.89
591.003	36184.71
591.362	36750.35
591.721	36670.12
592.08	36895.2
592.44	37351.69
592.799	37528.41
593.158	37857.66
593.517	37885.01
593.876	38278.22
594.235	38501.94
594.593	38731.31
594.952	39026.67
595.311	39264.41
595.67	39451.97
596.029	39959.98
596.387	40192.97
596.746	40639.74
597.104	40533.3
597.463	40964.7
597.822	41351.13
598.18	41425.93
598.538	41842.42
598.897	42264.33
599.255	42079.47
599.613	42878.77
599.972	42840.81
600.33	43167.35
600.688	43192.44
601.046	43705.64
601.404	44161.9
601.762	44194.9
602.12	44675.11
602.478	44882.56
602.836	45190.58
603.194	45054.99
603.552	45450.23
603.91	45563.45
604.268	45954.17
604.625	46058.8
604.983	46599.58
605.341	46519.58
605.698	46982.17
606.056	47403.85
606.413	47187.36
606.771	47624.19
607.128	47863.95
607.485	47916.83
607.843	48110.5
608.2	48454.67
608.557	48681.11
608.914	48718.85
609.272	48998.61
609.629	49313.41
609.986	49593.63
610.343	49716.79
610.7	49880.17
611.057	50026.83
611.414	50028.87
611.771	50429.31
612.127	50569.19
612.484	50553.37
612.841	50870.2
613.198	50898.45
613.554	50888.05
613.911	51189.29
614.267	51339.79
614.624	51380.02
614.98	51580.92
615.337	51773.91
615.693	51810.06
616.05	51972.32
616.406	52100.23
616.762	52024.3
617.118	52148.81
617.475	52199.21
617.831	52426.32
618.187	52488.46
618.543	52543.15
618.899	52783.37
619.255	52761.68
619.611	52902.46
619.967	53079.18
620.323	53140.42
620.678	53015.68
621.034	53041.9
621.39	53179.29
621.746	53213.87
622.101	53540.41
622.457	53291.38
622.812	53580.64
623.168	53548.55
623.523	53559.85
623.879	53789.67
624.234	53615.67
624.589	53725.04
624.945	53807.07
625.3	53829.45
625.655	53881.2
626.01	53894.3
626.365	53958.26
626.72	53947.41
627.075	53902.44
627.43	53993.96
627.785	53962.1
628.14	54018.82
628.495	54139.27
628.85	54094.98
629.205	54023.34
629.559	54188.98
629.914	54085.71
630.269	54135.43
630.623	54018.59
630.978	53979.05
631.332	54161.64
631.687	54202.54
632.041	54049.78
632.396	54115.77
632.75	54024.02
633.104	54181.98
633.459	53981.53
633.813	53996.22
634.167	54051.36
634.521	54078.25
634.875	54023.79
635.229	54044.13
635.583	53837.36
635.937	53870.8
636.291	53849.56
636.645	53874.19
636.999	53725.04
637.352	53780.18
637.706	53676.46
638.06	53813.18
638.413	53673.07
638.767	53555.1
639.121	53709.68
639.474	53591.26
639.828	53617.7
640.181	53638.94
640.534	53650.92
640.888	53492.51
641.241	53344.49
641.594	53454.09
641.947	53525.27
642.301	53335.45
642.654	53455.22
643.007	53383.81
643.36	53461.55
643.713	53363.24
644.066	53525.95
644.419	53234.89
644.771	52984.95
645.124	52701.57
645.477	52806.42
645.83	52619.99
646.182	52572.53
646.535	52511.74
646.888	52646.2
647.24	52563.94
647.593	52653.21
647.945	52556.03
648.298	52419.31
648.65	52310.84
649.002	52093.22
649.355	51991.08
649.707	51927.35
650.059	51986.78
650.411	52389.26
650.763	52529.59
651.115	53034.89
651.467	52839.87
651.819	52906.31
652.171	52821.79
652.523	52782.24
652.875	52765.52
653.227	52680.55
653.578	52882.8
653.93	52801.9
654.282	52705.86
654.633	52686.88
654.985	52758.74
655.337	52702.7
655.688	52722.81
656.039	52754.22
656.391	52594
656.742	52589.25
657.094	52623.83
657.445	52781.11
657.796	52598.97
658.147	52687.33
658.498	52681.23
658.849	52867.66
659.2	52636.71
659.551	52634.68
659.902	52808.23
660.253	52617.5
660.604	52673.54
660.955	52570.04
661.306	52712.87
661.656	52614.34
662.007	52671.96
662.358	52615.69
662.708	52707.44
663.059	52656.6
663.409	52475.58
663.76	52694.11
664.11	52695.24
664.461	52673.54
664.811	52722.36
665.161	52718.51
665.511	52563.72
665.862	52624.28
666.212	52641.23
666.562	52641.91
666.912	52660.21
667.262	52621.34
667.612	52577.28
667.962	52711.96
668.312	52503.83
668.662	52650.72
669.011	52575.24
669.361	52620.89
669.711	52621.12
670.06	52506.09
670.41	52508.35
670.76	52445.98
671.109	52666.54
671.459	52546.09
671.808	52547.9
672.157	52574.34
672.507	52412.31
672.856	52404.62
673.205	52415.7
673.554	52521.01
673.904	52365.98
674.253	52657.05
674.602	52385.64
674.951	51972.77
675.3	51915.37
675.649	52404.17
675.998	52293.22
676.346	52322.37
676.695	52429.93
677.044	52144.52
677.393	52251.41
677.741	52335.25
678.09	52340.22
678.438	52155.59
678.787	52216.83
679.135	52278.07
679.484	51949.04
679.832	52082.6
680.181	52034.24
680.529	52075.37
680.877	51956.5
681.225	51916.95
681.573	52174.12
681.922	51926.22
682.27	51825.21
682.618	51901.36
682.966	51685.77
683.314	51797.86
683.661	51682.16
684.009	51525.1
684.357	51471.99
684.705	51349.51
685.053	51390.64
685.4	51330.75
685.748	51151.55
686.095	51251.43
686.443	51027.71
686.79	50948.84
687.138	51053.47
687.485	50879.02
687.832	50876.98
688.18	50778
688.527	50670.66
688.874	50673.6
689.221	50707.49
689.568	50548.18
689.915	50343.44
690.262	50421.85
690.609	50385.47
690.956	50227.96
691.303	50140.96
691.65	50067.51
691.997	50026.16
692.344	49920.85
692.69	49836.56
693.037	49854.18
693.383	49374.87
693.73	49548.43
694.077	49319.51
694.423	49349.79
694.769	49037.71
695.116	49061.21
695.462	48947.77
695.808	48830.03
696.155	48881.33
696.501	48497.16
696.847	48558.62
697.193	48357.5
697.539	48318.86
697.885	48106.66
698.231	48027.11
698.577	47958.19
698.923	48070.28
699.269	47515.26
699.614	47550.52
699.96	47336.06
700.306	47409.73
700.651	47176.74
700.997	47068.04
701.342	46939.91
701.688	46726.81
702.033	46673.25
702.379	46555.97
702.724	46383.99
703.069	46478.45
703.415	46215.86
703.76	46039.82
704.105	45873.95
704.45	45798.7
704.795	45719.38
705.14	45593.5
705.485	45538.14
705.83	45251.14
706.175	45517.35
706.52	45369.33
706.865	45058.83
707.209	45092.05
707.554	44812.51
707.899	44842.34
708.243	44649.12
708.588	44455.23
708.932	44375.01
709.277	44294.1
709.621	44170.72
709.966	43725.08
710.31	44041.45
710.654	43788.13
710.998	43822.7
711.342	43668.58
711.687	43692.99
712.031	43514.69
712.375	43259.78
712.719	43249.16
713.063	43352.21
713.407	43397.18
713.75	43106.79
714.094	43090.97
714.438	42935.5
714.782	42965.1
715.125	42763.97
715.469	42922.61
715.812	42516.3
716.156	42646.24
716.499	42483.76
716.843	42463.64
717.186	42311.33
717.53	42472.46
717.873	42443.98
718.216	42430.2
718.559	42315.17
718.902	42075.63
719.246	42131
719.589	42103.88
719.932	41848.97
720.275	41785.02
720.617	41961.06
720.96	41894.39
721.303	41925.58
721.646	41914.28
721.989	41561.07
722.331	41721.52
722.674	41635.64
723.016	41611.24
723.359	41380.96
723.701	41474.74
724.044	41413.5
724.386	41231.13
724.729	41401.75
725.071	41314.07
725.413	41249.66
725.755	41248.99
726.097	41171.25
726.439	41026.17
726.782	41120.18
727.124	41307.52
727.465	41083.34
727.807	40962.67
728.149	40971.93
728.491	40938.71
728.833	40965.15
729.175	41011.93
729.516	40845.61
729.858	40876.79
730.199	40987.52
730.541	40832.27
730.882	40781.43
731.224	40952.5
731.565	40701.43
731.906	40859.17
732.248	41063.45
732.589	40768.09
732.93	40768.09
733.271	40750.02
733.612	40792.5
733.953	40980.29
734.294	40870.24
734.635	40686.97
734.976	40913.85
735.317	40706.4
735.658	40810.81
735.999	40709.79
736.339	40783.24
736.68	40733.97
737.021	40750.92
737.361	40763.35
737.702	41016.68
738.042	40771.94
738.383	40877.02
738.723	41070.69
739.063	40905.27
739.404	41080.4
739.744	40924.7
740.084	40958.6
740.424	41110.01
740.764	40956.34
741.104	41271.58
741.444	40918.37
741.784	41066.39
742.124	41302.09
742.464	41169.44
742.804	41131.25
743.143	41157.69
743.483	41330.11
743.823	41253.51
744.162	41318.14
744.502	41529.66
744.841	41370.56
745.181	41603.1
745.52	41550.22
745.86	41735.53
746.199	41629.77
746.538	41709.54
746.877	41972.13
747.216	41979.36
747.556	41905.24
747.895	42134.16
748.234	42100.94
748.573	42054.16
748.911	42236.98
749.25	42432.01
749.589	42449.63
749.928	42429.75
750.267	42820.24
750.605	42587.48
750.944	42813.92
751.283	42802.62
751.621	43074.47
751.96	42907.47
752.298	43218.65
752.636	43388.82
752.975	43362.6
753.313	43380.23
753.651	43665.19
753.989	43592.65
754.327	43604.86
754.666	43542.03
755.004	43825.19
