Data from 18-4530_FLMS001491_001.txt Node
Date: Thu Apr 19 16:44:02 BST 2018
User: hsy
Spectrometer: FLMS00149
Trigger mode: 0
Integration Time (sec): 1.000000E-2
Scans to average: 10
Electric dark correction enabled: true
Nonlinearity correction enabled: false
Boxcar width: 0
XAxis mode: Wavelengths
Number of Pixels in Spectrum: 2048
>>>>>Begin Spectral Data<<<<<
341.393	-4.82
341.776	-4.82
342.16	-4.82
342.543	-68.09
342.927	-83.91
343.31	-76.45
343.693	-71.26
344.077	-57.7
344.46	-55.44
344.843	-50.46
345.226	-48.43
345.61	-23.57
345.993	-17.02
346.376	-8.66
346.759	26.14
347.142	-6.62
347.525	27.73
347.908	82.87
348.291	66.37
348.674	84.67
349.057	127.84
349.44	118.57
349.823	155.86
350.206	171.68
350.588	226.59
350.971	224.1
351.354	257.78
351.737	263.88
352.119	269.75
352.502	276.53
352.884	297.55
353.267	299.13
353.65	326.47
354.032	316.53
354.414	334.38
354.797	316.76
355.179	347.94
355.562	348.39
355.944	347.26
356.326	347.72
356.709	341.84
357.091	365.57
357.473	359.92
357.855	381.16
358.238	363.99
358.62	366.93
359.002	370.54
359.384	370.99
359.766	363.08
360.148	375.74
360.53	366.47
360.912	359.02
361.294	347.72
361.676	365.12
362.057	378
362.439	376.87
362.821	353.82
363.203	363.99
363.584	356.3
363.966	355.17
364.348	326.93
364.729	369.41
365.111	346.36
365.493	342.75
365.874	338.45
366.256	372.8
366.637	346.81
367.019	366.25
367.4	363.08
367.781	364.89
368.163	366.25
368.544	373.03
368.925	353.37
369.306	354.72
369.688	358.34
370.069	355.17
370.45	356.08
370.831	359.92
371.212	371.9
371.593	363.76
371.974	347.26
372.355	361.05
372.736	345.68
373.117	387.72
373.498	359.92
373.879	343.42
374.26	343.2
374.641	365.8
375.021	363.76
375.402	360.82
375.783	382.52
376.163	383.2
376.544	392.69
376.925	394.5
377.305	403.76
377.686	373.03
378.066	382.52
378.447	387.72
378.827	399.92
379.208	388.39
379.588	385
379.968	400.37
380.349	374.61
380.729	411.22
381.109	407.15
381.489	398.79
381.87	406.92
382.25	413.93
382.63	414.61
383.01	433.82
383.39	401.27
383.77	411.22
384.15	428.39
384.53	439.24
384.91	439.47
385.29	455.28
385.67	452.12
386.049	428.62
386.429	457.54
386.809	438.11
387.189	439.47
387.568	447.83
387.948	446.47
388.328	447.38
388.707	445.79
389.087	449.64
389.466	462.74
389.846	479.24
390.225	486.02
390.605	470.88
390.984	484.89
391.363	488.73
391.743	493.93
392.122	475.62
392.501	488.5
392.881	497.54
393.26	506.81
393.639	491.89
394.018	502.29
394.397	512.46
394.776	524.21
395.155	544.55
395.534	519.24
395.913	517.2
396.292	538.9
396.671	525.34
397.05	530.76
397.429	527.83
397.808	561.27
398.186	537.32
398.565	549.75
398.944	556.3
399.323	547.49
399.701	573.93
400.08	559.91
400.458	570.99
400.837	573.25
401.215	573.02
401.594	601.95
401.972	595.85
402.351	600.37
402.729	597.65
403.107	627.48
403.486	609.4
403.864	631.33
404.242	634.71
404.62	631.55
404.999	642.4
405.377	665.67
405.755	673.58
406.133	646.92
406.511	678.1
406.889	693.47
407.267	696.41
407.645	703.87
408.023	697.54
408.401	688.27
408.779	720.36
409.156	720.59
409.534	735.73
409.912	717.88
410.29	758.33
410.667	773.92
411.045	773.47
411.422	779.57
411.8	794.48
412.178	814.15
412.555	806.69
412.933	826.57
413.31	840.36
413.687	856.63
414.065	855.05
414.442	846.91
414.819	877.87
415.197	875.84
415.574	881.49
415.951	879.45
416.328	882.62
416.705	921.49
417.082	904.54
417.46	931.88
417.837	936.85
418.214	946.57
418.591	956.97
418.967	959.68
419.344	967.59
419.721	976.63
420.098	978.21
420.475	985.67
420.852	1020.92
421.228	1012.78
421.605	1040.81
421.982	997.19
422.358	1044.42
422.735	1047.81
423.111	1061.14
423.488	1096.4
423.864	1079
424.241	1126
424.617	1101.37
424.994	1125.1
425.37	1116.06
425.746	1154.7
426.123	1176.4
426.499	1145.21
426.875	1183.4
427.251	1208.26
427.627	1223.17
428.003	1228.15
428.379	1257.3
428.756	1247.81
429.132	1266.79
429.507	1270.18
429.883	1298.43
430.259	1316.73
430.635	1365.32
431.011	1366.45
431.387	1345.66
431.763	1379.78
432.138	1403.28
432.514	1423.85
432.89	1446.22
433.265	1466.11
433.641	1508.59
434.016	1509.49
434.392	1520.12
434.767	1542.71
435.143	1569.83
435.518	1570.28
435.894	1589.72
436.269	1604.86
436.644	1662.94
437.02	1656.61
437.395	1663.39
437.77	1704.97
438.145	1746.32
438.52	1702.26
438.895	1732.99
439.271	1753.33
439.646	1757.62
440.021	1819.54
440.395	1819.32
440.77	1802.37
441.145	1801.92
441.52	1884.63
441.895	1860.9
442.27	1892.76
442.645	1874.91
443.019	1944.06
443.394	1921.91
443.769	1931.63
444.143	1918.07
444.518	1954.91
444.892	1964.17
445.267	1946.54
445.641	1997.84
446.016	1985.87
446.39	2024.06
446.764	2048.24
447.139	2033.77
447.513	2072.42
447.887	2047.56
448.262	2077.84
448.636	2094.34
449.01	2149.48
449.384	2155.8
449.758	2135.69
450.132	2194.9
450.506	2185.63
450.88	2195.35
451.254	2201
451.628	2248.68
452.002	2299.76
452.376	2314.22
452.75	2325.74
453.123	2351.05
453.497	2368.23
453.871	2363.26
454.244	2451.84
454.618	2491.39
454.992	2496.36
455.365	2493.88
455.739	2567.55
456.112	2608.9
456.486	2612.52
456.859	2617.04
457.232	2707.43
457.606	2702.91
457.979	2780.65
458.352	2777.94
458.725	2813.41
459.099	2846.41
459.472	2884.6
459.845	2932.51
460.218	2965.28
460.591	2960.08
460.964	3037.36
461.337	3052.28
461.71	3124.59
462.083	3111.26
462.456	3139.73
462.829	3172.95
463.201	3201.43
463.574	3248.21
463.947	3305.38
464.32	3309.22
464.692	3339.28
465.065	3394.42
465.438	3442.1
465.81	3485.04
466.183	3508.99
466.555	3584.47
466.928	3602.77
467.3	3600.06
467.672	3665.82
468.045	3751.02
468.417	3725.03
468.789	3729.55
469.161	3788.76
469.534	3846.83
469.906	3933.39
470.278	3936.32
470.65	4010.9
471.022	4076.21
471.394	4113.04
471.766	4154.85
472.138	4220.84
472.51	4304.22
472.882	4352.13
473.253	4416.54
473.625	4451.79
473.997	4564.56
474.369	4613.37
474.74	4626.7
475.112	4714.16
475.484	4772.91
475.855	4840.03
476.227	4926.35
476.598	5078.89
476.97	5076.86
477.341	5192.79
477.713	5257.42
478.084	5274.82
478.455	5513.23
478.827	5442.5
479.198	5588.93
479.569	5614.7
479.94	5781.25
480.311	5843.84
480.682	5971.3
481.053	6165.42
481.424	6208.58
481.795	6239.99
482.166	6323.83
482.537	6464.17
482.908	6557.5
483.279	6627.55
483.65	6804.27
484.021	6835.46
484.391	6955.45
484.762	7052.4
485.133	7102.57
485.503	7214.43
485.874	7390.47
486.244	7395.44
486.615	7611.03
486.985	7754.53
487.356	7825.26
487.726	7915.43
488.097	8094.86
488.467	8172.82
488.837	8348.64
489.207	8378.92
489.578	8546.15
489.948	8602.42
490.318	8769.64
490.688	8855.52
491.058	8945.46
491.428	9098.45
491.798	9193.59
492.168	9413.92
492.538	9499.57
492.908	9541.37
493.278	9664.31
493.648	9695.95
494.017	9913.34
494.387	9969.38
494.757	10005.77
495.126	10125.99
495.496	10203.05
495.866	10429.26
496.235	10431.29
496.605	10575.02
496.974	10568.47
497.344	10721.68
497.713	10755.35
498.082	10878.51
498.452	10900.21
498.821	11008.68
499.19	11091.62
499.559	11208
499.928	11288.67
500.298	11405.96
500.667	11498.61
501.036	11490.47
501.405	11605.05
501.774	11625.61
502.143	11740.19
502.512	11734.31
502.88	11890.46
503.249	11885.04
503.618	12017.69
503.987	12125.26
504.356	12217.24
504.724	12295.65
505.093	12289.78
505.462	12324.8
505.83	12441.18
506.199	12572.71
506.567	12750.78
506.936	12718.01
507.304	12871.23
507.672	12960.94
508.041	12973.83
508.409	13048.85
508.777	13174.27
509.145	13285.23
509.514	13249.52
509.882	13329.75
510.25	13418.56
510.618	13559.8
510.986	13589.18
511.354	13683.86
511.722	13851.77
512.09	13904.87
512.458	13874.82
512.826	14052.89
513.193	14079.11
513.561	14156.85
513.929	14207.47
514.297	14395.48
514.664	14384.86
515.032	14498.76
515.4	14517.74
515.767	14567.68
516.135	14713.67
516.502	14650.84
516.869	14944.17
517.237	14976.26
517.604	14911.63
517.972	15100.55
518.339	15312.07
518.706	15363.82
519.073	15310.71
519.44	15390.26
519.808	15602.23
520.175	15655.79
520.542	15757.48
520.909	15769.91
521.276	15901.66
521.643	16056
522.009	16123.35
522.376	16324.02
522.743	16369.44
523.11	16553.39
523.477	16662.32
523.843	16694.86
524.21	16909.09
524.577	17114.28
524.943	17101.4
525.31	17217.56
525.676	17229.76
526.043	17489.64
526.409	17397.89
526.776	17609.64
527.142	17697.09
527.508	17792.91
527.874	18007.82
528.241	18097.76
528.607	18130.75
528.973	18322.61
529.339	18167.14
529.705	18467.01
530.071	18543.17
530.437	18593.11
530.803	18662.72
531.169	18857.06
531.535	18890.05
531.901	18935.02
532.267	18943.16
532.632	19181.35
532.998	19052.76
533.364	19151.29
533.73	19319.87
534.095	19380.66
534.461	19374.34
534.826	19493.43
535.192	19536.59
535.557	19716.93
535.923	19636.02
536.288	19751.05
536.653	19817.94
537.019	19683.71
537.384	19863.14
537.749	19701.11
538.114	19854.77
538.479	19854.1
538.845	19976.35
539.21	19908.33
539.575	20008.89
539.94	20020.42
540.305	20054.32
540.67	20050.7
541.034	20082.79
541.399	20046.18
541.764	20223.8
542.129	20166.4
542.494	20271.26
542.858	20270.13
543.223	20166.63
543.587	20318.94
543.952	20187.2
544.316	20261.77
544.681	20242.79
545.045	20431.26
545.41	20415.21
545.774	20292.05
546.138	20276.68
546.503	20456.79
546.867	20438.71
547.231	20582.21
547.595	20504.47
547.959	20530.69
548.324	20438.71
548.688	20603.46
549.052	20579.28
549.416	20581.54
549.779	20701.76
550.143	20676.9
550.507	20733.4
550.871	20747.18
551.235	20739.5
551.599	20825.82
551.962	20844.35
552.326	20848.42
552.689	20801.42
553.053	20751.47
553.417	20911.7
553.78	21005.93
554.143	21066.95
554.507	21099.04
554.87	21047.74
555.234	21174.97
555.597	21242.08
555.96	21172.93
556.323	21296.32
556.686	21332.25
557.05	21370.89
557.413	21381.51
557.776	21467.61
558.139	21627.84
558.502	21562.3
558.865	21463.09
559.228	21676.87
559.59	21703.54
559.953	21640.94
560.316	21886.81
560.679	21950.99
561.041	21981.5
561.404	22192.34
561.767	22200.7
562.129	22123.19
562.492	22261.26
562.854	22277.99
563.217	22405.67
563.579	22480.02
563.941	22533.12
564.304	22714.59
564.666	22954.58
565.028	22835.49
565.39	22982.6
565.753	23116.38
566.115	23139.89
566.477	23202.03
566.839	23495.36
567.201	23481.57
567.563	23485.64
567.925	23552.98
568.287	23794.78
568.648	23792.07
569.01	24012.63
569.372	24126.3
569.734	24132.4
570.095	24342.11
570.457	24479.96
570.819	24427.76
571.18	24507.76
571.542	24747.75
571.903	24620.52
572.265	24812.61
572.626	24922.21
572.987	25055.99
573.349	25244.92
573.71	25373.73
574.071	25394.29
574.432	25524.46
574.794	25822.75
575.155	25642.19
575.516	25773.04
575.877	25835.86
576.238	25815.75
576.599	26023.65
576.96	26034.5
577.32	26239.92
577.681	26270.88
578.042	26350.87
578.403	26338.9
578.763	26419.8
579.124	26630.42
579.485	26630.87
579.845	26678.32
580.206	26616.86
580.566	26633.35
580.927	26678.32
581.287	26793.12
581.648	26636.07
582.008	26808.04
582.368	26949.96
582.728	26755.61
583.089	26695.5
583.449	26919.9
583.809	26989.05
584.169	27155.37
584.529	26951.31
584.889	27153.79
585.249	26993.8
585.609	26821.82
585.969	27097.52
586.329	26902.72
586.688	27089.61
587.048	27039.9
587.408	26975.49
587.768	27004.87
588.127	26915.38
588.487	26966.23
588.846	27079.9
589.206	26890.07
589.565	26820.02
589.925	27083.06
590.284	26869.73
590.643	26991.08
591.003	26846.68
591.362	27005.55
591.721	26977.98
592.08	27049.39
592.44	27093.23
592.799	26961.71
593.158	27010.97
593.517	26889.84
593.876	27026.34
594.235	26993.8
594.593	27014.59
594.952	26933.23
595.311	27016.62
595.67	27069.73
596.029	27128.93
596.387	27123.06
596.746	27236.28
597.104	27027.47
597.463	27043.51
597.822	27090.74
598.18	26984.08
598.538	26970.29
598.897	27103.85
599.255	26968.49
599.613	27240.34
599.972	27038.09
600.33	26983.17
600.688	26950.63
601.046	27079.44
601.404	27212.32
601.762	27212.32
602.12	27187.92
602.478	27167.58
602.836	27309.49
603.194	27213
603.552	27207.8
603.91	27116.05
604.268	27109.05
604.625	27077.41
604.983	27153.79
605.341	27108.37
605.698	27288.25
606.056	27327.12
606.413	27250.29
606.771	27393.56
607.128	27328.7
607.485	27244.18
607.843	27255.48
608.2	27423.16
608.557	27484.4
608.914	27433.56
609.272	27483.5
609.629	27677.39
609.986	27622.71
610.343	27658.86
610.7	27782.25
611.057	27791.97
611.414	27728.01
611.771	27764.17
612.127	27765.08
612.484	27804.17
612.841	27925.3
613.198	27765.3
613.554	27732.76
613.911	28013.88
614.267	28106.31
614.624	28020.89
614.98	28176.14
615.337	28259.75
615.693	28262.01
616.05	28170.04
616.406	28395.79
616.762	28153.31
617.118	28182.92
617.475	28249.58
617.831	28441.44
618.187	28330.03
618.543	28415
618.899	28522.34
619.255	28579.06
619.611	28462.46
619.967	28723.47
620.323	28720.3
620.678	28573.42
621.034	28558.05
621.39	28576.81
621.746	28536.58
622.101	28807.53
622.457	28555.34
622.812	28746.29
623.168	28826.97
623.523	28791.26
623.879	28839.17
624.234	28679.85
624.589	28804.82
624.945	28741.09
625.3	28776.8
625.655	28765.5
626.01	28743.81
626.365	28934.31
626.72	28747.65
627.075	28766.63
627.43	28737.25
627.785	28758.5
628.14	28708.1
628.495	28784.94
628.85	28806.86
629.205	28629.91
629.559	28846.85
629.914	28772.96
630.269	28654.32
630.623	28576.81
630.978	28452.51
631.332	28669.91
631.687	28638.95
632.041	28595.56
632.396	28566.41
632.75	28478.73
633.104	28604.6
633.459	28363.48
633.813	28489.58
634.167	28435.11
634.521	28473.08
634.875	28418.84
635.229	28437.6
635.583	28156.48
635.937	28303.14
636.291	28205.52
636.645	28143.37
636.999	28096.82
637.352	28154.67
637.706	27966.2
638.06	28194.89
638.413	27935.69
638.767	27957.16
639.121	27847.56
639.474	27869.25
639.828	27692.08
640.181	27761.46
640.534	27874.68
640.888	27782.7
641.241	27609.15
641.594	27641.24
641.947	27644.85
642.301	27621.12
642.654	27720.56
643.007	27534.8
643.36	27735.02
643.713	27506.55
644.066	27717.84
644.419	27491.18
644.771	27149.72
645.124	26913.8
645.477	26839.9
645.83	26943.4
646.182	26930.07
646.535	26844.42
646.888	26885.78
647.24	26822.27
647.593	26988.37
647.945	26910.18
648.298	26723.75
648.65	26474.04
649.002	26501.38
649.355	26372.8
649.707	26260.93
650.059	26250.76
650.411	26602.85
650.763	26871.31
651.115	27283.28
651.467	27242.38
651.819	27260.68
652.171	27251.87
652.523	27026.34
652.875	27140.46
653.227	27016.17
653.578	27207.58
653.93	27273.34
654.282	27117.41
654.633	26930.52
654.985	27078.77
655.337	26988.82
655.688	27150.85
656.039	27134.13
656.391	26902.27
656.742	26994.25
657.094	27086.9
657.445	27114.92
657.796	27099.1
658.147	27159.44
658.498	27162.83
658.849	27225.2
659.2	27105.21
659.551	26996.06
659.902	27182.72
660.253	27020.69
660.604	27232.21
660.955	27037.64
661.306	27191.53
661.656	27121.48
662.007	27139.55
662.358	27156.73
662.708	27142.04
663.059	27133.91
663.409	26958.54
663.76	27121.7
664.11	27144.3
664.461	27189.95
664.811	27264.98
665.161	27321.47
665.511	27146.33
665.862	27224.75
666.212	27322.6
666.562	27268.36
666.912	27354.69
667.262	27165.77
667.612	27237.18
667.962	27402.6
668.312	27132.1
668.662	27365.54
669.011	27276.95
669.361	27178.42
669.711	27306.56
670.06	27217.74
670.41	27145.2
670.76	27139.33
671.109	27314.69
671.459	27072.66
671.808	27197.86
672.157	27217.74
672.507	27080.8
672.856	27090.74
673.205	26957.64
673.554	27050.97
673.904	27052.1
674.253	27188.37
674.602	27020.46
674.951	26661.38
675.3	26598.55
675.649	26971.88
675.998	27020.46
676.346	27019.33
676.695	26953.8
677.044	26831.99
677.393	26826.57
677.741	26835.83
678.09	26889.39
678.438	26843.97
678.787	26877.19
679.135	26867.25
679.484	26622.28
679.832	26672
680.181	26693.92
680.529	26542.51
680.877	26565.78
681.225	26613.01
681.573	26719.9
681.922	26460.48
682.27	26393.59
682.618	26477.2
682.966	26441.72
683.314	26404.43
683.661	26354.26
684.009	26299.8
684.357	26156.98
684.705	26130.77
685.053	26137.32
685.4	25967.16
685.748	25794.96
686.095	25926.71
686.443	25706.15
686.79	25801.74
687.138	25721.06
687.485	25699.14
687.832	25588.18
688.18	25454.4
688.527	25371.92
688.874	25375.99
689.221	25405.14
689.568	25248.53
689.915	25045.82
690.262	25190.23
690.609	25028.2
690.956	24888.77
691.303	24904.13
691.65	24774.87
691.997	24761.99
692.344	24622.78
692.69	24564.48
693.037	24524.93
693.383	24386.63
693.73	24514.54
694.077	24283.36
694.423	24295.34
694.769	24194.1
695.116	24151.84
695.462	23919.07
695.808	23957.27
696.155	23964.5
696.501	23731.51
696.847	23776.03
697.193	23529.71
697.539	23619.87
697.885	23461.69
698.231	23458.52
698.577	23258.75
698.923	23264.85
699.269	23058.98
699.614	22975.37
699.96	22925.2
700.306	22950.96
700.651	22750.74
700.997	22646.79
701.342	22664.42
701.688	22550.97
702.033	22492.45
702.379	22505.55
702.724	22319.79
703.069	22371.09
703.415	22076.64
703.76	22132.45
704.105	22167.93
704.45	22055.85
704.795	21953.7
705.14	21903.08
705.485	21830.09
705.83	21677.33
706.175	21829.86
706.52	21736.08
706.865	21613.37
707.209	21499.93
707.554	21483.88
707.899	21541.51
708.243	21391.91
708.588	21359.82
708.932	21240.05
709.277	21355.3
709.621	21215.87
709.966	21048.19
710.31	21074.86
710.654	20807.74
710.998	20992.82
711.342	20957.8
711.687	20873.28
712.031	20796.22
712.375	20696.56
712.719	20728.88
713.063	20744.47
713.407	20728.2
713.75	20647.97
714.094	20545.38
714.438	20644.58
714.782	20524.59
715.125	20494.31
715.469	20628.99
715.812	20347.42
716.156	20407.3
716.499	20507.41
716.843	20408.88
717.186	20220.19
717.53	20495.44
717.873	20372.05
718.216	20324.37
718.559	20312.39
718.902	20075.79
719.246	20262.45
719.589	20140.87
719.932	20122.79
720.275	20116.24
720.617	20110.81
720.96	20056.35
721.303	20120.98
721.646	20147.87
721.989	20102.9
722.331	20017.03
722.674	20009.35
723.016	20100.87
723.359	19993.53
723.701	20034.43
724.044	20049.12
724.386	19935.22
724.729	20018.84
725.071	20014.09
725.413	20013.19
725.755	19985.62
726.097	19926.64
726.439	19892.51
726.782	19977.71
727.124	20028.1
727.465	20016.13
727.807	19939.07
728.149	19953.98
728.491	19877.37
728.833	19894.32
729.175	19921.67
729.516	19909.46
729.858	19889.58
730.199	20058.39
730.541	19940.42
730.882	19942.91
731.224	20025.39
731.565	19922.8
731.906	19939.74
732.248	19979.29
732.589	19912.85
732.93	19894.32
733.271	20010.48
733.612	19965.73
733.953	20084.37
734.294	20081.89
734.635	20007.31
734.976	20096.35
735.317	20073.3
735.658	20085.28
735.999	20124.6
736.339	20028.78
736.68	20170.92
737.021	20138.61
737.361	20202.56
737.702	20207.99
738.042	20217.93
738.383	20201.88
738.723	20317.59
739.063	20348.32
739.404	20450.47
739.744	20372.73
740.084	20497.02
740.424	20518.49
740.764	20473.52
741.104	20641.65
741.444	20646.39
741.784	20600.52
742.124	20734.75
742.464	20718.71
742.804	20821.08
743.143	20857.01
743.483	20931.13
743.823	20871.92
744.162	21102.88
744.502	20996.89
744.841	21089.32
745.181	21320.5
745.52	21306.71
745.86	21394.4
746.199	21475.3
746.538	21658.34
746.877	21700.15
747.216	21694.27
747.556	21867.38
747.895	21952.12
748.234	22113.25
748.573	22023.31
748.911	22284.54
749.25	22378.1
749.589	22467.14
749.928	22553.46
750.267	22690.86
750.605	22838.88
750.944	22960.68
751.283	23062.6
751.621	23211.97
751.96	23228.92
752.298	23322.25
752.636	23526.77
752.975	23655.58
753.313	23738.51
753.651	24039.75
753.989	24088.79
754.327	24173.98
754.666	24196.58
