Data from 18-4530_FLMS001491_005.txt Node
Date: Thu Apr 19 16:44:13 BST 2018
User: hsy
Spectrometer: FLMS00149
Trigger mode: 0
Integration Time (sec): 1.000000E-2
Scans to average: 10
Electric dark correction enabled: true
Nonlinearity correction enabled: false
Boxcar width: 0
XAxis mode: Wavelengths
Number of Pixels in Spectrum: 2048
>>>>>Begin Spectral Data<<<<<
341.393	0.85
341.776	0.85
342.16	0.85
342.543	-67.85
342.927	-92.48
343.31	-84.35
343.693	-57
344.077	-80.96
344.46	-50.45
344.843	-61.3
345.226	-42.32
345.61	-15.65
345.993	-3.67
346.376	-8.19
346.759	11.69
347.142	33.84
347.525	49.43
347.908	37
348.291	70.9
348.674	90.11
349.057	110.9
349.44	107.29
349.823	139.15
350.206	179.83
350.588	209.88
350.971	246.94
351.354	254.85
351.737	249.43
352.119	285.36
352.502	281.97
352.884	300.73
353.267	308.18
353.65	305.02
354.032	316.09
354.414	330.78
354.797	343.89
355.179	345.7
355.562	337.79
355.944	352.48
356.326	388.86
356.709	368.52
357.091	370.33
357.473	354.74
357.855	371.91
358.238	370.1
358.62	366.94
359.002	377.11
359.384	364.23
359.766	373.49
360.148	369.2
360.53	381.18
360.912	364
361.294	357.9
361.676	350.22
362.057	392.93
362.439	363.1
362.821	371.23
363.203	377.56
363.584	360.16
363.966	363.78
364.348	367.62
364.729	362.87
365.111	356.77
365.493	375.53
365.874	373.27
366.256	356.54
366.637	352.02
367.019	354.96
367.4	349.31
367.781	363.1
368.163	357
368.544	370.1
368.925	355.64
369.306	377.56
369.688	358.58
370.069	369.2
370.45	354.06
370.831	373.27
371.212	372.36
371.593	364
371.974	347.05
372.355	355.64
372.736	353.15
373.117	353.15
373.498	357.45
373.879	382.31
374.26	375.75
374.641	381.85
375.021	343.21
375.402	373.27
375.783	374.4
376.163	387.28
376.544	410.78
376.925	363.55
377.305	404
377.686	388.63
378.066	374.62
378.447	382.98
378.827	394.28
379.208	407.62
379.588	391.57
379.968	394.28
380.349	404.23
380.729	375.75
381.109	403.32
381.489	423.44
381.87	412.36
382.25	404.9
382.63	407.39
383.01	409.2
383.39	418.46
383.77	416.2
384.15	417.56
384.53	447.39
384.91	454.39
385.29	453.94
385.67	436.32
386.049	447.62
386.429	447.39
386.809	445.13
387.189	475.41
387.568	454.39
387.948	452.14
388.328	459.82
388.707	455.98
389.087	474.73
389.466	461.17
389.846	486.71
390.225	472.93
390.605	487.61
390.984	506.14
391.363	486.48
391.743	494.62
392.122	494.39
392.501	491.68
392.881	505.92
393.26	516.99
393.639	511.57
394.018	528.29
394.397	528.07
394.776	526.48
395.155	542.3
395.534	543.21
395.913	536.88
396.292	539.14
396.671	545.92
397.05	555.41
397.429	558.35
397.808	558.35
398.186	569.19
398.565	545.69
398.944	584.79
399.323	566.93
399.701	583.21
400.08	583.88
400.458	592.24
400.837	606.48
401.215	603.09
401.594	627.05
401.972	596.76
402.351	598.8
402.729	620.49
403.107	606.26
403.486	624.79
403.864	645.35
404.242	647.84
404.62	640.15
404.999	657.78
405.377	681.73
405.755	670.66
406.133	681.96
406.511	672.47
406.889	685.8
407.267	706.82
407.645	704.33
408.023	714.28
408.401	701.17
408.779	745.46
409.156	715.4
409.534	761.05
409.912	766.25
410.29	789.53
410.667	782.3
411.045	792.24
411.422	801.5
411.8	818.45
412.178	806.93
412.555	844.44
412.933	843.09
413.31	856.42
413.687	871.11
414.065	881.73
414.442	899.35
414.819	909.3
415.197	898.9
415.574	899.13
415.951	934.16
416.328	922.63
416.705	932.35
417.082	969.18
417.46	935.96
417.837	965.79
418.214	981.84
418.591	983.65
418.967	994.95
419.344	993.36
419.721	1022.74
420.098	996.3
420.475	1043.08
420.852	1047.37
421.228	1077.88
421.605	1067.94
421.982	1090.31
422.358	1084.21
422.735	1098.45
423.111	1108.61
423.488	1146.81
423.864	1119.46
424.241	1131.89
424.617	1145.22
424.994	1156.07
425.37	1167.37
425.746	1157.43
426.123	1205.11
426.499	1212.79
426.875	1245.56
427.251	1237.43
427.627	1263.64
428.003	1257.31
428.379	1300.02
428.756	1328.04
429.132	1327.82
429.507	1347.25
429.883	1326.69
430.259	1389.51
430.635	1379.57
431.011	1398.32
431.387	1429.96
431.763	1462.5
432.138	1476.97
432.514	1478.77
432.89	1481.49
433.265	1540.02
433.641	1553.8
434.016	1538.66
434.392	1588.15
434.767	1647.36
435.143	1599.68
435.518	1636.06
435.894	1668.6
436.269	1699.56
436.644	1706.57
437.02	1724.19
437.395	1713.12
437.77	1772.1
438.145	1777.75
438.52	1806.9
438.895	1834.47
439.271	1822.27
439.646	1860.69
440.021	1876.5
440.395	1933.68
440.77	1885.32
441.145	1933.23
441.52	1936.16
441.895	1931.42
442.27	1944.3
442.645	1966.45
443.019	1994.24
443.394	1977.52
443.769	2029.04
444.143	1997.86
444.518	2045.31
444.892	2030.4
445.267	2050.74
445.641	2091.87
446.016	2076.05
446.39	2094.35
446.764	2135.03
447.139	2131.19
447.513	2140.45
447.887	2132.54
448.262	2119.89
448.636	2172.54
449.01	2206.44
449.384	2229.49
449.758	2259.32
450.132	2281.69
450.506	2274.69
450.88	2273.56
451.254	2298.41
451.628	2336.15
452.002	2339.32
452.376	2381.12
452.75	2424.51
453.123	2456.15
453.497	2494.12
453.871	2512.65
454.244	2511.29
454.618	2546.77
454.992	2593.32
455.365	2595.36
455.739	2659.99
456.112	2705.41
456.486	2676.71
456.859	2724.17
457.232	2819.76
457.606	2799.42
457.979	2863.37
458.352	2907.89
458.725	2914.44
459.099	2989.24
459.472	2978.62
459.845	3044.61
460.218	3067.43
460.591	3074.44
460.964	3128
461.337	3189.01
461.71	3203.7
462.083	3289.57
462.456	3271.04
462.829	3285.28
463.201	3341.78
463.574	3357.37
463.947	3412.74
464.32	3421.1
464.692	3487.54
465.065	3510.59
465.438	3556.69
465.81	3617.02
466.183	3655.21
466.555	3705.38
466.928	3748.09
467.3	3733.63
467.672	3857.02
468.045	3851.82
468.417	3903.34
468.789	3873.97
469.161	3988.09
469.534	4035.32
469.906	4090.91
470.278	4131.81
470.65	4133.17
471.022	4223.56
471.394	4292.26
471.766	4333.61
472.138	4334.52
472.51	4464.01
472.882	4557.79
473.253	4604.57
473.625	4645.92
473.997	4722.53
474.369	4706.94
474.74	4788.29
475.112	4906.71
475.484	4943.54
475.855	5001.85
476.227	5091.79
476.598	5239.13
476.97	5280.26
477.341	5365.23
477.713	5409.74
478.084	5442.74
478.455	5619
478.827	5661.72
479.198	5788.72
479.569	5826.01
479.94	5906.23
480.311	6071.65
480.682	6156.84
481.053	6299.66
481.424	6412.43
481.795	6444.07
482.166	6575.59
482.537	6633.89
482.908	6784.17
483.279	6853.55
483.65	7009.02
484.021	7139.19
484.391	7206.08
484.762	7242.01
485.133	7325.63
485.503	7436.36
485.874	7667.09
486.244	7742.11
486.615	7887.19
486.985	7967.19
487.356	8110.92
487.726	8221.87
488.097	8368.31
488.467	8402.66
488.837	8702.31
489.207	8690.79
489.578	8783.67
489.948	8940.73
490.318	8998.58
490.688	9114.51
491.058	9311.79
491.428	9424.1
491.798	9431.33
492.168	9684.21
492.538	9691.21
492.908	9881.72
493.278	9942.28
493.648	9992.45
494.017	10143.86
494.387	10204.87
494.757	10288.94
495.126	10432.89
495.496	10494.36
495.866	10612.09
496.235	10720.11
496.605	10843.5
496.974	10815.25
497.344	11081.23
497.713	11010.5
498.082	11131.85
498.452	11215.69
498.821	11375.69
499.19	11386.99
499.559	11468.57
499.928	11592.18
500.298	11641.45
500.667	11770.71
501.036	11765.51
501.405	11835.34
501.774	11872.17
502.143	12076.24
502.512	12196.91
502.88	12266.51
503.249	12216.57
503.618	12306.51
503.987	12420.18
504.356	12496.79
504.724	12602.55
505.093	12631.93
505.462	12694.98
505.83	12734.07
506.199	12827.63
506.567	13085.25
506.936	12965.25
507.304	13171.12
507.672	13186.94
508.041	13188.52
508.409	13312.81
508.777	13533.6
509.145	13479.36
509.514	13528.85
509.882	13744.67
510.25	13756.87
510.618	13869.64
510.986	13854.49
511.354	13979.69
511.722	14148.27
512.09	14265.56
512.458	14116.86
512.826	14296.74
513.193	14339
513.561	14493.57
513.929	14487.02
514.297	14702.61
514.664	14740.8
515.032	14851.98
515.4	14904.18
515.767	14869.38
516.135	15041.58
516.502	14969.04
516.869	15198.87
517.237	15322.48
517.604	15208.36
517.972	15431.63
518.339	15521.12
518.706	15585.3
519.073	15667.55
519.44	15696.93
519.808	15896.02
520.175	15957.94
520.542	16075
520.909	16201.55
521.276	16258.95
521.643	16449.23
522.009	16547.98
522.376	16669.79
522.743	16736.45
523.11	16869.56
523.477	16997.69
523.843	17018.71
524.21	17243.33
524.577	17389.32
524.943	17455.08
525.31	17403.78
525.676	17741.4
526.043	17738.91
526.409	17863.88
526.776	18012.35
527.142	17975.74
527.508	18116.3
527.874	18317.65
528.241	18485.33
528.607	18455.05
528.973	18745.44
529.339	18756.74
529.705	18935.26
530.071	18968.48
530.437	19028.82
530.803	19144.75
531.169	19254.13
531.535	19208.03
531.901	19317.85
532.267	19377.29
532.632	19540.22
532.998	19513.1
533.364	19677.39
533.73	19601.91
534.095	19852.75
534.461	19830.16
534.826	19921.68
535.192	19934.56
535.557	20052.3
535.923	20073.09
536.288	20097.49
536.653	20134.56
537.019	20189.24
537.384	20246.64
537.749	20309.01
538.114	20254.78
538.479	20245.06
538.845	20429.24
539.21	20334.1
539.575	20426.07
539.94	20422.68
540.305	20503.81
540.67	20527.54
541.034	20542
541.399	20665.84
541.764	20542.23
542.129	20613.64
542.494	20673.52
542.858	20656.58
543.223	20623.36
543.587	20745.61
543.952	20647.76
544.316	20742
544.681	20554.66
545.045	20835.33
545.41	20858.38
545.774	20684.82
546.138	20753.52
546.503	20882.56
546.867	20814.99
547.231	20963.01
547.595	20934.99
547.959	20974.31
548.324	21021.76
548.688	21004.59
549.052	21065.83
549.416	20925.04
549.779	20951.71
550.143	21001.43
550.507	21110.57
550.871	21110.57
551.235	20982.44
551.599	21255.43
551.962	21073.74
552.326	21203
552.689	21226.05
553.053	21079.39
553.417	21266.73
553.78	21332.94
554.143	21363.22
554.507	21371.13
554.87	21343.34
555.234	21683.44
555.597	21432.83
555.96	21608.87
556.323	21605.48
556.686	21616.78
557.05	21767.96
557.413	21727.51
557.776	21775.87
558.139	21908.07
558.502	21865.58
558.865	22022.87
559.228	21945.81
559.59	22008.4
559.953	22091.57
560.316	22333.59
560.679	22277.1
561.041	22346.47
561.404	22528.39
561.767	22577.88
562.129	22536.98
562.492	22741.27
562.854	22850.19
563.217	22735.62
563.579	22789.85
563.941	22885.67
564.304	23113.91
564.666	23275.49
565.028	23236.17
565.39	23213.57
565.753	23451.76
566.115	23521.36
566.477	23611.53
566.839	23677.51
567.201	23961.8
567.563	23886.1
567.925	24100.33
568.287	24015.36
568.648	24251.06
569.01	24401.34
569.372	24557.26
569.734	24615.34
570.095	24870.25
570.457	25010.59
570.819	24912.73
571.18	24888.33
571.542	25230.47
571.903	25166.29
572.265	25364.47
572.626	25503.45
572.987	25531.02
573.349	25614.64
573.71	25834.97
574.071	25912.26
574.432	26144.34
574.794	26251.46
575.155	26210.33
575.516	26230.67
575.877	26327.39
576.238	26468.4
576.599	26600.37
576.96	26615.97
577.32	26828.84
577.681	26832.01
578.042	26975.05
578.403	26996.97
578.763	26960.36
579.124	27009.18
579.485	27258.44
579.845	27281.71
580.206	27099.34
580.566	27282.62
580.927	27316.06
581.287	27462.27
581.648	27266.57
582.008	27476.74
582.368	27470.63
582.728	27528.26
583.089	27480.35
583.449	27555.6
583.809	27546.11
584.169	27568.26
584.529	27529.39
584.889	27854.13
585.249	27458.66
585.609	27437.41
585.969	27703.17
586.329	27565.55
586.688	27722.38
587.048	27604.19
587.408	27645.32
587.768	27562.38
588.127	27552.67
588.487	27583.85
588.846	27869.72
589.206	27410.97
589.565	27615.94
589.925	27631.76
590.284	27531.87
590.643	27518.99
591.003	27627.47
591.362	27716.5
591.721	27535.94
592.08	27593.79
592.44	27791.98
592.799	27470.86
593.158	27586.11
593.517	27547.24
593.876	27702.94
594.235	27601.93
594.593	27618.2
594.952	27598.99
595.311	27624.53
595.67	27595.38
596.029	27833.56
596.387	27716.95
596.746	27790.63
597.104	27590.63
597.463	27653.23
597.822	27671.08
598.18	27615.49
598.538	27548.6
598.897	27865.88
599.255	27496.62
599.613	27968.47
599.972	27637.63
600.33	27707.01
600.688	27607.58
601.046	27726.9
601.404	27833.34
601.762	27889.38
602.12	27830.4
602.478	27915.82
602.836	27834.47
603.194	27613.91
603.552	27701.81
603.91	27686.67
604.268	27793.11
604.625	27688.93
604.983	27886.22
605.341	27769.83
605.698	27889.83
606.056	27984.07
606.413	27878.98
606.771	28046.44
607.128	27856.16
607.485	27917.18
607.843	27911.3
608.2	27935.48
608.557	28227
608.914	28121.69
609.272	28180.45
609.629	28238.3
609.986	28274.68
610.343	28197.17
610.7	28523.04
611.057	28306.77
611.414	28219.31
611.771	28480.78
612.127	28514
612.484	28425.86
612.841	28695.23
613.198	28334.57
613.554	28372.98
613.911	28662.24
614.267	28741.79
614.624	28601.23
614.98	28611.39
615.337	28876.02
615.693	28870.37
616.05	28729.58
616.406	28890.48
616.762	28765.74
617.118	28827.89
617.475	28795.8
617.831	28889.13
618.187	29083.25
618.543	28929.58
618.899	29175.9
619.255	29143.36
619.611	29147.2
619.967	29288.21
620.323	29324.14
620.678	29105.62
621.034	29101.78
621.39	29170.93
621.746	29195.33
622.101	29498.6
622.457	29268.1
622.812	29403.46
623.168	29307.87
623.523	29467.64
623.879	29407.08
624.234	29416.35
624.589	29393.97
624.945	29445.04
625.3	29454.54
625.655	29507.64
626.01	29383.35
626.365	29424.93
626.72	29448.21
627.075	29523.91
627.43	29362.34
627.785	29429.23
628.14	29467.42
628.495	29475.1
628.85	29393.52
629.205	29361.66
629.559	29331.6
629.914	29218.38
630.269	29302.45
630.623	29266.97
630.978	29162.79
631.332	29339.29
631.687	29289.79
632.041	29195.33
632.396	29215.67
632.75	29281.21
633.104	29177.93
633.459	29137.26
633.813	29045.06
634.167	28988.56
634.521	28995.34
634.875	29083.25
635.229	28899.52
635.583	28938.62
635.937	28768.68
636.291	28804.61
636.645	28791.28
636.999	28714.89
637.352	28808.23
637.706	28725.52
638.06	28648.46
638.413	28681.45
638.767	28592.41
639.121	28561
639.474	28407.78
639.828	28545.86
640.181	28410.95
640.534	28508.8
640.888	28335.47
641.241	28295.7
641.594	28354
641.947	28349.25
642.301	28317.17
642.654	28295.24
643.007	28211.86
643.36	28365.3
643.713	28229.03
644.066	28391.29
644.419	28210.5
644.771	27777.97
645.124	27609.84
645.477	27602.83
645.83	27525.77
646.182	27537.3
646.535	27559.44
646.888	27474.93
647.24	27308.15
647.593	27598.99
647.945	27364.87
648.298	27349.73
648.65	27331.65
649.002	27164.2
649.355	26914.49
649.707	26878.78
650.059	26849.41
650.411	27318.77
650.763	27460.69
651.115	27900.23
651.467	27798.99
651.819	27740.01
652.171	27740.68
652.523	27648.26
652.875	27803.28
653.227	27606
653.578	27841.25
653.93	27651.19
654.282	27663.62
654.633	27631.31
654.985	27850.74
655.337	27687.8
655.688	27635.38
656.039	27763.96
656.391	27530.97
656.742	27618.43
657.094	27662.27
657.445	27710.18
657.796	27802.15
658.147	27682.38
658.498	27664.75
658.849	27697.52
659.2	27676.05
659.551	27626.11
659.902	27796.95
660.253	27564.42
660.604	27830.85
660.955	27667.69
661.306	27838.08
661.656	27744.3
662.007	27736.16
662.358	27723.51
662.708	27735.26
663.059	27742.49
663.409	27579.56
663.76	27782.04
664.11	27784.3
664.461	27889.38
664.811	27908.59
665.161	27822.04
665.511	27765.54
665.862	27671.98
666.212	27834.69
666.562	27835.6
666.912	27757.63
667.262	27762.38
667.612	27854.8
667.962	27909.04
668.312	27787.91
668.662	27872.43
669.011	27897.52
669.361	27861.81
669.711	27865.88
670.06	27797.63
670.41	27787.46
670.76	27827.69
671.109	27814.35
671.459	27756.5
671.808	27860.91
672.157	27827.46
672.507	27687.58
672.856	27639.44
673.205	27608.94
673.554	27728.03
673.904	27660.91
674.253	27827.69
674.602	27582.5
674.951	27279.45
675.3	27084.88
675.649	27629.73
675.998	27558.09
676.346	27598.99
676.695	27589.73
677.044	27399.9
677.393	27418.43
677.741	27546.11
678.09	27509.28
678.438	27416.62
678.787	27491.88
679.135	27469.96
679.484	27234.48
679.832	27304.76
680.181	27154.94
680.529	27260.47
680.877	27147.25
681.225	27198.32
681.573	27270.64
681.922	27141.15
682.27	26916.07
682.618	27029.06
682.966	26973.7
683.314	26887.37
683.661	26985.45
684.009	26840.82
684.357	26772.12
684.705	26710.43
685.053	26693.93
685.4	26550.66
685.748	26580.26
686.095	26365.13
686.443	26356.99
686.79	26270.21
687.138	26368.74
687.485	26107.96
687.832	26225.47
688.18	26142.53
688.527	25930.11
688.874	25956.1
689.221	25987.96
689.568	25793.62
689.915	25626.39
690.262	25765.14
690.609	25605.6
690.956	25596.56
691.303	25531.02
691.65	25256.91
691.997	25311.59
692.344	25233.63
692.69	25034.99
693.037	25113.18
693.383	24790.93
693.73	24907.76
694.077	24843.13
694.423	24708.22
694.769	24563.14
695.116	24547.77
695.462	24354.78
695.808	24298.97
696.155	24359.08
696.501	24245.86
696.847	24219.65
697.193	24090.84
697.539	24060.33
697.885	23943.95
698.231	23786.21
698.577	23678.19
698.923	23607.68
699.269	23560.45
699.614	23467.35
699.96	23354.58
700.306	23361.36
700.651	23114.59
700.997	23099.45
701.342	23012.22
701.688	22931.77
702.033	22829.4
702.379	22851.32
702.724	22756.41
703.069	22776.97
703.415	22473.93
703.76	22514.15
704.105	22490.88
704.45	22383.08
704.795	22308.51
705.14	22259.25
705.485	22192.13
705.83	21987.39
706.175	22113.26
706.52	21994.17
706.865	21923.89
707.209	21881.85
707.554	21797.56
707.899	21859.71
708.243	21697
708.588	21638.7
708.932	21504.01
709.277	21593.05
709.621	21434.41
709.966	21356.9
710.31	21446.39
710.654	21193.74
710.998	21346.5
711.342	21382.21
711.687	21198.26
712.031	21144.47
712.375	21030.58
712.719	20992.84
713.063	20964.82
713.407	21130.69
713.75	20937.47
714.094	21102.89
714.438	20732.96
714.782	20892.28
715.125	20747.65
715.469	20880.07
715.812	20733.64
716.156	20676.91
716.499	20640.98
716.843	20724.14
717.186	20556.01
717.53	20670.13
717.873	20741.55
718.216	20629.46
718.559	20720.08
718.902	20447.54
719.246	20555.11
719.589	20534.77
719.932	20420.88
720.275	20440.08
720.617	20447.77
720.96	20365.96
721.303	20425.62
721.646	20514.66
721.989	20355.34
722.331	20485.96
722.674	20369.8
723.016	20345.17
723.359	20288.9
723.701	20329.8
724.044	20320.54
724.386	20255
724.729	20310.82
725.071	20262.46
725.413	20335.68
725.755	20253.42
726.097	20215.91
726.439	20193.31
726.782	20215.01
727.124	20267.21
727.465	20298.84
727.807	20162.13
728.149	20308.11
728.491	20220.88
728.833	20219.3
729.175	20221.11
729.516	20149.47
729.858	20276.02
730.199	20276.02
730.541	20358.73
730.882	20313.76
731.224	20315.34
731.565	20158.51
731.906	20334.1
732.248	20410.93
732.589	20278.73
732.93	20249.35
733.271	20292.97
733.612	20278.51
733.953	20320.99
734.294	20353.98
734.635	20243.03
734.976	20313.53
735.317	20320.09
735.658	20334.32
735.999	20425.62
736.339	20483.92
736.68	20535
737.021	20528.44
737.361	20423.81
737.702	20657.93
738.042	20459.29
738.383	20638.95
738.723	20683.47
739.063	20659.06
739.404	20704.71
739.744	20767.31
740.084	20711.94
740.424	20925.04
740.764	20873.74
741.104	21084.59
741.444	21037.58
741.784	20981.31
742.124	21200.74
742.464	21184.92
742.804	21212.27
743.143	21271.47
743.483	21280.06
743.823	21355.77
744.162	21460.85
744.502	21467.4
744.841	21479.38
745.181	21708.98
745.52	21640.73
745.86	21806.15
746.199	21860.61
746.538	21984.22
746.877	22101.51
747.216	22217.66
747.556	22303.31
747.895	22308.06
748.234	22477.54
748.573	22544.89
748.911	22642.74
749.25	22742.62
749.589	22671.66
749.928	22873.69
750.267	23105.55
750.605	23191.65
750.944	23327.69
751.283	23460.12
751.621	23570.62
751.96	23628.7
752.298	23804.52
752.636	23997.28
752.975	24026.88
753.313	24153.66
753.651	24444.5
753.989	24552.29
754.327	24690.82
754.666	24626.87
755.004	24870.48
