Data from 18-4330_FLMS001491_005.txt Node
Date: Thu Apr 19 16:43:30 BST 2018
User: hsy
Spectrometer: FLMS00149
Trigger mode: 0
Integration Time (sec): 1.000000E-2
Scans to average: 10
Electric dark correction enabled: true
Nonlinearity correction enabled: false
Boxcar width: 0
XAxis mode: Wavelengths
Number of Pixels in Spectrum: 2048
>>>>>Begin Spectral Data<<<<<
341.393	10.31
341.776	10.31
342.16	10.31
342.543	-69.24
342.927	-67.88
343.31	-58.39
343.693	-61.33
344.077	-64.04
344.46	-64.49
344.843	-55.9
345.226	-57.03
345.61	-24.26
345.993	-19.07
346.376	2.63
346.759	12.57
347.142	31.1
347.525	60.25
347.908	50.31
348.291	67.94
348.674	83.98
349.057	95.73
349.44	129.63
349.823	132.79
350.206	161.04
350.588	234.94
350.971	234.49
351.354	258.21
351.737	241.26
352.119	276.29
352.502	299.79
352.884	297.08
353.267	301.83
353.65	305.22
354.032	326.69
354.414	322.84
354.797	325.78
355.179	374.82
355.562	350.19
355.944	321.94
356.326	366.69
356.709	360.36
357.091	382.96
357.473	363.52
357.855	354.03
358.238	372.79
358.62	353.58
359.002	366.91
359.384	380.47
359.766	367.82
360.148	381.83
360.53	369.4
360.912	365.56
361.294	346.8
361.676	392.45
362.057	356.06
362.439	371.2
362.821	356.74
363.203	367.59
363.584	358.1
363.966	355.84
364.348	367.14
364.729	352.45
365.111	380.24
365.493	350.19
365.874	369.17
366.256	365.1
366.637	350.87
367.019	357.87
367.4	363.52
367.781	357.87
368.163	376.63
368.544	360.13
368.925	349.51
369.306	320.81
369.688	360.81
370.069	356.06
370.45	350.19
370.831	358.78
371.212	347.02
371.593	343.18
371.974	321.26
372.355	355.61
372.736	349.74
373.117	377.98
373.498	364.65
373.879	367.59
374.26	354.26
374.641	356.29
375.021	360.36
375.402	373.69
375.783	394.26
376.163	374.37
376.544	387.02
376.925	376.63
377.305	390.19
377.686	367.14
378.066	397.87
378.447	388.38
378.827	380.92
379.208	378.89
379.588	390.41
379.968	398.32
380.349	396.29
380.729	399.9
381.109	390.64
381.489	403.75
381.87	392.22
382.25	414.14
382.63	432.22
383.01	412.79
383.39	399
383.77	428.83
384.15	432.9
384.53	421.15
384.91	426.34
385.29	426.57
385.67	422.95
386.049	435.61
386.429	447.36
386.809	444.65
387.189	432.67
387.568	432.9
387.948	455.72
388.328	463.86
388.707	448.04
389.087	459.11
389.466	457.76
389.846	463.41
390.225	494.82
390.605	483.07
390.984	476.74
391.363	476.96
391.743	471.54
392.122	486
392.501	500.47
392.881	506.57
393.26	496.4
393.639	523.74
394.018	521.03
394.397	509.96
394.776	527.36
395.155	533.69
395.534	546.12
395.913	543.18
396.292	561.48
396.671	554.48
397.05	558.32
397.429	532.1
397.808	561.48
398.186	516.96
398.565	553.12
398.944	547.7
399.323	570.52
399.701	577.3
400.08	579.56
400.458	580.92
400.837	585.21
401.215	586.34
401.594	606.45
401.972	614.36
402.351	585.66
402.729	615.49
403.107	629.5
403.486	629.5
403.864	598.32
404.242	647.58
404.62	653.23
404.999	657.75
405.377	664.53
405.755	664.76
406.133	714.25
406.511	687.13
406.889	690.29
407.267	706.56
407.645	697.98
408.023	745.88
408.401	730.07
408.779	731.2
409.156	751.76
409.534	774.13
409.912	763.06
410.29	794.24
410.667	776.62
411.045	806.67
411.422	815.94
411.8	819.33
412.178	855.03
412.555	860.91
412.933	866.56
413.31	863.85
413.687	881.02
414.065	897.29
414.442	919.21
414.819	923.73
415.197	923.05
415.574	954.47
415.951	977.06
416.328	941.36
416.705	981.13
417.082	1000.34
417.46	982.49
417.837	1015.71
418.214	1022.04
418.591	1043.5
418.967	1026.55
419.344	1055.03
419.721	1042.6
420.098	1075.37
420.475	1115.37
420.852	1093.45
421.228	1088.02
421.605	1112.43
421.982	1155.37
422.358	1170.96
422.735	1122.82
423.111	1166.66
423.488	1212.99
423.864	1221.13
424.241	1225.65
424.617	1225.87
424.994	1235.14
425.37	1247.11
425.746	1236.49
426.123	1281.92
426.499	1325.98
426.875	1330.05
427.251	1341.35
427.627	1376.6
428.003	1391.97
428.379	1387
428.756	1404.4
429.132	1444.62
429.507	1438.97
429.883	1454.57
430.259	1484.17
430.635	1524.62
431.011	1546.09
431.387	1551.51
431.763	1584.96
432.138	1600.1
432.514	1615.47
432.89	1629.02
433.265	1650.04
433.641	1702.24
434.016	1699.98
434.392	1736.14
434.767	1792.18
435.143	1784.28
435.518	1783.15
435.894	1844.39
436.269	1885.52
436.644	1890.94
437.02	1930.94
437.395	1926.87
437.77	1970.48
438.145	1995.34
438.52	2015.91
438.895	2018.17
439.271	2041.67
439.646	2107.43
440.021	2126.19
440.395	2119.86
440.77	2132.51
441.145	2173.64
441.52	2251.38
441.895	2203.25
442.27	2253.87
442.645	2226.07
443.019	2256.13
443.394	2293.41
443.769	2282.79
444.143	2301.55
444.518	2362.79
444.892	2367.99
445.267	2353.98
445.641	2396.46
446.016	2392.17
446.39	2424.94
446.764	2440.98
447.139	2447.99
447.513	2482.79
447.887	2497.7
448.262	2511.49
448.636	2506.97
449.01	2544.26
449.384	2602.33
449.758	2616.34
450.132	2654.08
450.506	2665.83
450.88	2652.95
451.254	2651.14
451.628	2696.12
452.002	2775.21
452.376	2796.45
452.75	2796
453.123	2819.05
453.497	2850.91
453.871	2892.27
454.244	2976.79
454.618	3001.42
454.992	3029.21
455.365	3047.29
455.739	3105.82
456.112	3158.02
456.486	3183.79
456.859	3185.14
457.232	3276.21
457.606	3282.09
457.979	3369.77
458.352	3397.34
458.725	3429.2
459.099	3488.64
459.472	3507.85
459.845	3566.83
460.218	3567.51
460.591	3620.39
460.964	3690.21
461.337	3778.35
461.71	3805.24
462.083	3825.8
462.456	3907.16
462.829	3862.86
463.201	3931.56
463.574	3971.79
463.947	4007.95
464.32	4106.47
464.692	4140.37
465.065	4177.66
465.438	4221.95
465.81	4239.13
466.183	4254.94
466.555	4406.58
466.928	4389.63
467.3	4440.48
467.672	4511.66
468.045	4590.3
468.417	4535.16
468.789	4633.92
469.161	4717.98
469.534	4776.06
469.906	4861.71
470.278	4881.14
470.65	4927.7
471.022	5046.79
471.394	5077.3
471.766	5133.34
472.138	5221.02
472.51	5387.8
472.882	5382.37
473.253	5387.57
473.625	5520.9
473.997	5675.92
474.369	5619.2
474.74	5722.02
475.112	5804.06
475.484	5877.05
475.855	6007.21
476.227	6011.96
476.598	6154.56
476.97	6265.29
477.341	6366.98
477.713	6465.73
478.084	6469.35
478.455	6703.92
478.827	6725.84
479.198	6909.34
479.569	6978.71
479.94	7067.75
480.311	7180.07
480.682	7357.46
481.053	7499.38
481.424	7619.83
481.795	7673.61
482.166	7773.95
482.537	7901.4
482.908	8094.17
483.279	8159.47
483.65	8349.3
484.021	8477.88
484.391	8577.32
484.762	8587.26
485.133	8738.67
485.503	8867.7
485.874	9090.98
486.244	9161.93
486.615	9315.15
486.985	9387.92
487.356	9646.89
487.726	9633.11
488.097	9842.59
488.467	9944.51
488.837	10109.48
489.207	10300.66
489.578	10390.6
489.948	10551.28
490.318	10692.74
490.688	10717.37
491.058	10926.86
491.428	11035.56
491.798	11038.27
492.168	11379.5
492.538	11464.25
492.908	11541.08
493.278	11669.21
493.648	11734.97
494.017	11912.14
494.387	12019.71
494.757	12112.14
495.126	12193.04
495.496	12166.38
495.866	12391.23
496.235	12487.72
496.605	12533.15
496.974	12689.75
497.344	12819.69
497.713	12891.78
498.082	12936.3
498.452	13118.89
498.821	13120.93
499.19	13165.67
499.559	13351.65
499.928	13370.41
500.298	13445.21
500.667	13622.38
501.036	13549.16
501.405	13721.14
501.774	13785.32
502.143	13796.61
502.512	13891.3
502.88	14040.45
503.249	14030.96
503.618	14182.82
503.987	14072.54
504.356	14254.46
504.724	14318.86
505.093	14343.27
505.462	14430.5
505.83	14423.26
506.199	14683.14
506.567	14781.45
506.936	14742.58
507.304	14851.28
507.672	14898.05
508.041	14895.79
508.409	15045.17
508.777	15177.37
509.145	15195.22
509.514	15254.88
509.882	15403.13
510.25	15333.98
510.618	15489
510.986	15463.24
511.354	15587.08
511.722	15816.45
512.09	15843.11
512.458	15745.26
512.826	15911.36
513.193	15976.44
513.561	15990.23
513.929	16083.11
514.297	16108.42
514.664	16150.23
515.032	16314.29
515.4	16390.44
515.767	16452.82
516.135	16442.87
516.502	16404.91
516.869	16713.15
517.237	16793.82
517.604	16601.51
517.972	16818.68
518.339	16907.49
518.706	16965.34
519.073	16942.29
519.44	16987.94
519.808	17265.68
520.175	17266.13
520.542	17340.02
520.909	17464.31
521.276	17494.14
521.643	17584.99
522.009	17690.75
522.376	17785.21
522.743	17850.75
523.11	17982.04
523.477	18149.49
523.843	18174.58
524.21	18391.97
524.577	18414.35
524.943	18431.97
525.31	18550.16
525.676	18859.53
526.043	18775.69
526.409	18757.61
526.776	19055.69
527.142	18925.29
527.508	19013.65
527.874	19072.63
528.241	19187.89
528.607	19240.99
528.973	19379.07
529.339	19479.4
529.705	19567.31
530.071	19631.04
530.437	19650.47
530.803	19705.16
531.169	19872.16
531.535	19781.09
531.901	19824.7
532.267	19817.25
532.632	20023.34
532.998	19998.26
533.364	20083.45
533.73	20040.07
534.095	20193.96
534.461	20137.24
534.826	20262.89
535.192	20264.69
535.557	20291.59
535.923	20221.53
536.288	20325.71
536.653	20311.25
537.019	20223.56
537.384	20196.9
537.749	20306.73
538.114	20328.65
538.479	20283.45
538.845	20358.25
539.21	20306.95
539.575	20407.97
539.94	20225.15
540.305	20356.67
540.67	20249.78
541.034	20324.8
541.399	20259.27
541.764	20284.13
542.129	20288.65
542.494	20295.88
542.858	20299.95
543.223	20139.27
543.587	20205.71
543.952	20188.08
544.316	20138.59
544.681	20113.96
545.045	20213.85
545.41	20117.8
545.774	20050.46
546.138	20045.26
546.503	20056.56
546.867	20004.36
547.231	20047.3
547.595	20164.13
547.959	20079.16
548.324	19948.77
548.688	19953.29
549.052	19997.36
549.416	19930.92
549.779	19993.06
550.143	19843.01
550.507	19906.74
550.871	19835.33
551.235	19841.88
551.599	19921.88
551.962	19882.56
552.326	19808.43
552.689	19802.78
553.053	19601.21
553.417	19650.92
553.78	19852.27
554.143	19828.09
554.507	19700.41
554.87	19799.17
555.234	19780.41
555.597	19614.77
555.96	19660.19
556.323	19769.34
556.686	19699.51
557.05	19772.95
557.413	19693.63
557.776	19718.72
558.139	19753.29
558.502	19657.48
558.865	19646.86
559.228	19847.3
559.59	19790.81
559.953	19694.09
560.316	19869.22
560.679	19869
561.041	19905.15
561.404	19914.19
561.767	20031.25
562.129	19938.83
562.492	20178.59
562.854	20069.67
563.217	19999.16
563.579	20027.64
563.941	20142.44
564.304	20151.93
564.666	20238.25
565.028	20287.07
565.39	20320.06
565.753	20421.3
566.115	20388.31
566.477	20538.58
566.839	20617.23
567.201	20693.61
567.563	20618.13
567.925	20762.08
568.287	20802.31
568.648	20818.8
569.01	20963.88
569.372	21066.25
569.734	21065.58
570.095	21163.43
570.457	21287.49
570.819	21260.37
571.18	21379.92
571.542	21393.25
571.903	21430.31
572.265	21501.27
572.626	21671.66
572.987	21547.37
573.349	21755.28
573.71	21861.49
574.071	21900.36
574.432	21962.05
574.794	22110.29
575.155	22136.96
575.516	22110.52
575.877	22142.38
576.238	22204.3
576.599	22224.42
576.96	22306
577.32	22324.3
577.681	22485.65
578.042	22605.2
578.403	22539.21
578.763	22548.93
579.124	22471.19
579.485	22694.46
579.845	22727.45
580.206	22634.12
580.566	22712.54
580.927	22748.24
581.287	22783.95
581.648	22695.36
582.008	22911.86
582.368	22769.26
582.728	22810.84
583.089	22751.63
583.449	22799.54
583.809	22775.36
584.169	22891.06
584.529	22775.81
584.889	22987.33
585.249	22743.05
585.609	22656.04
585.969	22844.96
586.329	22688.36
586.688	22810.16
587.048	22701.92
587.408	22693.33
587.768	22729.71
588.127	22835.7
588.487	22652.88
588.846	22839.99
589.206	22549.6
589.565	22776.27
589.925	22830.95
590.284	22767.45
590.643	22738.53
591.003	22767.9
591.362	22748.7
591.721	22691.97
592.08	22713.22
592.44	22867.79
592.799	22691.3
593.158	22712.76
593.517	22616.72
593.876	22766.32
594.235	22725.19
594.593	22688.13
594.952	22693.78
595.311	22618.53
595.67	22713.89
596.029	22764.51
596.387	22790.5
596.746	22820.56
597.104	22676.83
597.463	22589.6
597.822	22708.47
598.18	22713.89
598.538	22633.67
598.897	22686.55
599.255	22650.85
599.613	22851.74
599.972	22783.95
600.33	22748.92
600.688	22726.32
601.046	22749.15
601.404	22844.74
601.762	22727.45
602.12	22881.8
602.478	22817.85
602.836	22798.64
603.194	22672.31
603.552	22679.54
603.91	22697.4
604.268	22785.98
604.625	22705.31
604.983	22816.04
605.341	22625.08
605.698	22745.08
606.056	22916.37
606.413	22710.05
606.771	22886.77
607.128	22819.88
607.485	22684.74
607.843	22744.85
608.2	22852.2
608.557	22924.28
608.914	22887
609.272	23032.98
609.629	23145.75
609.986	23084.73
610.343	23044.51
610.7	23181.45
611.057	23121.79
611.414	23062.36
611.771	23225.97
612.127	23236.14
612.484	23210.6
612.841	23302.58
613.198	23157.27
613.554	23190.72
613.911	23353.43
614.267	23321.34
614.624	23294.44
614.98	23398.4
615.337	23555
615.693	23426.19
616.05	23412.86
616.406	23619.63
616.762	23542.12
617.118	23435.68
617.475	23617.37
617.831	23690.82
618.187	23705.73
618.543	23583.93
618.899	23823.92
619.255	23717.94
619.611	23867.99
619.967	23763.36
620.323	23922.45
620.678	23728.33
621.034	23791.61
621.39	23870.93
621.746	23741.89
622.101	24028.21
622.457	23790.25
622.812	23979.62
623.168	24021.43
623.523	23924.03
623.879	24184.14
624.234	24010.13
624.589	24057.36
624.945	23940.3
625.3	24122.67
625.655	23977.14
626.01	24065.5
626.365	24010.58
626.72	24003.58
627.075	24041.32
627.43	23953.86
627.785	24070.69
628.14	23933.52
628.495	23967.19
628.85	24061.43
629.205	23971.26
629.559	24167.42
629.914	23874.77
630.269	23989.11
630.623	23978.49
630.978	23917.48
631.332	24019.17
631.687	24090.36
632.041	23915.67
632.396	23922
632.75	23821.89
633.104	23892.17
633.459	23744.6
633.813	23845.16
634.167	23812.17
634.521	23759.06
634.875	23729.23
635.229	23698.5
635.583	23576.47
635.937	23547.09
636.291	23538.96
636.645	23515
636.999	23484.72
637.352	23560.88
637.706	23385.97
638.06	23473.42
638.413	23445.63
638.767	23419.19
639.121	23399.3
639.474	23284.95
639.828	23250.83
640.181	23238.63
640.534	23338.06
640.888	23385.06
641.241	23130.38
641.594	23270.04
641.947	23225.97
642.301	23214.67
642.654	23223.49
643.007	23172.41
643.36	23262.58
643.713	23189.81
644.066	23305.07
644.419	23125.18
644.771	22861.69
645.124	22549.15
645.477	22705.53
645.83	22592.77
646.182	22642.48
646.535	22609.72
646.888	22755.48
647.24	22692.88
647.593	22682.03
647.945	22693.33
648.298	22571.75
648.65	22527.68
649.002	22447.01
649.355	22185.32
649.707	22160.69
650.059	22223.74
650.411	22667.34
650.763	22605.65
651.115	23151.4
651.467	22960.44
651.819	23016.49
652.171	23042.47
652.523	22896.94
652.875	23019.2
653.227	22940.1
653.578	23097.61
653.93	23120.44
654.282	23019.42
654.633	22947.11
654.985	22995.24
655.337	22997.73
655.688	22967.67
656.039	23023.94
656.391	22927.45
656.742	22931.29
657.094	22955.24
657.445	23111.62
657.796	23062.36
658.147	22980.78
658.498	23050.38
658.849	23098.74
659.2	23066.2
659.551	23018.07
659.902	23252.64
660.253	23105.52
660.604	23180.32
660.955	23087.9
661.306	23166.31
661.656	23161.34
662.007	23231.17
662.358	23126.54
662.708	23238.17
663.059	23339.87
663.409	23120.44
663.76	23290.83
664.11	23277.27
664.461	23356.36
664.811	23427.55
665.161	23304.84
665.511	23341.22
665.862	23425.97
666.212	23441.78
666.562	23492.86
666.912	23510.26
667.262	23329.7
667.612	23453.54
667.962	23386.42
668.312	23486.76
668.662	23421.9
669.011	23435.01
669.361	23383.26
669.711	23470.03
670.06	23341.67
670.41	23376.02
670.76	23357.27
671.109	23418.28
671.459	23387.55
671.808	23387.55
672.157	23397.72
672.507	23213.99
672.856	23294.67
673.205	23273.2
673.554	23309.81
673.904	23307.78
674.253	23585.96
674.602	23379.41
674.951	23040.67
675.3	22914.57
675.649	23274.78
675.998	23238.4
676.346	23218.29
676.695	23231.17
677.044	22995.47
677.393	23076.6
677.741	23156.14
678.09	23053.32
678.438	23077.5
678.787	23119.99
679.135	23054.9
679.484	22948.92
679.832	22951.85
680.181	22900.1
680.529	22867.34
680.877	22826.21
681.225	22788.02
681.573	22910.95
681.922	22753.67
682.27	22640.68
682.618	22742.82
682.966	22630.96
683.314	22617.85
683.661	22530.17
684.009	22578.3
684.357	22420.79
684.705	22385.99
685.053	22311.87
685.4	22266.45
685.748	22189.61
686.095	22255.15
686.443	22020.58
686.79	22018.09
687.138	22093.57
687.485	22027.36
687.832	21831.88
688.18	21980.13
688.527	21871.88
688.874	21731.32
689.221	21730.19
689.568	21596.41
689.915	21546.47
690.262	21539.69
690.609	21382.63
690.956	21341.05
691.303	21323.87
691.65	21199.13
691.997	21150.09
692.344	21080.04
692.69	20971.34
693.037	20960.04
693.383	20737.22
693.73	20910.33
694.077	20687.73
694.423	20640.05
694.769	20627.85
695.116	20508.75
695.462	20451.35
695.808	20320.28
696.155	20299.49
696.501	20104.47
696.847	20223.56
697.193	20065.15
697.539	20055.89
697.885	19893.4
698.231	19801.88
698.577	19787.19
698.923	19722.11
699.269	19539.74
699.614	19492.06
699.96	19412.96
700.306	19317.83
700.651	19277.37
700.997	19168.45
701.342	19109.92
701.688	19141.78
702.033	18990.6
702.379	18965.29
702.724	18817.5
703.069	18844.39
703.415	18688.92
703.76	18640.78
704.105	18554.68
704.45	18443.27
704.795	18437.17
705.14	18441.24
705.485	18327.34
705.83	18259.55
706.175	18314.24
706.52	18290.96
706.865	18121.92
707.209	18119.21
707.554	18047.35
707.899	18101.13
708.243	17822.27
708.588	17856.62
708.932	17790.18
709.277	17854.81
709.621	17638.55
709.966	17651.88
710.31	17684.2
710.654	17504.31
710.998	17557.65
711.342	17664.99
711.687	17605.33
712.031	17471.77
712.375	17427.48
712.719	17394.71
713.063	17360.14
713.407	17366.69
713.75	17368.95
714.094	17293.7
714.438	17227.71
714.782	17293.25
715.125	17215.73
715.469	17338.67
715.812	17153.36
716.156	17150.65
716.499	17177.32
716.843	17199.91
717.186	17066.36
717.53	17292.12
717.873	17181.61
718.216	17224.77
718.559	17123.76
718.902	17013.03
719.246	17071.78
719.589	16978
719.932	16998.11
720.275	17023.65
720.617	17001.95
720.96	16965.57
721.303	17009.19
721.646	17047.15
721.989	16921.28
722.331	17113.82
722.674	16961.96
723.016	17040.6
723.359	17007.6
723.701	17020.48
724.044	16924.22
724.386	16955.85
724.729	17002.63
725.071	16904.33
725.413	17011.22
725.755	16998.11
726.097	16895.97
726.439	17023.65
726.782	16978.68
727.124	16976.42
727.465	16960.83
727.807	16952.01
728.149	17065.23
728.491	17044.89
728.833	17132.57
729.175	17115.4
729.516	17012.8
729.858	17125.11
730.199	17140.93
730.541	17124.44
730.882	17065.68
731.224	17151.78
731.565	17205.56
731.906	17220.93
732.248	17231.33
732.589	17131.67
732.93	17207.82
733.271	17265.9
733.612	17326.24
733.953	17319.01
734.294	17338.22
734.635	17301.61
734.976	17528.04
735.317	17471.09
735.658	17552.22
735.999	17480.13
736.339	17591.09
736.68	17602.62
737.021	17748.15
737.361	17620.02
737.702	17774.59
738.042	17797.87
738.383	17930.52
738.723	17955.15
739.063	17955.83
739.404	18053
739.744	18087.12
740.084	18098.65
740.424	18298.64
740.764	18327.79
741.104	18369.38
741.444	18431.07
741.784	18443.72
742.124	18571.86
742.464	18636.04
742.804	18725.75
743.143	18843.94
743.483	19000.55
743.823	19018.4
744.162	19178.39
744.502	19281.22
744.841	19380.2
745.181	19499.74
745.52	19675.78
745.86	19691.6
746.199	19824.25
746.538	20022.21
746.877	20164.81
747.216	20264.69
747.556	20463.56
747.895	20675.76
748.234	20710.11
748.573	20960.27
748.911	21004.56
749.25	21216.76
749.589	21374.27
749.928	21689.51
750.267	21833.92
750.605	22013.8
750.944	22188.03
751.283	22374.69
751.621	22666.89
751.96	22726.1
752.298	23008.35
752.636	23373.76
752.975	23554.55
753.313	23680.65
753.651	23966.29
753.989	24031.6
