Data from 18-4525_FLMS001491_001.txt Node
Date: Thu Apr 19 16:42:35 BST 2018
User: hsy
Spectrometer: FLMS00149
Trigger mode: 0
Integration Time (sec): 1.000000E-2
Scans to average: 10
Electric dark correction enabled: true
Nonlinearity correction enabled: false
Boxcar width: 0
XAxis mode: Wavelengths
Number of Pixels in Spectrum: 2048
>>>>>Begin Spectral Data<<<<<
341.393	-6.57
341.776	-6.57
342.16	-6.57
342.543	-69.16
342.927	-65.55
343.31	-53.35
343.693	-69.84
344.077	-77.98
344.46	-44.76
344.843	-80.69
345.226	-34.36
345.61	-12.22
345.993	-3.86
346.376	-8.6
346.759	-0.69
347.142	24.17
347.525	35.69
347.908	40.89
348.291	74.56
348.674	113.43
349.057	97.61
349.44	136.48
349.823	145.52
350.206	167.67
350.588	221
350.971	259.41
351.354	265.06
351.737	279.3
352.119	287.44
352.502	293.31
352.884	272.75
353.267	312.52
353.65	339.86
354.032	355
354.414	343.71
354.797	361.78
355.179	364.27
355.562	364.04
355.944	350.49
356.326	364.5
356.709	348
357.091	357.72
357.473	373.31
357.855	375.8
358.238	373.54
358.62	395.23
359.002	379.41
359.384	404.27
359.766	382.35
360.148	380.31
360.53	378.96
360.912	373.31
361.294	384.16
361.676	371.5
362.057	367.21
362.439	373.54
362.821	368.11
363.203	390.94
363.584	385.96
363.966	376.25
364.348	356.81
364.729	380.99
365.111	348.9
365.493	378.51
365.874	369.24
366.256	366.53
366.637	373.54
367.019	370.6
367.4	378.96
367.781	386.64
368.163	371.5
368.544	364.04
368.925	377.15
369.306	353.65
369.688	361.56
370.069	378.28
370.45	371.5
370.831	384.16
371.212	363.82
371.593	374.21
371.974	359.75
372.355	377.6
372.736	390.48
373.117	397.94
373.498	390.03
373.879	380.77
374.26	378.96
374.641	364.95
375.021	383.03
375.402	377.6
375.783	400.88
376.163	408.34
376.544	390.71
376.925	383.48
377.305	390.71
377.686	385.96
378.066	416.7
378.447	379.18
378.827	413.53
379.208	402.46
379.588	407.43
379.968	398.39
380.349	397.49
380.729	401.78
381.109	422.35
381.489	411.27
381.87	392.74
382.25	424.83
382.63	427.77
383.01	433.42
383.39	424.16
383.77	440.88
384.15	451.05
384.53	439.52
384.91	448.11
385.29	433.42
385.67	456.25
386.049	437.04
386.429	455.12
386.809	475.91
387.189	453.99
387.568	470.93
387.948	463.7
388.328	472.74
388.707	467.54
389.087	488.11
389.466	478.84
389.846	486.3
390.225	488.33
390.605	491.27
390.984	509.35
391.363	500.54
391.743	506.64
392.122	499.18
392.501	508.67
392.881	515.9
393.26	529.92
393.639	528.56
394.018	513.19
394.397	522.46
394.776	536.24
395.155	532.4
395.534	513.87
395.913	551.16
396.292	562.46
396.671	544.15
397.05	560.88
397.429	572.85
397.808	555
398.186	584.38
398.565	591.16
398.944	581.21
399.323	592.29
399.701	573.3
400.08	608.11
400.458	619.63
400.837	604.49
401.215	606.07
401.594	609.01
401.972	629.8
402.351	619.86
402.729	635
403.107	643.81
403.486	645.39
403.864	635.22
404.242	642.91
404.62	666.64
404.999	675.45
405.377	666.64
405.755	674.09
406.133	706.18
406.511	693.98
406.889	714.54
407.267	729.23
407.645	744.83
408.023	725.39
408.401	740.76
408.779	737.59
409.156	782.56
409.534	760.19
409.912	782.79
410.29	802
410.667	832.51
411.045	822.11
411.422	843.13
411.8	845.16
412.178	828.89
412.555	891.04
412.933	871.15
413.31	882.9
413.687	887.19
414.065	900.3
414.442	921.32
414.819	927.87
415.197	923.8
415.574	965.61
415.951	940.98
416.328	962.9
416.705	947.76
417.082	976.91
417.46	1018.72
417.837	1002.67
418.214	971.49
418.591	1029.79
418.967	1006.74
419.344	1078.15
419.721	1027.98
420.098	1074.08
420.475	1063.23
420.852	1076.79
421.228	1090.13
421.605	1095.1
421.982	1080.64
422.358	1119.05
422.735	1144.14
423.111	1150.01
423.488	1174.87
423.864	1164.93
424.241	1155.44
424.617	1208.09
424.994	1204.47
425.37	1204.02
425.746	1230.24
426.123	1250.12
426.499	1245.38
426.875	1274.53
427.251	1284.7
427.627	1313.17
428.003	1346.17
428.379	1355.66
428.756	1393.17
429.132	1358.37
429.507	1397.92
429.883	1384.36
430.259	1444.02
430.635	1464.13
431.011	1468.87
431.387	1502.77
431.763	1507.29
432.138	1574.41
432.514	1583.45
432.89	1552.04
433.265	1612.15
433.641	1627.51
434.016	1635.88
434.392	1657.12
434.767	1704.8
435.143	1662.54
435.518	1722.43
435.894	1758.36
436.269	1773.05
436.644	1781.86
437.02	1808.98
437.395	1818.92
437.77	1855.76
438.145	1881.07
438.52	1901.4
438.895	1930.33
439.271	1921.52
439.646	1952.25
440.021	1984.11
440.395	1985.92
440.77	1989.99
441.145	2017.79
441.52	2079.93
441.895	2057.78
442.27	2065.47
442.645	2091.68
443.019	2078.35
443.394	2112.7
443.769	2140.04
444.143	2114.73
444.518	2134.17
444.892	2173.04
445.267	2176.43
445.641	2196.99
446.016	2226.37
446.39	2251.23
446.764	2276.54
447.139	2257.78
447.513	2283.32
447.887	2286.93
448.262	2297.1
448.636	2299.13
449.01	2372.35
449.384	2397.66
449.758	2387.04
450.132	2420.94
450.506	2440.15
450.88	2476.98
451.254	2466.81
451.628	2518.79
452.002	2515.4
452.376	2583.42
452.75	2567.15
453.123	2619.8
453.497	2649.41
453.871	2658.22
454.244	2713.36
454.618	2737.54
454.992	2813.7
455.365	2820.25
455.739	2871.55
456.112	2867.48
456.486	2951.09
456.859	2975.5
457.232	2997.2
457.606	3040.81
457.979	3061.6
458.352	3123.52
458.725	3125.55
459.099	3213.23
459.472	3242.39
459.845	3292.78
460.218	3289.62
460.591	3364.19
460.964	3360.58
461.337	3404.42
461.71	3513.34
462.083	3526.22
462.456	3554.47
462.829	3588.82
463.201	3616.39
463.574	3635.14
463.947	3697.06
464.32	3715.82
464.692	3782.49
465.065	3836.95
465.438	3884.86
465.81	3973.21
466.183	3964.18
466.555	4065.42
466.928	4021.12
467.3	4049.14
467.672	4141.57
468.045	4222.02
468.417	4244.17
468.789	4272.42
469.161	4272.64
469.534	4408.23
469.906	4488.68
470.278	4509.25
470.65	4555.57
471.022	4606.64
471.394	4697.72
471.766	4728.9
472.138	4798.5
472.51	4907.65
472.882	4982.23
473.253	5000.08
473.625	5046.41
473.997	5174.77
474.369	5216.57
474.74	5285.27
475.112	5393.97
475.484	5512.84
475.855	5514.42
476.227	5584.02
476.598	5730.91
476.97	5808.65
477.341	5922.32
477.713	5974.29
478.084	6070.33
478.455	6171.58
478.827	6292.93
479.198	6401.85
479.569	6487.72
479.94	6651.56
480.311	6726.59
480.682	6900.6
481.053	6981.95
481.424	7138.1
481.795	7183.75
482.166	7313.92
482.537	7433.24
482.908	7566.34
483.279	7673.68
483.65	7849.27
484.021	8009.94
484.391	8097.85
484.762	8245.64
485.133	8277.06
485.503	8385.75
485.874	8618.52
486.244	8778.74
486.615	8917.27
486.985	9017.38
487.356	9193.87
487.726	9304.6
488.097	9522
488.467	9591.15
488.837	9807.64
489.207	9863.46
489.578	10110.45
489.948	10228.42
490.318	10377.57
490.688	10444.68
491.058	10706.15
491.428	10839.25
491.798	10886.03
492.168	11188.84
492.538	11270.2
492.908	11420.02
493.278	11621.6
493.648	11698.44
494.017	11841.71
494.387	11940.69
494.757	12106.11
495.126	12283.96
495.496	12341.81
495.866	12483.95
496.235	12672.65
496.605	12840.1
496.974	12866.77
497.344	13033.32
497.713	13156.48
498.082	13300.65
498.452	13405.28
498.821	13596.92
499.19	13611.15
499.559	13795.33
499.928	13802.11
500.298	13973.63
500.667	14094.98
501.036	14186.73
501.405	14363.9
501.774	14378.82
502.143	14506.95
502.512	14624.46
502.88	14821.52
503.249	14751.69
503.618	14944.68
503.987	15083.21
504.356	15231.45
504.724	15247.95
505.093	15481.39
505.462	15511.67
505.83	15656.3
506.199	15800.02
506.567	15978.55
506.936	15953.92
507.304	16087.47
507.672	16248.37
508.041	16344.19
508.409	16552.09
508.777	16559.32
509.145	16782.14
509.514	16649.04
509.882	16913.67
510.25	16860.56
510.618	17015.13
510.986	17045.41
511.354	17187.33
511.722	17304.84
512.09	17452.86
512.458	17482.46
512.826	17730.82
513.193	17680.2
513.561	17793.19
513.929	17830.93
514.297	18064.37
514.664	18090.58
515.032	18225.04
515.4	18302.56
515.767	18375.77
516.135	18541.42
516.502	18379.84
516.869	18687.18
517.237	18735.09
517.604	18631.36
517.972	18983.22
518.339	18990.67
518.706	19060.95
519.073	19165.58
519.44	19248.07
519.808	19477.21
520.175	19370.32
520.542	19721.28
520.909	19706.13
521.276	19734.38
521.643	19969.18
522.009	20009.4
522.376	20158.78
522.743	20223.86
523.11	20449.84
523.477	20572.33
523.843	20513.12
524.21	20829.95
524.577	20883.28
524.943	21041.92
525.31	21030.39
525.676	21225.64
526.043	21302.25
526.409	21331.85
526.776	21530.27
527.142	21621.11
527.508	21620.21
527.874	21949.47
528.241	21918.73
528.607	22013.19
528.973	22086.64
529.339	22186.52
529.705	22347.87
530.071	22505.83
530.437	22573.63
530.803	22593.74
531.169	22759.16
531.535	22646.85
531.901	22623.8
532.267	22781.53
532.632	22954.18
532.998	22941.08
533.364	23007.29
533.73	22970.68
534.095	23189.21
534.461	23100.62
534.826	23162.99
535.192	23106.72
535.557	23412.93
535.923	23270.33
536.288	23366.6
536.653	23459.71
537.019	23399.6
537.384	23419.48
537.749	23357.11
538.114	23363.44
538.479	23346.26
538.845	23386.26
539.21	23326.83
539.575	23516.43
539.94	23427.62
540.305	23545.58
540.67	23390.78
541.034	23492.48
541.399	23406.83
541.764	23449.76
542.129	23465.81
542.494	23480.05
542.858	23422.65
543.223	23285.25
543.587	23378.13
543.952	23401.86
544.316	23395.3
544.681	23354.4
545.045	23390.78
545.41	23470.78
545.774	23236.21
546.138	23356.43
546.503	23294.06
546.867	23397.34
547.231	23449.54
547.595	23367.06
547.959	23298.36
548.324	23303.55
548.688	23231.69
549.052	23316.89
549.416	23242.54
549.779	23155.08
550.143	23167.06
550.507	23274.63
550.871	23217.68
551.235	23207.51
551.599	23225.59
551.962	23329.32
552.326	23334.51
552.689	23360.73
553.053	23001.87
553.417	23194.18
553.78	23391.46
554.143	23268.3
554.507	23285.02
554.87	23306.94
555.234	23401.63
555.597	23236.44
555.96	23224.91
556.323	23216.78
556.686	23266.27
557.05	23372.7
557.413	23292.71
557.776	23262.65
558.139	23368.86
558.502	23366.83
558.865	23253.61
559.228	23483.21
559.59	23415.87
559.953	23426.94
560.316	23573.83
560.679	23654.28
561.041	23607.95
561.404	23736.76
561.767	23786.25
562.129	23664.9
562.492	23806.14
562.854	23913.26
563.217	23816.53
563.579	23976.76
563.941	23988.96
564.304	24063.76
564.666	24239.57
565.028	24118.9
565.39	24131.1
565.753	24365.22
566.115	24415.16
566.477	24437.54
566.839	24451.09
567.201	24737.19
567.563	24611.77
567.925	24787.58
568.287	24833.68
568.648	24858.09
569.01	25044.3
569.372	25136.5
569.734	25246.55
570.095	25341.47
570.457	25441.12
570.819	25449.49
571.18	25428.47
571.542	25642.7
571.903	25656.71
572.265	25712.98
572.626	25850.61
572.987	25969.47
573.349	26153.65
573.71	26124.27
574.071	26212.18
574.432	26247.21
574.794	26438.39
575.155	26443.13
575.516	26375.79
575.877	26440.87
576.238	26557.03
576.599	26589.34
576.96	26723.58
577.32	26727.19
577.681	26764.93
578.042	26985.04
578.403	26862.78
578.763	26942.33
579.124	26938.49
579.485	27030.01
579.845	27221.42
580.206	27070.01
580.566	27063.46
580.927	27097.35
581.287	27247.86
581.648	27290.57
582.008	27226.16
582.368	27207.18
582.728	27291.25
583.089	27252.38
583.449	27242.21
583.809	27267.97
584.169	27423.22
584.529	27280.62
584.889	27465.48
585.249	27211.93
585.609	27142.32
585.969	27252.15
586.329	27253.28
586.688	27385.93
587.048	27360.4
587.408	27215.32
587.768	27118.37
588.127	27250.57
588.487	27096.45
588.846	27379.6
589.206	27078.6
589.565	27159.5
589.925	27191.36
590.284	27209.44
590.643	27129.22
591.003	27226.61
591.362	27324.47
591.721	27253.05
592.08	27195.88
592.44	27288.53
592.799	27063.91
593.158	27164.47
593.517	27089.67
593.876	27159.72
594.235	27050.12
594.593	27107.3
594.952	27141.87
595.311	26932.39
595.67	26945.04
596.029	27055.32
596.387	27126.73
596.746	27175.99
597.104	26968.77
597.463	27011.71
597.822	27152.72
598.18	26938.03
598.538	26887.64
598.897	27114.53
599.255	26918.6
599.613	27167.86
599.972	26978.03
600.33	27042.44
600.688	26952.05
601.046	26938.49
601.404	27162.89
601.762	27070.69
602.12	27175.09
602.478	27103.68
602.836	27080.86
603.194	26861.65
603.552	27068.43
603.91	26969.67
604.268	27082.44
604.625	27051.7
604.983	27192.04
605.341	26873.86
605.698	27147.29
606.056	27348.19
606.413	27129.67
606.771	27282.88
607.128	27253.28
607.485	27128.54
607.843	27194.53
608.2	27205.37
608.557	27478.13
608.914	27234.52
609.272	27490.79
609.629	27459.15
609.986	27502.09
610.343	27455.31
610.7	27657.56
611.057	27581.63
611.414	27465.7
611.771	27693.49
612.127	27771.01
612.484	27732.82
612.841	27766.26
613.198	27659.37
613.554	27663.44
613.911	27799.48
614.267	27898.24
614.624	27829.54
614.98	27916.31
615.337	28107.72
615.693	28053.49
616.05	27996.31
616.406	28102.3
616.762	28055.29
617.118	28052.58
617.475	28082.19
617.831	28323.08
618.187	28143.88
618.543	28341.16
618.899	28412.12
619.255	28358.34
619.611	28284.44
619.967	28356.53
620.323	28422.52
620.678	28296.87
621.034	28266.59
621.39	28273.14
621.746	28331.44
622.101	28726.46
622.457	28505.9
622.812	28477.88
623.168	28601.72
623.523	28533.92
623.879	28712.68
624.234	28625.45
624.589	28595.62
624.945	28610.31
625.3	28667.71
625.655	28701.15
626.01	28774.6
626.365	28724.88
626.72	28675.62
627.075	28568.73
627.43	28601.27
627.785	28545.9
628.14	28686.92
628.495	28594.49
628.85	28648.5
629.205	28554.26
629.559	28577.31
629.914	28551.1
630.269	28590.65
630.623	28344.78
630.978	28429.29
631.332	28498.9
631.687	28623.41
632.041	28334.16
632.396	28457.54
632.75	28356.3
633.104	28390.2
633.459	28353.14
633.813	28239.7
634.167	28232.92
634.521	28287.15
634.875	28396.98
635.229	28124.9
635.583	28207.38
635.937	28030.89
636.291	28164.44
636.645	28071.79
636.999	27915.64
637.352	28063.65
637.706	27869.54
638.06	28064.78
638.413	28004.67
638.767	27882.19
639.121	27877.9
639.474	27895.75
639.828	27749.31
640.181	27875.41
640.534	27744.57
640.888	27767.17
641.241	27561.52
641.594	27679.03
641.947	27852.59
642.301	27649.65
642.654	27733.72
643.007	27523.1
643.36	27592.03
643.713	27515.42
644.066	27738.92
644.419	27514.97
644.771	27204.02
645.124	27165.15
645.477	27020.74
645.83	26858.26
646.182	26904.14
646.535	26939.16
646.888	27021.65
647.24	26938.26
647.593	27168.76
647.945	26927.64
648.298	26770.36
648.65	26700.3
649.002	26564.71
649.355	26539.63
649.707	26287.43
650.059	26304.15
650.411	26790.02
650.763	27009.22
651.115	27267.97
651.467	27265.03
651.819	27297.8
652.171	27213.73
652.523	27225.26
652.875	27265.26
653.227	27069.1
653.578	27317.46
653.93	27234.07
654.282	27224.13
654.633	27143.68
654.985	27249.44
655.337	27357.23
655.688	27310.68
656.039	27322.21
656.391	27018.94
656.742	27176.45
657.094	27224.13
657.445	27390
657.796	27337.12
658.147	27260.51
658.498	27326.5
658.849	27473.61
659.2	27215.32
659.551	27253.05
659.902	27452.6
660.253	27363.11
660.604	27512.71
660.955	27364.01
661.306	27534.4
661.656	27439.94
662.007	27437.68
662.358	27474.97
662.708	27422.77
663.059	27481.75
663.409	27295.09
663.76	27561.97
664.11	27567.17
664.461	27488.75
664.811	27489.21
665.161	27512.26
665.511	27503.9
665.862	27579.37
666.212	27634.06
666.562	27707.96
666.912	27588.64
667.262	27534.63
667.612	27527.4
667.962	27631.58
668.312	27432.94
668.662	27723.78
669.011	27660.05
669.361	27573.72
669.711	27572.37
670.06	27595.19
670.41	27412.37
670.76	27403.11
671.109	27511.8
671.459	27429.55
671.808	27544.35
672.157	27593.38
672.507	27368.53
672.856	27407.63
673.205	27423.9
673.554	27372.83
673.904	27244.02
674.253	27657.11
674.602	27302.32
674.951	26947.75
675.3	26855.32
675.649	27340.51
675.998	27317.91
676.346	27350.23
676.695	27438.59
677.044	27168.09
677.393	27235.65
677.741	27347.06
678.09	27161.53
678.438	27090.35
678.787	27278.36
679.135	27162.44
679.484	26917.7
679.832	27074.08
680.181	26958.15
680.529	26986.85
680.877	26872.73
681.225	26910.46
681.573	26965.83
681.922	26907.53
682.27	26897.58
682.618	26701.66
682.966	26788.66
683.314	26549.34
683.661	26732.62
684.009	26503.02
684.357	26446.07
684.705	26388.44
685.053	26391.61
685.4	26272.29
685.748	26267.77
686.095	26221.22
686.443	26065.97
686.79	26164.04
687.138	26143.25
687.485	26010.83
687.832	25878.85
688.18	25848.12
688.527	25757.05
688.874	25743.04
689.221	25696.94
689.568	25509.15
689.915	25416.27
690.262	25549.6
690.609	25393.89
690.956	25259.43
691.303	25264.41
691.65	25085.2
691.997	24991.87
692.344	24976.96
692.69	24889.27
693.037	24886.11
693.383	24560.02
693.73	24657.64
694.077	24428.72
694.423	24464.88
694.769	24322.06
695.116	24259.91
695.462	24103.53
695.808	23983.31
696.155	24031.9
696.501	23824.9
696.847	23869.19
697.193	23643.66
697.539	23682.75
697.885	23561.17
698.231	23472.14
698.577	23384
698.923	23363.67
699.269	23244.35
699.614	23088.42
699.96	22925.71
700.306	22932.72
700.651	22734.98
700.997	22758.71
701.342	22644.81
701.688	22610.69
702.033	22495.21
702.379	22496.12
702.724	22215.45
703.069	22291.38
703.415	22076.24
703.76	22070.37
704.105	22132.29
704.45	22008.45
704.795	21798.96
705.14	21791.96
705.485	21810.03
705.83	21623.37
706.175	21836.93
706.52	21591.51
706.865	21574.33
707.209	21500.66
707.554	21503.38
707.899	21399.2
708.243	21320.78
708.588	21236.49
708.932	21120.11
709.277	21201.91
709.621	21069.49
709.966	20920.79
710.31	20973.9
710.654	20885.99
710.998	20763.51
711.342	20877.4
711.687	20819.1
712.031	20715.6
712.375	20606
712.719	20699.78
713.063	20555.6
713.407	20664.75
713.75	20446.45
714.094	20587.92
714.438	20378.21
714.782	20488.71
715.125	20368.94
715.469	20446.45
715.812	20224.76
716.156	20300.92
716.499	20357.87
716.843	20341.82
717.186	20277.87
717.53	20424.08
717.873	20339.79
718.216	20392.9
718.559	20232
718.902	20167.14
719.246	20125.33
719.589	20145.67
719.932	20121.49
720.275	20199
720.617	20204.43
720.96	20147.03
721.303	20101.6
721.646	20117.42
721.989	20062.51
722.331	20185.22
722.674	20074.49
723.016	20050.76
723.359	20061.15
723.701	20036.52
724.044	20044.43
724.386	20089.63
724.729	20152.9
725.071	20146.8
725.413	20118.33
725.755	20020.25
726.097	19902.97
726.439	19911.1
726.782	19866.36
727.124	20137.99
727.465	20122.62
727.807	20036.75
728.149	20066.58
728.491	20033.36
728.833	20029.74
729.175	20060.93
729.516	20097.31
729.858	20129.4
730.199	20197.65
730.541	20117.65
730.882	20055.05
731.224	20182.73
731.565	20163.3
731.906	20185.9
732.248	20210.08
732.589	20212.79
732.93	20172.11
733.271	20321.26
733.612	20287.81
733.953	20323.52
734.294	20258.44
734.635	20417.3
734.976	20565.09
735.317	20312.45
735.658	20364.42
735.999	20407.13
736.339	20513.34
736.68	20595.15
737.021	20674.24
737.361	20630.86
737.702	20700.91
738.042	20755.37
738.383	20841.92
738.723	20855.71
739.063	20890.96
739.404	20975.25
739.744	21021.35
740.084	21063.84
740.424	21185.87
740.764	21099.77
741.104	21322.14
741.444	21285.98
741.784	21384.51
742.124	21435.35
742.464	21543.83
742.804	21626.54
743.143	21695.91
743.483	21864.27
743.823	21901.78
744.162	21975
744.502	22135.68
744.841	22252.73
745.181	22356.69
745.52	22366.4
745.86	22560.52
746.199	22640.75
746.538	22888.65
746.877	23004.8
747.216	23101.75
747.556	23242.76
747.895	23445.02
748.234	23596.2
748.573	23669.87
748.911	23923.88
749.25	24055.62
749.589	24107.37
749.928	24461.26
750.267	24747.81
750.605	24658.32
750.944	25052.21
751.283	25160.23
751.621	25550.5
751.96	25487.23
752.298	25862.36
752.636	25961.34
752.975	26057.61
753.313	26307.77
753.651	26786.17
753.989	26854.42
754.327	27071.59
