Data from 18-4530_FLMS001491_010.txt Node
Date: Thu Apr 19 16:44:26 BST 2018
User: hsy
Spectrometer: FLMS00149
Trigger mode: 0
Integration Time (sec): 1.000000E-2
Scans to average: 10
Electric dark correction enabled: true
Nonlinearity correction enabled: false
Boxcar width: 0
XAxis mode: Wavelengths
Number of Pixels in Spectrum: 2048
>>>>>Begin Spectral Data<<<<<
341.393	0.86
341.776	0.86
342.16	0.86
342.543	-48.85
342.927	-65.13
343.31	-64.67
343.693	-74.84
344.077	-65.35
344.46	-53.83
344.843	-39.36
345.226	-48.4
345.61	-54.28
345.993	-6.82
346.376	-3.66
346.759	19.84
347.142	29.11
347.525	38.37
347.908	58.26
348.291	70.92
348.674	71.82
349.057	122.89
349.44	132.61
349.823	147.98
350.206	176.9
350.588	218.26
350.971	244.02
351.354	251.93
351.737	250.35
352.119	283.11
352.502	275.43
352.884	279.72
353.267	319.72
353.65	320.18
354.032	323.11
354.414	330.34
354.797	333.06
355.179	347.07
355.562	374.86
355.944	364.69
356.326	375.09
356.709	387.07
357.091	355.65
357.473	337.12
357.855	361.3
358.238	388.87
358.62	364.92
359.002	374.41
359.384	367.18
359.766	379.16
360.148	372.83
360.53	368.08
360.912	367.86
361.294	366.95
361.676	354.3
362.057	375.09
362.439	402.66
362.821	371.25
363.203	357.69
363.584	372.83
363.966	369.44
364.348	349.78
364.729	344.81
365.111	359.72
365.493	366.95
365.874	342.55
366.256	364.69
366.637	356.78
367.019	339.61
367.4	333.96
367.781	358.82
368.163	362.66
368.544	343.23
368.925	355.65
369.306	360.17
369.688	377.35
370.069	349.55
370.45	354.75
370.831	363.79
371.212	382.09
371.593	357.24
371.974	352.04
372.355	353.85
372.736	363.56
373.117	377.35
373.498	368.08
373.879	352.49
374.26	340.74
374.641	355.65
375.021	361.76
375.402	360.4
375.783	387.29
376.163	395.65
376.544	400.85
376.925	374.41
377.305	382.77
377.686	385.71
378.066	380.29
378.447	417.8
378.827	404.01
379.208	382.32
379.588	395.43
379.968	384.81
380.349	412.15
380.729	421.87
381.109	398.14
381.489	412.15
381.87	405.6
382.25	424.13
382.63	423.45
383.01	423.22
383.39	423.22
383.77	405.6
384.15	420.29
384.53	440.62
384.91	429.1
385.29	420.96
385.67	430.45
386.049	417.8
386.429	423
386.809	444.92
387.189	460.74
387.568	448.99
387.948	451.25
388.328	467.52
388.707	462.32
389.087	456.22
389.466	470.68
389.846	487.18
390.225	476.78
390.605	488.76
390.984	461.41
391.363	486.27
391.743	486.27
392.122	502.32
392.501	499.61
392.881	505.93
393.26	481.75
393.639	524.46
394.018	520.85
394.397	512.03
394.776	518.14
395.155	521.53
395.534	502.54
395.913	522.2
396.292	516.1
396.671	517.01
397.05	544.8
397.429	537.8
397.808	544.12
398.186	558.14
398.565	549.77
398.944	557.23
399.323	581.64
399.701	552.71
400.08	574.63
400.458	581.86
400.837	579.6
401.215	568.3
401.594	597.23
401.972	616.44
402.351	602.88
402.729	615.08
403.107	620.51
403.486	628.87
403.864	638.13
404.242	632.26
404.62	631.81
404.999	629.09
405.377	630
405.755	681.97
406.133	680.62
406.511	661.41
406.889	708.87
407.267	687.85
407.645	698.24
408.023	707.51
408.401	704.8
408.779	710.22
409.156	720.62
409.534	749.32
409.912	748.41
410.29	765.36
410.667	740.05
411.045	783.44
411.422	798.58
411.8	809.2
412.178	786.38
412.555	828.86
412.933	816.43
413.31	847.84
413.687	861.4
414.065	849.2
414.442	869.54
414.819	887.39
415.197	875.19
415.574	913.38
415.951	890.1
416.328	936.88
416.705	926.71
417.082	926.26
417.46	903.44
417.837	932.14
418.214	936.66
418.591	975.3
418.967	968.29
419.344	970.55
419.721	988.63
420.098	978.91
420.475	1013.49
420.852	1008.29
421.228	1005.13
421.605	1041.29
421.982	1049.42
422.358	1063.21
422.735	1053.94
423.111	1059.59
423.488	1077.22
423.864	1091.45
424.241	1118.12
424.617	1116.54
424.994	1115.63
425.37	1133.04
425.746	1130.78
426.123	1145.24
426.499	1178.23
426.875	1206.25
427.251	1209.42
427.627	1238.8
428.003	1236.31
428.379	1243.09
428.756	1292.13
429.132	1258.91
429.507	1281.28
429.883	1314.95
430.259	1340.94
430.635	1367.83
431.011	1384.78
431.387	1392.69
431.763	1404.21
432.138	1429.52
432.514	1415.29
432.89	1455.29
433.265	1487.15
433.641	1505.91
434.016	1516.08
434.392	1535.06
434.767	1579.13
435.143	1548.39
435.518	1566.47
435.894	1613.47
436.269	1641.72
436.644	1669.74
437.02	1648.73
437.395	1682.63
437.77	1724.43
438.145	1742.51
438.52	1753.81
438.895	1744.77
439.271	1720.36
439.646	1821.6
440.021	1804.88
440.395	1846.69
440.77	1801.94
441.145	1828.61
441.52	1872.22
441.895	1874.48
442.27	1879.91
442.645	1909.96
443.019	1915.84
443.394	1932.79
443.769	1933.24
444.143	1948.38
444.518	1973.92
444.892	1965.33
445.267	1980.47
445.641	2015.95
446.016	1993.58
446.39	2032.22
446.764	2044.42
447.139	2060.02
447.513	2077.19
447.887	2091.65
448.262	2066.8
448.636	2104.54
449.01	2129.39
449.384	2161.48
449.758	2150.18
450.132	2227.02
450.506	2175.04
450.88	2226.57
451.254	2222.95
451.628	2283.74
452.002	2270.41
452.376	2331.65
452.75	2341.14
453.123	2342.04
453.497	2389.05
453.871	2389.05
454.244	2476.05
454.618	2455.26
454.992	2493.45
455.365	2486.22
455.739	2564.18
456.112	2573.68
456.486	2614.13
456.859	2649.15
457.232	2715.14
457.606	2683.5
457.979	2766.89
458.352	2759.66
458.725	2827
459.099	2836.04
459.472	2854.57
459.845	2949.71
460.218	2950.39
460.591	3017.51
460.964	2971.63
461.337	3066.32
461.71	3099.54
462.083	3158.74
462.456	3122.81
462.829	3191.51
463.201	3219.76
463.574	3219.53
463.947	3277.16
464.32	3357.84
464.692	3367.55
465.065	3435.35
465.438	3425.86
465.81	3445.06
466.183	3478.06
466.555	3529.13
466.928	3590.15
467.3	3586.3
467.672	3612.97
468.045	3725.28
468.417	3730.48
468.789	3729.8
469.161	3787.65
469.534	3841.89
469.906	3925.5
470.278	3982.23
470.65	4006.18
471.022	4033.98
471.394	4134.54
471.766	4157.14
472.138	4224.71
472.51	4272.61
472.882	4345.38
473.253	4372.27
473.625	4415.89
473.997	4574.07
474.369	4560.97
474.74	4615.66
475.112	4657.01
475.484	4754.41
475.855	4842.54
476.227	4875.76
476.598	5005.02
476.97	5035.98
477.341	5150.56
477.713	5198.24
478.084	5235.98
478.455	5387.16
478.827	5443.2
479.198	5556.87
479.569	5559.59
479.94	5719.58
480.311	5821.73
480.682	5887.94
481.053	5966.13
481.424	6092.68
481.795	6166.12
482.166	6284.99
482.537	6336.74
482.908	6448.15
483.279	6510.75
483.65	6668.71
484.021	6783.96
484.391	6885.65
484.762	6989.83
485.133	7008.13
485.503	7146.44
485.874	7257.39
486.244	7331.97
486.615	7500.1
486.985	7640.89
487.356	7721.79
487.726	7809.7
488.097	8003.14
488.467	8067.09
488.837	8208.33
489.207	8303.69
489.578	8470.02
489.948	8524.25
490.318	8669.33
490.688	8706.17
491.058	8860.29
491.428	8919.27
491.798	9175.08
492.168	9284.69
492.538	9262.76
492.908	9398.35
493.278	9512.93
493.648	9570.78
494.017	9699.14
494.387	9784.33
494.757	9791.11
495.126	9934.39
495.496	9998.11
495.866	10159.69
496.235	10272.91
496.605	10272.23
496.974	10426.35
497.344	10465.22
497.713	10546.35
498.082	10666.34
498.452	10742.27
498.821	10843.74
499.19	10904.76
499.559	10890.97
499.928	11071.98
500.298	11098.42
500.667	11210.51
501.036	11183.84
501.405	11358.76
501.774	11343.16
502.143	11440.79
502.512	11514.01
502.88	11639.2
503.249	11705.19
503.618	11716.71
503.987	11834
504.356	11881.23
504.724	11940.21
505.093	12015.91
505.462	12062.24
505.83	12184.72
506.199	12278.96
506.567	12440.31
506.936	12426.3
507.304	12548.55
507.672	12596.24
508.041	12665.39
508.409	12780.41
508.777	12875.55
509.145	12962.55
509.514	12918.49
509.882	13043
510.25	13104.02
510.618	13216.56
510.986	13178.37
511.354	13334.75
511.722	13461.52
512.09	13500.62
512.458	13498.13
512.826	13631.01
513.193	13702.87
513.561	13789.2
513.929	13843.21
514.297	13882.08
514.664	14006.59
515.032	14069.87
515.4	14222.63
515.767	14247.72
516.135	14251.33
516.502	14254.5
516.869	14552.8
517.237	14626.24
517.604	14558.9
517.972	14817.42
518.339	14815.84
518.706	14907.36
519.073	15006.79
519.44	15042.95
519.808	15220.8
520.175	15190.07
520.542	15263.06
520.909	15397.52
521.276	15559.55
521.643	15689.94
522.009	15712.76
522.376	15835.25
522.743	15818.75
523.11	16072.98
523.477	16258.29
523.843	16308.46
524.21	16564.27
524.577	16486.08
524.943	16581.67
525.31	16665.51
525.676	16892.39
526.043	16997.7
526.409	17058.27
526.776	17124.93
527.142	17278.15
527.508	17345.26
527.874	17466.39
528.241	17580.29
528.607	17600.4
528.973	17758.59
529.339	17728.53
529.705	17971.24
530.071	18077
530.437	18222.3
530.803	18288.74
531.169	18388.17
531.535	18343.88
531.901	18467.49
532.267	18478.12
532.632	18648.96
532.998	18732.8
533.364	18872.68
533.73	18767.37
534.095	18930.76
534.461	18885.79
534.826	19022.96
535.192	19051.43
535.557	19247.81
535.923	19205.55
536.288	19273.35
536.653	19297.3
537.019	19192.9
537.384	19348.15
537.749	19342.05
538.114	19421.14
538.479	19404.87
538.845	19374.14
539.21	19389.05
539.575	19437.64
539.94	19664.3
540.305	19633.34
540.67	19608.03
541.034	19682.15
541.399	19605.77
541.764	19621.14
542.129	19765.31
542.494	19784.3
542.858	19792.21
543.223	19732.77
543.587	19894.58
543.952	19842.6
544.316	19859.32
544.681	19843.73
545.045	19892.77
545.41	19984.29
545.774	19874.24
546.138	19910.85
546.503	19910.17
546.867	19907.68
547.231	20095.7
547.595	20083.27
547.959	20094.8
548.324	20003.73
548.688	20105.64
549.052	20076.94
549.416	20143.16
549.779	20135.02
550.143	20200.56
550.507	20272.42
550.871	20179.54
551.235	20218.64
551.599	20370.04
551.962	20412.3
552.326	20389.93
552.689	20378.4
553.053	20229.03
553.417	20450.72
553.78	20481.45
554.143	20510.6
554.507	20556.25
554.87	20618.62
555.234	20765.97
555.597	20581.56
555.96	20768.23
556.323	20690.26
556.686	20835.34
557.05	20815.46
557.413	20861.1
557.776	20852.74
558.139	21016.13
558.502	21051.61
558.865	21031.95
559.228	21213.86
559.59	21195.33
559.953	21198.95
560.316	21456.12
560.679	21378.15
561.041	21454.08
561.404	21560.75
561.767	21736.34
562.129	21643.23
562.492	21886.61
562.854	21867.63
563.217	21781.08
563.579	21977.68
563.941	22068.98
564.304	22141.07
564.666	22414.96
565.028	22475.98
565.39	22507.39
565.753	22674.84
566.115	22641.62
566.477	22723.65
566.839	22843.42
567.201	23111.89
567.563	23076.86
567.925	23294.03
568.287	23239.12
568.648	23387.14
569.01	23507.81
569.372	23753.23
569.734	23678.66
570.095	23885.21
570.457	24054.01
570.819	24002.72
571.18	24157.51
571.542	24286.1
571.903	24398.64
572.265	24498.07
572.626	24632.76
572.987	24703.26
573.349	24895.8
573.71	24938.96
574.071	24903.94
574.432	25223.48
574.794	25404.04
575.155	25390.7
575.516	25409.68
575.877	25533.75
576.238	25499.17
576.599	25557.48
576.96	25709.11
577.32	25790.24
577.681	25954.98
578.042	26042.66
578.403	25952.95
578.763	26073.4
579.124	26013.51
579.485	26286.5
579.845	26216.67
580.206	26302.77
580.566	26333.28
580.927	26403.78
581.287	26541.18
581.648	26428.87
582.008	26611.24
582.368	26630.22
582.728	26655.98
583.089	26644.68
583.449	26659.6
583.809	26667.28
584.169	26746.37
584.529	26695.3
584.889	26792.02
585.249	26612.14
585.609	26515.19
585.969	26757.22
586.329	26651.46
586.688	26738.24
587.048	26660.73
587.408	26667.73
587.768	26737.33
588.127	26691.69
588.487	26687.39
588.846	26944.79
589.206	26663.44
589.565	26676.09
589.925	26727.84
590.284	26727.84
590.643	26640.84
591.003	26580.5
591.362	26832.25
591.721	26673.15
592.08	26641.97
592.44	26834.96
592.799	26671.35
593.158	26747.28
593.517	26544.57
593.876	26711.57
594.235	26689.43
594.593	26612.37
594.952	26638.58
595.311	26622.53
595.67	26665.92
596.029	26907.05
596.387	26835.18
596.746	26868.4
597.104	26608.75
597.463	26605.81
597.822	26754.06
598.18	26604.68
598.538	26604.46
598.897	26850.33
599.255	26687.62
599.613	27001.51
599.972	26719.26
600.33	26876.09
600.688	26767.16
601.046	26761.29
601.404	26892.58
601.762	26728.75
602.12	26941.17
602.478	26826.82
602.836	26878.57
603.194	26672.7
603.552	26757.45
603.91	26705.7
604.268	26866.37
604.625	26770.78
604.983	26863.88
605.341	26805.81
605.698	26891
606.056	27005.8
606.413	26905.01
606.771	27003.09
607.128	26998.8
607.485	26856.43
607.843	26970.1
608.2	27065.01
608.557	27086.93
608.914	27025.69
609.272	27125.35
609.629	27277.88
609.986	27379.12
610.343	27152.46
610.7	27462.51
611.057	27328.96
611.414	27343.65
611.771	27414.6
612.127	27546.58
612.484	27423.64
612.841	27566.24
613.198	27395.4
613.554	27424.77
613.911	27759.68
614.267	27704.31
614.624	27698.66
614.98	27697.99
615.337	27924.87
615.693	27840.13
616.05	27804.65
616.406	28041.71
616.762	27854.14
617.118	27940.69
617.475	27892.78
617.831	27964.87
618.187	28048.94
618.543	28003.52
618.899	28194.02
619.255	28061.59
619.611	28104.08
619.967	28250.74
620.323	28274.02
620.678	28027.92
621.034	28028.37
621.39	28184.75
621.746	28111.31
622.101	28514.69
622.457	28163.74
622.812	28391.3
623.168	28463.39
623.523	28252.77
623.879	28471.07
624.234	28277.86
624.589	28400.11
624.945	28421.36
625.3	28458.64
625.655	28406.89
626.01	28503.84
626.365	28448.02
626.72	28374.8
627.075	28395.14
627.43	28352.88
627.785	28467.23
628.14	28410.96
628.495	28469.94
628.85	28536.16
629.205	28271.98
629.559	28535.48
629.914	28392.43
630.269	28392.21
630.623	28221.81
630.978	28119.67
631.332	28283.06
631.687	28333.45
632.041	28237.18
632.396	28249.61
632.75	28159.67
633.104	28201.25
633.459	27900.24
633.813	28063.17
634.167	27995.83
634.521	27977.08
634.875	28087.58
635.229	28065.89
635.583	27766.23
635.937	27877.19
636.291	27674.71
636.645	27773.01
636.999	27601.27
637.352	27811.66
637.706	27585.22
638.06	27746.57
638.413	27616.86
638.767	27509.06
639.121	27566.92
639.474	27392.68
639.828	27454.6
640.181	27458.67
640.534	27622.51
640.888	27386.13
641.241	27357.88
641.594	27277.66
641.947	27429.07
642.301	27356.53
642.654	27337.09
643.007	27220.94
643.36	27193.59
643.713	27238.34
644.066	27227.49
644.419	27097.1
644.771	26830.66
645.124	26670.89
645.477	26689.2
645.83	26653.49
646.182	26662.76
646.535	26597.9
646.888	26651.23
647.24	26513.16
647.593	26654.85
647.945	26507.06
648.298	26588.41
648.65	26338.02
649.002	26077.46
649.355	26001.08
649.707	25885.38
650.059	25945.04
650.411	26437.45
650.763	26535.53
651.115	27002.86
651.467	26860.95
651.819	26879.02
652.171	26783.66
652.523	26800.61
652.875	26750.21
653.227	26741.18
653.578	26941.17
653.93	26796.99
654.282	26776.2
654.633	26728.75
654.985	26737.79
655.337	26729.65
655.688	26707.96
656.039	26860.04
656.391	26578.24
656.742	26698.24
657.094	26855.07
657.445	26710.44
657.796	26862.98
658.147	26756.54
658.498	26901.62
658.849	26861.4
659.2	26741.85
659.551	26688.52
659.902	26846.26
660.253	26805.35
660.604	26914.96
660.955	26679.48
661.306	26878.8
661.656	26713.61
662.007	26901.62
662.358	26848.97
662.708	26750.44
663.059	26809.65
663.409	26595.87
663.76	26882.64
664.11	26884.22
664.461	27004.67
664.811	26993.6
665.161	27025.01
665.511	26905.69
665.862	26863.43
666.212	26951.57
666.562	26986.14
666.912	26799.03
667.262	26866.37
667.612	26897.1
667.962	26896.2
668.312	26820.5
668.662	27076.31
669.011	26953.15
669.361	26910.66
669.711	26963.09
670.06	26839.48
670.41	26747.95
670.76	26809.42
671.109	26924
671.459	26884.45
671.808	26867.95
672.157	26951.79
672.507	26744.34
672.856	26713.61
673.205	26694.4
673.554	26646.49
673.904	26695.53
674.253	26931.23
674.602	26745.7
674.951	26208.31
675.3	26248.31
675.649	26627.51
675.998	26718.13
676.346	26633.61
676.695	26811.91
677.044	26435.65
677.393	26548.19
677.741	26615.53
678.09	26564.68
678.438	26526.27
678.787	26583.67
679.135	26491.01
679.484	26364.24
679.832	26469.54
680.181	26349.1
680.529	26448.3
680.877	26168.54
681.225	26103.9
681.573	26231.13
681.922	26201.75
682.27	26102.55
682.618	26005.15
682.966	26140.74
683.314	26144.58
683.661	26049.44
684.009	25967.86
684.357	25826.17
684.705	25797.7
685.053	25802.22
685.4	25670.47
685.748	25609
686.095	25541.66
686.443	25424.6
686.79	25443.36
687.138	25507.31
687.485	25500.08
687.832	25264.38
688.18	25300.54
688.527	25161.78
688.874	25150.26
689.221	25099.18
689.568	24942.35
689.915	24788.91
690.262	24966.53
690.609	24809.7
690.956	24692.19
691.303	24618.52
691.65	24414.46
691.997	24643.6
692.344	24377.17
692.69	24324.97
693.037	24273.44
693.383	24073.22
693.73	24139.66
694.077	23897.63
694.423	23823.29
694.769	23873.23
695.116	23707.81
695.462	23641.82
695.808	23662.39
696.155	23614.93
696.501	23343.3
696.847	23389.4
697.193	23150.76
697.539	23308.5
697.885	23073.02
698.231	23037.77
698.577	22985.12
698.923	22971.56
699.269	22732.69
699.614	22783.77
699.96	22488.86
700.306	22542.64
700.651	22487.95
700.997	22262.65
701.342	22257.9
701.688	22284.34
702.033	22101.52
702.379	22157.34
702.724	21939.72
703.069	22114.4
703.415	21907.86
703.76	21785.83
704.105	21777.69
704.45	21774.75
704.795	21597.13
705.14	21465.61
705.485	21516.68
705.83	21321.88
706.175	21416.57
706.52	21321.66
706.865	21195.33
707.209	21158.95
707.554	21192.17
707.899	21143.58
708.243	21076.69
708.588	21001.67
708.932	20963.02
709.277	20894.1
709.621	20913.98
709.966	20623.37
710.31	20785.17
710.654	20667.66
710.998	20578.4
711.342	20722.35
711.687	20553.54
712.031	20478.29
712.375	20408.69
712.719	20411.4
713.063	20375.02
713.407	20434.22
713.75	20320.55
714.094	20275.36
714.438	20228.13
714.782	20164.85
715.125	20052.09
715.469	20277.16
715.812	20122.82
716.156	20151.52
716.499	20051.63
716.843	20088.92
717.186	20055.48
717.53	20172.31
717.873	20069.94
718.216	20043.72
718.559	20038.07
718.902	19833.11
719.246	19857.29
719.589	19859.55
719.932	19782.04
720.275	19902.94
720.617	19939.09
720.96	19824.75
721.303	19897.29
721.646	19930.96
721.989	19748.59
722.331	19807.12
722.674	19774.8
723.016	19784.97
723.359	19717.41
723.701	19731.42
724.044	19655.94
724.386	19657.75
724.729	19786.78
725.071	19777.97
725.413	19718.31
725.755	19685.32
726.097	19603.51
726.439	19551.53
726.782	19571.65
727.124	19760.34
727.465	19669.95
727.807	19641.93
728.149	19650.97
728.491	19605.09
728.833	19691.87
729.175	19649.61
729.516	19562.61
729.858	19623.62
730.199	19658.42
730.541	19709.04
730.882	19697.74
731.224	19794.69
731.565	19593.34
731.906	19764.41
732.248	19728.48
732.589	19698.87
732.93	19621.59
733.271	19737.97
733.612	19700.68
733.953	19878.76
734.294	19756.5
734.635	19699.78
734.976	19879.21
735.317	19843.73
735.658	19781.58
735.999	19808.48
736.339	19864.97
736.68	19969.6
737.021	19966.89
737.361	19806.44
737.702	20065.19
738.042	19928.93
738.383	19985.42
738.723	20109.94
739.063	20071.29
739.404	20179.09
739.744	20145.19
740.084	20154.23
740.424	20179.77
740.764	20291.4
741.104	20327.11
741.444	20287.33
741.784	20404.84
742.124	20537.27
742.464	20587.44
742.804	20511.51
743.143	20614.56
743.483	20694.78
743.823	20685.52
744.162	20643.03
744.502	20890.48
744.841	20868.34
745.181	21027.43
745.52	21131.15
745.86	21113.98
746.199	21196.24
746.538	21303.35
746.877	21501.09
747.216	21464.25
747.556	21577.92
747.895	21729.33
748.234	21765.49
748.573	21868.08
748.911	22039.6
749.25	22132.71
749.589	22182.88
749.928	22374.96
750.267	22473.04
750.605	22443.66
750.944	22705.58
751.283	22760.49
751.621	22923.2
751.96	23037.09
752.298	23167.03
752.636	23347.82
752.975	23394.82
753.313	23445.89
753.651	23816.51
753.989	23855.15
754.327	24012.21
754.666	24052.21
