Data from 18-4530_FLMS001491_002.txt Node
Date: Thu Apr 19 16:44:05 BST 2018
User: hsy
Spectrometer: FLMS00149
Trigger mode: 0
Integration Time (sec): 1.000000E-2
Scans to average: 10
Electric dark correction enabled: true
Nonlinearity correction enabled: false
Boxcar width: 0
XAxis mode: Wavelengths
Number of Pixels in Spectrum: 2048
>>>>>Begin Spectral Data<<<<<
341.393	-25.06
341.776	-25.06
342.16	-25.06
342.543	-53.76
342.927	-63.47
343.31	-73.87
343.693	-73.87
344.077	-84.49
344.46	-60.54
344.843	-48.78
345.226	-37.71
345.61	-35.23
345.993	-24.83
346.376	7.49
346.759	23.3
347.142	20.14
347.525	51.1
347.908	67.15
348.291	74.6
348.674	76.18
349.057	119.35
349.44	114.83
349.823	127.48
350.206	159.8
350.588	211.55
350.971	226.01
351.354	248.61
351.737	260.59
352.119	276.63
352.502	296.52
352.884	286.12
353.267	289.29
353.65	319.12
354.032	323.86
354.414	327.93
354.797	330.64
355.179	359.34
355.562	343.52
355.944	350.3
356.326	345.56
356.709	358.44
357.091	354.82
357.473	370.64
357.855	374.03
358.238	357.08
358.62	374.71
359.002	378.1
359.384	374.93
359.766	395.95
360.148	379.68
360.53	362.73
360.912	366.35
361.294	389.17
361.676	396.63
362.057	386.68
362.439	386.01
362.821	372.45
363.203	340.36
363.584	348.04
363.966	353.92
364.348	364.76
364.729	363.86
365.111	354.6
365.493	354.6
365.874	364.31
366.256	353.92
366.637	351.43
367.019	352.79
367.4	347.82
367.781	358.44
368.163	361.37
368.544	345.33
368.925	355.5
369.306	360.24
369.688	371.77
370.069	353.69
370.45	364.99
370.831	368.61
371.212	372.45
371.593	386.46
371.974	381.71
372.355	370.41
372.736	374.48
373.117	358.66
373.498	383.75
373.879	351.66
374.26	364.09
374.641	369.74
375.021	380.81
375.402	366.12
375.783	387.81
376.163	404.09
376.544	358.66
376.925	377.87
377.305	388.27
377.686	397.76
378.066	395.95
378.447	392.11
378.827	398.66
379.208	388.04
379.588	400.92
379.968	405.89
380.349	424.2
380.729	388.27
381.109	407.25
381.489	426.46
381.87	396.4
382.25	414.03
382.63	412.45
383.01	426.91
383.39	433.01
383.77	414.93
384.15	435.05
384.53	433.92
384.91	441.6
385.29	450.86
385.67	440.47
386.049	424.88
386.429	452.67
386.809	463.74
387.189	447.25
387.568	473.24
387.948	447.47
388.328	465.78
388.707	468.04
389.087	459
389.466	469.39
389.846	462.16
390.225	475.72
390.605	483.86
390.984	502.84
391.363	497.64
391.743	513.24
392.122	476.4
392.501	500.58
392.881	521.82
393.26	497.42
393.639	501.48
394.018	518.88
394.397	522.27
394.776	529.96
395.155	519.79
395.534	535.16
395.913	519.79
396.292	542.61
396.671	542.16
397.05	562.73
397.429	537.87
397.808	552.56
398.186	545.32
398.565	568.83
398.944	573.35
399.323	542.16
399.701	563.63
400.08	571.54
400.458	594.36
400.837	591.2
401.215	604.08
401.594	597.98
401.972	627.13
402.351	613.8
402.729	629.39
403.107	627.13
403.486	627.58
403.864	646.34
404.242	651.31
404.62	659.45
404.999	648.15
405.377	679.11
405.755	663.06
406.133	672.78
406.511	673.46
406.889	698.77
407.267	716.17
407.645	703.06
408.023	738.54
408.401	731.08
408.779	738.54
409.156	744.64
409.534	762.72
409.912	754.13
410.29	776.05
410.667	772.89
411.045	769.27
411.422	795.26
411.8	798.2
412.178	829.38
412.555	838.42
412.933	829.84
413.31	848.59
413.687	851.98
414.065	864.41
414.442	861.02
414.819	906.67
415.197	887.46
415.574	888.82
415.951	905.77
416.328	931.3
416.705	919.1
417.082	948.25
417.46	984.41
417.837	977.4
418.214	974.47
418.591	955.03
418.967	988.48
419.344	1007.91
419.721	1007.46
420.098	1027.12
420.475	1027.57
420.852	1009.27
421.228	1035.26
421.605	1060.79
421.982	1057.85
422.358	1060.79
422.735	1075.25
423.111	1092.2
423.488	1101.69
423.864	1115.48
424.241	1122.03
424.617	1124.29
424.994	1172.2
425.37	1183.05
425.746	1174.69
426.123	1205.19
426.499	1197.06
426.875	1230.5
427.251	1240.67
427.627	1227.79
428.003	1270.28
428.379	1295.81
428.756	1292.65
429.132	1312.76
429.507	1344.4
429.883	1359.54
430.259	1371.74
430.635	1369.94
431.011	1366.09
431.387	1419.43
431.763	1467.11
432.138	1427.56
432.514	1437.96
432.89	1489.93
433.265	1527.67
433.641	1534.23
434.016	1528.12
434.392	1593.43
434.767	1596.6
435.143	1638.86
435.518	1623.49
435.894	1685.63
436.269	1666.65
436.644	1692.41
437.02	1713.88
437.395	1727.67
437.77	1762.24
438.145	1781.45
438.52	1767.67
438.895	1818.74
439.271	1793.88
439.646	1835.91
440.021	1853.76
440.395	1880.88
440.77	1864.16
441.145	1901.9
441.52	1942.58
441.895	1937.83
442.27	1944.84
442.645	1957.04
443.019	1959.52
443.394	1968.56
443.769	1997.72
444.143	1968.56
444.518	1999.98
444.892	2037.04
445.267	2061.44
445.641	2066.64
446.016	2067.77
446.39	2088.11
446.764	2119.29
447.139	2100.99
447.513	2152.74
447.887	2123.14
448.262	2131.5
448.636	2175.79
449.01	2183.93
449.384	2190.25
449.758	2236.81
450.132	2260.08
450.506	2266.41
450.88	2283.58
451.254	2288.1
451.628	2357.48
452.002	2372.62
452.376	2340.53
452.75	2377.37
453.123	2412.85
453.497	2473.18
453.871	2425.28
454.244	2510.47
454.618	2537.59
454.992	2545.5
455.365	2601.99
455.739	2615.78
456.112	2630.02
456.486	2653.07
456.859	2708.43
457.232	2785.49
457.606	2787.07
457.979	2776.23
458.352	2889.44
458.725	2922.89
459.099	2945.04
459.472	2978.26
459.845	3009.67
460.218	3009.44
460.591	3074.52
460.964	3124.69
461.337	3140.96
461.71	3223.9
462.083	3262.99
462.456	3259.83
462.829	3292.6
463.201	3352.48
463.574	3308.42
463.947	3369.66
464.32	3447.85
464.692	3476.77
465.065	3523.78
465.438	3542.31
465.81	3580.95
466.183	3625.02
466.555	3709.08
466.928	3734.62
467.3	3690.33
467.672	3748.63
468.045	3840.61
468.417	3830.89
468.789	3902.07
469.161	3941.17
469.534	3988.4
469.906	4075.85
470.278	4069.3
470.65	4157.43
471.022	4246.47
471.394	4268.16
471.766	4323.53
472.138	4363.3
472.51	4482.4
472.882	4441.95
473.253	4542.06
473.625	4561.04
473.997	4697.76
474.369	4746.34
474.74	4736.85
475.112	4862.5
475.484	4935.49
475.855	4982.95
476.227	5028.14
476.598	5218.2
476.97	5256.84
477.341	5317.4
477.713	5419.55
478.084	5461.13
478.455	5581.35
478.827	5679.2
479.198	5785.64
479.569	5813.43
479.94	5932.53
480.311	6033.32
480.682	6185.4
481.053	6309.69
481.424	6408.45
481.795	6446.19
482.166	6563.7
482.537	6644.15
482.908	6763.92
483.279	6841.43
483.65	6962.56
484.021	7072.38
484.391	7193.96
484.762	7235.54
485.133	7328.42
485.503	7422.43
485.874	7557.34
486.244	7661.97
486.615	7846.83
486.985	8003.89
487.356	8072.36
487.726	8166.59
488.097	8360.94
488.467	8393.25
488.837	8531.56
489.207	8640.71
489.578	8779.23
489.948	8909.85
490.318	9052.22
490.688	9050.19
491.058	9269.16
491.428	9418.99
491.798	9431.19
492.168	9642.71
492.538	9707.12
492.908	9792.99
493.278	9913.89
493.648	9953.66
494.017	10085.41
494.387	10307.33
494.757	10386.42
495.126	10371.05
495.496	10385.97
495.866	10651.95
496.235	10756.13
496.605	10790.93
496.974	10874.77
497.344	10946.41
497.713	11083.35
498.082	11198.15
498.452	11196.12
498.821	11351.59
499.19	11368.54
499.559	11470.01
499.928	11561.98
500.298	11641.3
500.667	11799.49
501.036	11775.09
501.405	11928.98
501.774	11959.49
502.143	12045.14
502.512	12117.68
502.88	12217.11
503.249	12187.96
503.618	12353.38
503.987	12340.49
504.356	12565.35
504.724	12546.82
505.093	12643.99
505.462	12702.29
505.83	12822.97
506.199	12893.25
506.567	13013.02
506.936	13069.52
507.304	13202.62
507.672	13209.85
508.041	13214.14
508.409	13355.61
508.777	13532.1
509.145	13492.55
509.514	13566.68
509.882	13678.99
510.25	13653
510.618	13807.12
510.986	13852.09
511.354	14025.65
511.722	14077.85
512.09	14288.69
512.458	14184.29
512.826	14354.68
513.193	14394.23
513.561	14470.38
513.929	14531.85
514.297	14693.43
514.664	14735.46
515.032	14802.8
515.4	14991.72
515.767	14920.31
516.135	15057.03
516.502	15024.72
516.869	15334.09
517.237	15319.17
517.604	15278.95
517.972	15490.47
518.339	15620.63
518.706	15717.36
519.073	15730.01
519.44	15845.04
519.808	15972.26
520.175	15986.27
520.542	16179.72
520.909	16225.59
521.276	16226.49
521.643	16406.6
522.009	16505.13
522.376	16711.68
522.743	16673.94
523.11	16879.13
523.477	16958.9
523.843	17107.6
524.21	17235.73
524.577	17347.14
524.943	17513.24
525.31	17439.8
525.676	17742.84
526.043	17841.14
526.409	17842.04
526.776	18029.16
527.142	18080.68
527.508	18157.29
527.874	18453.1
528.241	18382.14
528.607	18450.16
528.973	18728.12
529.339	18714.56
529.705	18929.02
530.071	19016.03
530.437	19130.37
530.803	19145.74
531.169	19282.69
531.535	19286.98
531.901	19480.19
532.267	19343.02
532.632	19606.52
532.998	19492.4
533.364	19755.89
533.73	19722
534.095	19904.59
534.461	19851.94
534.826	20019.84
535.192	19943.68
535.557	20111.59
535.923	20158.82
536.288	20229.78
536.653	20290.79
537.019	20252.6
537.384	20262.09
537.749	20389.55
538.114	20453.95
538.479	20321.08
538.845	20453.28
539.21	20337.8
539.575	20472.26
539.94	20416.44
540.305	20598.36
540.67	20544.8
541.034	20640.62
541.399	20650.33
541.764	20644.91
542.129	20710.67
542.494	20767.39
542.858	20763.1
543.223	20745.7
543.587	20863.21
543.952	20806.71
544.316	20877.9
544.681	20886.26
545.045	20915.64
545.41	21028.63
545.774	20938.69
546.138	20945.47
546.503	20964
546.867	20947.5
547.231	21036.99
547.595	21041.73
547.959	21144.78
548.324	21191.79
548.688	21097.78
549.052	21121.05
549.416	21185.23
549.779	21172.8
550.143	21200.15
550.507	21299.13
550.871	21291.67
551.235	21250.09
551.599	21358.34
551.962	21285.8
552.326	21328.73
552.689	21360.14
553.053	21301.84
553.417	21377.55
553.78	21527.82
554.143	21601.04
554.507	21542.74
554.87	21616.18
555.234	21722.39
555.597	21662.06
555.96	21658.67
556.323	21861.15
556.686	21750.64
557.05	21884.2
557.413	21953.35
557.776	21955.38
558.139	22049.84
558.502	22143.4
558.865	22066.11
559.228	22168.03
559.59	22272.66
559.953	22198.99
560.316	22507.23
560.679	22390.63
561.041	22526.89
561.404	22562.37
561.767	22869.26
562.129	22736.83
562.492	22972.08
562.854	22972.53
563.217	23049.82
563.579	23125.52
563.941	23309.92
564.304	23327.1
564.666	23533.65
565.028	23428.79
565.39	23509.69
565.753	23705.39
566.115	23685.28
566.477	23918.04
566.839	24085.5
567.201	24219.5
567.563	24138.83
567.925	24316.45
568.287	24298.15
568.648	24472.38
569.01	24553.96
569.372	24873.72
569.734	24751.69
570.095	24952.14
570.457	25163.66
570.819	25235.52
571.18	25174.06
571.542	25397.33
571.903	25406.82
572.265	25569.98
572.626	25814.72
572.987	25780.82
573.349	26016.29
573.71	26016.29
574.071	26184.65
574.432	26361.37
574.794	26501.7
575.155	26554.13
575.516	26476.17
575.877	26612.89
576.238	26591.65
576.599	26804.97
576.96	26815.14
577.32	26999.09
577.681	27088.81
578.042	27218.97
578.403	27223.72
578.763	27177.62
579.124	27283.6
579.485	27596.36
579.845	27527.21
580.206	27426.43
580.566	27545.97
580.927	27653.54
581.287	27757.49
581.648	27621.22
582.008	27775.57
582.368	27809.92
582.728	27742.35
583.089	27755.23
583.449	27694.44
583.809	27892.85
584.169	27821.44
584.529	27733.99
584.889	28091.04
585.249	27792.29
585.609	27656.48
585.969	27967.2
586.329	27895.57
586.688	27897.6
587.048	27948.45
587.408	27894.44
587.768	27768.34
588.127	27827.32
588.487	27854.21
588.846	27893.08
589.206	27638.62
589.565	27840.65
589.925	27926.3
590.284	27777.15
590.643	27811.95
591.003	27849.92
591.362	27930.59
591.721	27768.11
592.08	27802.69
592.44	27956.81
592.799	27749.81
593.158	27787.77
593.517	27663.93
593.876	27730.15
594.235	27648.11
594.593	27773.76
594.952	27869.13
595.311	27768.34
595.67	27761.78
596.029	27827.77
596.387	27888.79
596.746	27921.78
597.104	27747.55
597.463	27735.57
597.822	27904.83
598.18	27639.98
598.538	27735.8
598.897	27903.7
599.255	27754.78
599.613	27995
599.972	27848.34
600.33	27970.59
600.688	27812.63
601.046	27821.44
601.404	28055.56
601.762	27821.22
602.12	28058.73
602.478	27964.26
602.836	27970.82
603.194	27861.22
603.552	27950.93
603.91	28002.91
604.268	27823.48
604.625	27779.41
604.983	28161.1
605.341	27871.16
605.698	28037.71
606.056	28138.27
606.413	27931.5
606.771	28158.84
607.128	28122.45
607.485	28120.42
607.843	28089.23
608.2	28134.43
608.557	28210.36
608.914	28230.25
609.272	28343.01
609.629	28416.68
609.986	28452.39
610.343	28365.16
610.7	28636.34
611.057	28465.04
611.414	28426.4
611.771	28654.42
612.127	28735.54
612.484	28657.81
612.841	28619.61
613.198	28625.72
613.554	28554.76
613.911	28749.55
614.267	28746.84
614.624	28726.73
614.98	28882.66
615.337	28951.36
615.693	29025.48
616.05	28969.21
616.406	29134.4
616.762	29025.93
617.118	29103.44
617.475	29093.95
617.831	29212.82
618.187	29219.82
618.543	29236.1
618.899	29393.38
619.255	29345.25
619.611	29259.15
619.967	29507.5
620.323	29547.95
620.678	29412.81
621.034	29437.22
621.39	29301.63
621.746	29456.88
622.101	29660.49
622.457	29410.78
622.812	29543.66
623.168	29512.47
623.523	29486.48
623.879	29683.32
624.234	29404.23
624.589	29610.78
624.945	29504.56
625.3	29554.05
625.655	29677.89
626.01	29731.22
626.365	29591.11
626.72	29610.1
627.075	29488.07
627.43	29633.83
627.785	29474.51
628.14	29591.11
628.495	29562.87
628.85	29631.34
629.205	29409.2
629.559	29586.14
629.914	29432.7
630.269	29448.75
630.623	29410.1
630.978	29208.3
631.332	29498.91
631.687	29333.27
632.041	29410.33
632.396	29440.84
632.75	29310.9
633.104	29356.54
633.459	29143.67
633.813	29281.52
634.167	29170.56
634.521	29257.34
634.875	29199.94
635.229	28990.9
635.583	28996.1
635.937	28967.63
636.291	28898.03
636.645	28922.43
636.999	28764.92
637.352	28976.44
637.706	28798.82
638.06	28858.03
638.413	28805.15
638.767	28665.49
639.121	28681.53
639.474	28663.46
639.828	28535.55
640.181	28580.97
640.534	28571.03
640.888	28457.81
641.241	28319.28
641.594	28404.93
641.947	28583.23
642.301	28333.29
642.654	28422.33
643.007	28333.29
643.36	28493.52
643.713	28361.09
644.066	28432.73
644.419	28213.75
644.771	27959.52
645.124	27858.28
645.477	27824.38
645.83	27723.37
646.182	27735.57
646.535	27561.56
646.888	27674.33
647.24	27643.6
647.593	27792.29
647.945	27616.48
648.298	27658.96
648.65	27405.64
649.002	27175.13
649.355	27119.32
649.707	27028.02
650.059	27073.89
650.411	27320.44
650.763	27679.98
651.115	28063.02
651.467	28051.27
651.819	28025.73
652.171	27815.12
652.523	27758.85
652.875	27885.62
653.227	27870.48
653.578	27983.02
653.93	28028.67
654.282	27776.02
654.633	27679.3
654.985	27721.79
655.337	27917.94
655.688	27910.48
656.039	27856.24
656.391	27636.36
656.742	27738.96
657.094	27764.95
657.445	27873.19
657.796	27755.46
658.147	27750.94
658.498	27750.71
658.849	27958.16
659.2	27782.57
659.551	27776.7
659.902	27953.19
660.253	27824.16
660.604	27916.81
660.955	27827.09
661.306	27897.37
661.656	27917.49
662.007	27849.01
662.358	27861.67
662.708	27899.63
663.059	27904.15
663.409	27727.66
663.76	27956.36
664.11	27915.9
664.461	27986.64
664.811	27998.61
665.161	27915
665.511	27919.75
665.862	27843.14
666.212	27898.73
666.562	28019.63
666.912	27891.05
667.262	27868.67
667.612	27927.2
667.962	27933.98
668.312	27950.25
668.662	28076.8
669.011	27931.72
669.361	27855.57
669.711	28023.7
670.06	27839.97
670.41	27793.65
670.76	27961.55
671.109	28010.14
671.459	27784.16
671.808	27878.84
672.157	27915
672.507	27751.16
672.856	27713.88
673.205	27788.45
673.554	27885.62
673.904	27626.65
674.253	28008.56
674.602	27648.34
674.951	27427.56
675.3	27121.58
675.649	27693.54
675.998	27713.65
676.346	27695.35
676.695	27731.5
677.044	27570.38
677.393	27590.26
677.741	27656.48
678.09	27560.21
678.438	27497.16
678.787	27597.49
679.135	27601.34
679.484	27294.45
679.832	27433.88
680.181	27270.05
680.529	27237.5
680.877	27369.03
681.225	27236.37
681.573	27507.33
681.922	27231.63
682.27	27195.02
682.618	27166.77
682.966	27069.15
683.314	26995.7
683.661	27009.26
684.009	26894.24
684.357	26828.02
684.705	26789.61
685.053	26819.66
685.4	26485.43
685.748	26520.91
686.095	26506.22
686.443	26510.52
686.79	26462.38
687.138	26372.22
687.485	26262.16
687.832	26258.09
688.18	26266.68
688.527	26125.89
688.874	26080.7
689.221	26087.7
689.568	25945.33
689.915	25856.98
690.262	25908.5
690.609	25672.12
690.956	25666.92
691.303	25676.19
691.65	25492.01
691.997	25411.11
692.344	25323.43
692.69	25228.52
693.037	25182.87
693.383	24891.58
693.73	25056.09
694.077	24854.52
694.423	24828.3
694.769	24638.93
695.116	24771.81
695.462	24592.6
695.808	24428.76
696.155	24495.66
696.501	24304.02
696.847	24367.07
697.193	24050.92
697.539	24118.49
697.885	23950.13
698.231	23805.96
698.577	23792.85
698.923	23794.88
699.269	23600.76
699.614	23572.97
699.96	23442.12
700.306	23530.48
700.651	23316.25
700.997	23251.85
701.342	23134.79
701.688	23095.47
702.033	23054.11
702.379	22924.85
702.724	22781.58
703.069	22924.62
703.415	22593.11
703.76	22567.8
704.105	22643.5
704.45	22469.95
704.795	22458.87
705.14	22274.24
705.485	22191.54
705.83	22095.94
706.175	22262.04
706.52	22230.86
706.865	22027.25
707.209	21975.95
707.554	21946.57
707.899	21951.99
708.243	21819.34
708.588	21747.03
708.932	21823.64
709.277	21741.38
709.621	21622.06
709.966	21475.62
710.31	21524.89
710.654	21383.87
710.998	21390.43
711.342	21412.12
711.687	21353.37
712.031	21284.89
712.375	21216.42
712.719	21237.21
713.063	21170.77
713.407	21297.32
713.75	21098.46
714.094	21090.32
714.438	20970.1
714.782	20961.96
715.125	20908.63
715.469	21032.24
715.812	20922.87
716.156	20933.26
716.499	20905.02
716.843	20959.93
717.186	20801.74
717.53	20924.45
717.873	20963.77
718.216	20888.74
718.559	20843.32
718.902	20628.64
719.246	20719.03
719.589	20676.09
719.932	20636.55
720.275	20564.69
720.617	20761.52
720.96	20621.18
721.303	20632.93
721.646	20535.76
721.989	20548.41
722.331	20523.1
722.674	20488.76
723.016	20542.31
723.359	20432.49
723.701	20457.34
724.044	20397.68
724.386	20392.94
724.729	20564.23
725.071	20489.21
725.413	20411.69
725.755	20390.9
726.097	20386.84
726.439	20238.14
726.782	20289.66
727.124	20383
727.465	20377.35
727.807	20267.97
728.149	20294.86
728.491	20333.73
728.833	20373.96
729.175	20350.23
729.516	20386.16
729.858	20280.4
730.199	20403.33
730.541	20265.71
730.882	20405.37
731.224	20432.03
731.565	20290.79
731.906	20331.7
732.248	20417.12
732.589	20263.45
732.93	20371.02
733.271	20461.41
733.612	20390.9
733.953	20415.08
734.294	20401.98
734.635	20392.71
734.976	20615.31
735.317	20440.85
735.658	20462.99
735.999	20479.49
736.339	20467.74
736.68	20658.02
737.021	20581.86
737.361	20581.86
737.702	20740.73
738.042	20648.52
738.383	20655.3
738.723	20751.57
739.063	20729.43
739.404	20913.6
739.744	20685.81
740.084	20874.96
740.424	20949.76
740.764	21014.84
741.104	21081.73
741.444	21028.63
741.784	20998.8
742.124	21180.26
742.464	21225.46
742.804	21281.5
743.143	21288.96
743.483	21305.68
743.823	21350.88
744.162	21388.39
744.502	21516.3
744.841	21526.69
745.181	21694.15
745.52	21789.29
745.86	21879.68
746.199	21904.76
746.538	21972.11
746.877	22152.21
747.216	22167.13
747.556	22242.38
747.895	22435.37
748.234	22451.64
748.573	22657.51
748.911	22700.45
749.25	22747.45
749.589	22826.77
749.928	23089.59
750.267	23160.55
750.605	23194.45
750.944	23361.67
751.283	23549.24
751.621	23642.12
751.96	23664.72
752.298	23929.57
752.636	23982.22
752.975	24119.39
753.313	24189.9
753.651	24467.41
753.989	24502.89
754.327	24692.03
