Data from 18-4330_FLMS001491_006.txt Node
Date: Thu Apr 19 16:43:33 BST 2018
User: hsy
Spectrometer: FLMS00149
Trigger mode: 0
Integration Time (sec): 1.000000E-2
Scans to average: 10
Electric dark correction enabled: true
Nonlinearity correction enabled: false
Boxcar width: 0
XAxis mode: Wavelengths
Number of Pixels in Spectrum: 2048
>>>>>Begin Spectral Data<<<<<
341.393	-9.24
341.776	-9.24
342.16	-9.24
342.543	-57.15
342.927	-73.42
343.31	-68.44
343.693	-67.77
344.077	-67.99
344.46	-38.61
344.843	-66.64
345.226	-23.02
345.61	-41.78
345.993	-2.01
346.376	10.88
346.759	-2.46
347.142	42.74
347.525	28.95
347.908	57.2
348.291	64.89
348.674	79.8
349.057	94.26
349.44	123.87
349.823	134.04
350.206	188.05
350.588	202.51
350.971	248.16
351.354	247.25
351.737	263.3
352.119	280.02
352.502	287.93
352.884	306.91
353.267	322.96
353.65	341.94
354.032	330.87
354.414	353.92
354.797	349.4
355.179	344.88
355.562	363.41
355.944	364.76
356.326	370.19
356.709	375.16
357.091	363.63
357.473	367.48
357.855	383.52
358.238	390.07
358.62	379
359.002	386.46
359.384	357.76
359.766	354.82
360.148	379
360.53	370.41
360.912	365.67
361.294	360.92
361.676	366.12
362.057	375.39
362.439	371.09
362.821	373.58
363.203	373.58
363.584	375.16
363.966	393.24
364.348	375.16
364.729	366.57
365.111	357.53
365.493	371.32
365.874	331.77
366.256	341.94
366.637	359.11
367.019	372.67
367.4	377.65
367.781	363.18
368.163	335.16
368.544	367.25
368.925	334.93
369.306	339
369.688	367.48
370.069	361.83
370.45	372.67
370.831	335.61
371.212	355.05
371.593	371.09
371.974	358.89
372.355	350.98
372.736	381.26
373.117	369.74
373.498	345.33
373.879	362.73
374.26	353.92
374.641	364.99
375.021	393.24
375.402	378.1
375.783	365.67
376.163	391.88
376.544	388.27
376.925	385.55
377.305	385.33
377.686	379.45
378.066	397.53
378.447	398.44
378.827	404.76
379.208	394.37
379.588	404.99
379.968	387.59
380.349	393.46
380.729	397.31
381.109	415.16
381.489	389.17
381.87	417.87
382.25	438.89
382.63	395.05
383.01	420.13
383.39	424.65
383.77	426.46
384.15	417.42
384.53	446.12
384.91	436.4
385.29	440.24
385.67	433.69
386.049	453.12
386.429	442.73
386.809	463.74
387.189	457.87
387.568	448.38
387.948	468.49
388.328	481.37
388.707	464.2
389.087	491.31
389.466	471.43
389.846	482.05
390.225	467.13
390.605	463.52
390.984	498.55
391.363	497.19
391.743	502.84
392.122	500.13
392.501	484.54
392.881	513.24
393.26	508.49
393.639	499.22
394.018	513.24
394.397	503.52
394.776	548.94
395.155	512.33
395.534	530.86
395.913	529.96
396.292	549.84
396.671	550.07
397.05	530.18
397.429	562.5
397.808	551.43
398.186	557.98
398.565	562.95
398.944	570.63
399.323	577.87
399.701	558.88
400.08	583.52
400.458	601.82
400.837	593.91
401.215	594.36
401.594	617.19
401.972	619.45
402.351	617.41
402.729	634.59
403.107	645.44
403.486	656.73
403.864	655.15
404.242	650.86
404.62	659.9
404.999	676.85
405.377	688.15
405.755	677.07
406.133	701.48
406.511	697.64
406.889	711.42
407.267	735.6
407.645	704.19
408.023	734.92
408.401	769.05
408.779	766.11
409.156	769.5
409.534	779.67
409.912	803.62
410.29	810.18
410.667	841.14
411.045	867.12
411.422	850.4
411.8	855.15
412.178	883.39
412.555	876.39
412.933	910.29
413.31	897.63
413.687	914.58
414.065	921.59
414.442	983.28
414.819	962.26
415.197	968.14
415.574	1007.23
415.951	1006.78
416.328	1005.2
416.705	1017.4
417.082	998.87
417.46	1037.97
417.837	1052.43
418.214	1027.8
418.591	1064.86
418.967	1085.2
419.344	1122.03
419.721	1107.8
420.098	1113.22
420.475	1091.98
420.852	1138.76
421.228	1182.82
421.605	1145.53
421.982	1165.87
422.358	1184.18
422.735	1182.6
423.111	1219.21
423.488	1233.44
423.864	1239.32
424.241	1272.54
424.617	1279.09
424.994	1327.22
425.37	1292.42
425.746	1335.36
426.123	1342.14
426.499	1338.3
426.875	1344.4
427.251	1411.74
427.627	1418.07
428.003	1456.26
428.379	1470.72
428.756	1486.77
429.132	1499.42
429.507	1491.06
429.883	1513.89
430.259	1550.72
430.635	1578.74
431.011	1579.2
431.387	1601.79
431.763	1642.47
432.138	1695.12
432.514	1687.22
432.89	1685.86
433.265	1725.86
433.641	1771.28
434.016	1780.09
434.392	1828.23
434.767	1858.28
435.143	1886.08
435.518	1893.31
435.894	1918.4
436.269	1944.61
436.644	1968.11
437.02	1993.2
437.395	2010.6
437.77	2047.43
438.145	2091.72
438.52	2100.54
438.895	2133.31
439.271	2138.96
439.646	2192.51
440.021	2231.38
440.395	2204.49
440.77	2211.95
441.145	2223.25
441.52	2315
441.895	2295.56
442.27	2326.52
442.645	2322
443.019	2372.17
443.394	2376.24
443.769	2413.98
444.143	2398.16
444.518	2441.32
444.892	2419.63
445.267	2476.57
445.641	2491.26
446.016	2544.82
446.39	2516.12
446.764	2559.96
447.139	2548.21
447.513	2563.8
447.887	2558.38
448.262	2589.79
448.636	2664.36
449.01	2684.25
449.384	2702.33
449.758	2727.87
450.132	2785.94
450.506	2751.82
450.88	2785.27
451.254	2768.54
451.628	2850.12
452.002	2872.95
452.376	2895.09
452.75	2931.02
453.123	2961.53
453.497	2981.87
453.871	3027.97
454.244	3129.44
454.618	3115.65
454.992	3143
455.365	3188.87
455.739	3295.53
456.112	3297.34
456.486	3304.8
456.859	3329.88
457.232	3433.38
457.606	3430.45
457.979	3474.97
458.352	3543.44
458.725	3620.5
459.099	3643.77
459.472	3655.3
459.845	3725.81
460.218	3805.13
460.591	3783.88
460.964	3887.38
461.337	3941.62
461.71	3988.17
462.083	4038.57
462.456	4046.25
462.829	4051
463.201	4134.38
463.574	4142.07
463.947	4208.73
464.32	4246.02
464.692	4314.72
465.065	4353.81
465.438	4450.53
465.81	4465.9
466.183	4483.98
466.555	4602.17
466.928	4619.34
467.3	4608.95
467.672	4708.38
468.045	4807.13
468.417	4793.57
468.789	4856.62
469.161	4979.56
469.534	4944.08
469.906	5051.19
470.278	5128.25
470.65	5179.33
471.022	5268.14
471.394	5373.45
471.766	5366.21
472.138	5451.18
472.51	5603.95
472.882	5655.92
473.253	5736.37
473.625	5723.04
473.997	5896.6
474.369	5892.75
474.74	5959.42
475.112	6066.99
475.484	6131.17
475.855	6260.65
476.227	6293.87
476.598	6480.54
476.97	6520.53
477.341	6705.61
477.713	6705.39
478.084	6808.21
478.455	7029.9
478.827	7009.79
479.198	7192.16
479.569	7280.06
479.94	7477.12
480.311	7525.71
480.682	7659.04
481.053	7865.58
481.424	7962.76
481.795	8051.12
482.166	8138.8
482.537	8264.22
482.908	8406.13
483.279	8485.68
483.65	8760.7
484.021	8856.52
484.391	9009.96
484.762	9018.55
485.133	9160.47
485.503	9333.12
485.874	9528.14
486.244	9569.72
486.615	9770.39
486.985	9891.52
487.356	10081.35
487.726	10112.53
488.097	10354.56
488.467	10331.51
488.837	10609.69
489.207	10705.96
489.578	10918.61
489.948	11022.79
490.318	11214.42
490.688	11189.79
491.058	11414.64
491.428	11473.85
491.798	11603.56
492.168	11849.43
492.538	11872.71
492.908	12084.91
493.278	12187.05
493.648	12246.03
494.017	12424.33
494.387	12560.38
494.757	12645.8
495.126	12787.94
495.496	12850.31
495.866	12904.55
496.235	13077.42
496.605	13187.7
496.974	13212.79
497.344	13279.91
497.713	13450.97
498.082	13460.01
498.452	13596.51
498.821	13741.59
499.19	13756.5
499.559	13922.37
499.928	13981.81
500.298	14056.16
500.667	14163.95
501.036	14131.18
501.405	14360.33
501.774	14343.61
502.143	14439.87
502.512	14462.02
502.88	14631.28
503.249	14661.11
503.618	14657.04
503.987	14763.71
504.356	14848.68
504.724	14971.16
505.093	15024.72
505.462	15009.8
505.83	15094.55
506.199	15209.57
506.567	15367.99
506.936	15393.97
507.304	15471.71
507.672	15502.9
508.041	15623.35
508.409	15638.94
508.777	15704.7
509.145	15836.67
509.514	15888.42
509.882	16021.53
510.25	16000.06
510.618	16071.92
510.986	16124.58
511.354	16294.97
511.722	16382.65
512.09	16518.46
512.458	16534.73
512.826	16621.06
513.193	16705.8
513.561	16771.34
513.929	16835.29
514.297	16980.37
514.664	16975.18
515.032	16995.06
515.4	17161.61
515.767	17221.04
516.135	17211.55
516.502	17135.4
516.869	17461.49
517.237	17546.23
517.604	17401.6
517.972	17562.5
518.339	17644.54
518.706	17820.58
519.073	17677.3
519.44	17791.42
519.808	18016.5
520.175	18054.47
520.542	18141.7
520.909	18238.87
521.276	18221.7
521.643	18466.66
522.009	18432.54
522.376	18579.2
522.743	18609.26
523.11	18818.74
523.477	18938.74
523.843	18912.98
524.21	19190.03
524.577	19189.58
524.943	19248.34
525.31	19350.25
525.676	19561.55
526.043	19602.45
526.409	19696.46
526.776	19774.88
527.142	19762.22
527.508	19927.19
527.874	20121.31
528.241	20023.68
528.607	20126.5
528.973	20341.64
529.339	20238.59
529.705	20466.83
530.071	20533.5
530.437	20611.92
530.803	20646.04
531.169	20774.85
531.535	20729.2
531.901	20821.18
532.267	20714.29
532.632	20944.11
532.998	20945.47
533.364	21015.75
533.73	21037.67
534.095	21127.38
534.461	21104.56
534.826	21265.46
535.192	21215.06
535.557	21294.16
535.923	21188.85
536.288	21217.32
536.653	21239.7
537.019	21190.21
537.384	21270.66
537.749	21192.69
538.114	21233.14
538.479	21148.4
538.845	21267.49
539.21	21125.35
539.575	21186.14
539.94	21231.79
540.305	21301.62
540.67	21227.72
541.034	21176.87
541.399	21199.47
541.764	21187.72
542.129	21219.13
542.494	21179.36
542.858	21247.83
543.223	21090.1
543.587	21261.16
543.952	21117.44
544.316	21152.01
544.681	21021.17
545.045	21065.24
545.41	21051.68
545.774	21008.29
546.138	20988.85
546.503	21078.57
546.867	20880.61
547.231	21033.37
547.595	21026.59
547.959	20890.33
548.324	20862.3
548.688	20880.84
549.052	20918.57
549.416	20844.68
549.779	20731.46
550.143	20787.5
550.507	20884.68
550.871	20795.87
551.235	20756.32
551.599	20802.65
551.962	20817.79
552.326	20909.76
552.689	20793.61
553.053	20689.88
553.417	20681.97
553.78	20735.98
554.143	20753.38
554.507	20773.04
554.87	20633.84
555.234	20804.68
555.597	20605.14
555.96	20652.37
556.323	20782.98
556.686	20627.96
557.05	20761.74
557.413	20650.78
557.776	20623.89
558.139	20809.42
558.502	20768.97
558.865	20660.95
559.228	20853.27
559.59	20751.8
559.953	20675.42
560.316	20942.98
560.679	20943.66
561.041	20838.8
561.404	20986.6
561.767	21029.31
562.129	20991.34
562.492	21142.75
562.854	21082.86
563.217	21051
563.579	21140.04
563.941	21172.35
564.304	21250.09
564.666	21399.47
565.028	21349.98
565.39	21356.08
565.753	21448.96
566.115	21366.47
566.477	21598.33
566.839	21647.37
567.201	21691.66
567.563	21680.81
567.925	21804.65
568.287	21780.02
568.648	21879.45
569.01	22079.22
569.372	22167.81
569.734	22064.76
570.095	22205.32
570.457	22341.81
570.819	22283.06
571.18	22305.43
571.542	22489.83
571.903	22508.36
572.265	22631.07
572.626	22662.48
572.987	22714.01
573.349	22733.22
573.71	22830.84
574.071	22885.53
574.432	23110.38
574.794	23165.07
575.155	23139.53
575.516	23204.62
575.877	23313.77
576.238	23337.49
576.599	23383.59
576.96	23391.28
577.32	23438.51
577.681	23451.62
578.042	23603.93
578.403	23544.72
578.763	23654.55
579.124	23600.54
579.485	23840.53
579.845	23798.5
580.206	23716.69
580.566	23702.91
580.927	23723.7
581.287	23906.29
581.648	23875.33
582.008	23992.84
582.368	23915.11
582.728	24012.28
583.089	23932.51
583.449	23983.8
583.809	23962.34
584.169	24019.28
584.529	23975.9
584.889	24181.31
585.249	23947.65
585.609	23874.43
585.969	24003.69
586.329	23939.29
586.688	23932.05
587.048	24004.14
587.408	23940.42
587.768	23888.44
588.127	23943.35
588.487	23944.48
588.846	24100.41
589.206	23927.76
589.565	23905.61
589.925	23994.2
590.284	23953.07
590.643	23900.87
591.003	23941.32
591.362	23997.59
591.721	23941.77
592.08	23942.45
592.44	23913.75
592.799	23915.56
593.158	23991.04
593.517	23851.38
593.876	23960.53
594.235	24014.54
594.593	23886.63
594.952	23900.87
595.311	23883.02
595.67	23962.11
596.029	23978.83
596.387	24012.05
596.746	23979.51
597.104	23938.61
597.463	23867.42
597.822	23896.8
598.18	23899.96
598.538	23854.54
598.897	23971.83
599.255	23766.41
599.613	24094.08
599.972	24042.56
600.33	23967.53
600.688	23928.44
601.046	23916.91
601.404	23882.34
601.762	24006.85
602.12	24073.07
602.478	23985.39
602.836	23949.68
603.194	23871.04
603.552	24054.99
603.91	23937.7
604.268	23977.93
604.625	24023.58
604.983	24070.36
605.341	23838.95
605.698	24022
606.056	24189.45
606.413	23969.79
606.771	24163.91
607.128	24078.72
607.485	23952.39
607.843	24156
608.2	24158.04
608.557	24121.65
608.914	24150.81
609.272	24170.01
609.629	24320.07
609.986	24428.54
610.343	24291.82
610.7	24472.38
611.057	24322.1
611.414	24379.05
611.771	24458.37
612.127	24486.39
612.484	24527.97
612.841	24598.03
613.198	24475.09
613.554	24434.87
613.911	24586.73
614.267	24700.17
614.624	24606.84
614.98	24671.92
615.337	24845.7
615.693	24760.28
616.05	24751.69
616.406	24964.12
616.762	24755.31
617.118	24804.57
617.475	24929.54
617.831	24984.91
618.187	25004.79
618.543	24895.64
618.899	25082.08
619.255	25082.31
619.611	25047.96
619.967	25168.86
620.323	25286.37
620.678	25195.3
621.034	25065.58
621.39	25083.21
621.746	25179.03
622.101	25406.37
622.457	25207.73
622.812	25211.79
623.168	25287.5
623.523	25322.07
623.879	25290.89
624.234	25316.88
624.589	25300.15
624.945	25311
625.3	25332.47
625.655	25316.42
626.01	25337.67
626.365	25315.52
626.72	25385.12
627.075	25310.78
627.43	25346.71
627.785	25334.96
628.14	25219.93
628.495	25357.55
628.85	25371.34
629.205	25224.9
629.559	25388.29
629.914	25195.75
630.269	25329.76
630.623	25126.37
630.978	25206.6
631.332	25250.89
631.687	25191.23
632.041	25260.38
632.396	25150.33
632.75	25062.19
633.104	25148.97
633.459	24964.34
633.813	25117.11
634.167	25020.16
634.521	25047.96
634.875	24936.55
635.229	24883.89
635.583	24853.16
635.937	24882.54
636.291	24929.54
636.645	24830.34
636.999	24601.87
637.352	24828.75
637.706	24659.04
638.06	24744.69
638.413	24614.3
638.767	24599.61
639.121	24691.58
639.474	24582.66
639.828	24649.78
640.181	24502.66
640.534	24583.11
640.888	24525.26
641.241	24319.61
641.594	24450.23
641.947	24549.89
642.301	24466.28
642.654	24407.75
643.007	24422.66
643.36	24470.8
643.713	24384.7
644.066	24399.84
644.419	24271.25
644.771	24069.45
645.124	23848.44
645.477	23928.89
645.83	23897.25
646.182	23827.88
646.535	23873.52
646.888	23821.55
647.24	23735.9
647.593	23859.29
647.945	23818.61
648.298	23761.66
648.65	23656.58
649.002	23488.68
649.355	23481.9
649.707	23295.46
650.059	23424.72
650.411	23741.78
650.763	23869.46
651.115	24360.97
651.467	24200.07
651.819	24227.41
652.171	24041.2
652.523	24089.11
652.875	24144.93
653.227	24180.86
653.578	24276
653.93	24250.01
654.282	24142.44
654.633	24162.33
654.985	24174.08
655.337	24226.06
655.688	24049.79
656.039	24398.48
656.391	24124.37
656.742	24040.07
657.094	24065.84
657.445	24110.13
657.796	24228.77
658.147	24212.27
658.498	24326.17
658.849	24199.84
659.2	24294.08
659.551	24229
659.902	24337.24
660.253	24316
660.604	24379.27
660.955	24306.28
661.306	24384.7
661.656	24367.52
662.007	24528.2
662.358	24403.23
662.708	24436
663.059	24404.36
663.409	24269.22
663.76	24570
664.11	24553.96
664.461	24595.31
664.811	24554.41
665.161	24545.15
665.511	24394.19
665.862	24523.23
666.212	24566.16
666.562	24649.78
666.912	24558.48
667.262	24515.99
667.612	24531.81
667.962	24685.25
668.312	24596.22
668.662	24745.82
669.011	24700.4
669.361	24606.39
669.711	24658.36
670.06	24609.55
670.41	24606.16
670.76	24545.82
671.109	24729.1
671.459	24601.19
671.808	24459.5
672.157	24657.68
672.507	24527.07
672.856	24512.15
673.205	24506.5
673.554	24527.74
673.904	24447.97
674.253	24526.16
674.602	24444.13
674.951	24160.75
675.3	23964.6
675.649	24394.64
675.998	24466.96
676.346	24429.89
676.695	24342.67
677.044	24327.75
677.393	24255.89
677.741	24300.86
678.09	24331.82
678.438	24127.76
678.787	24268.54
679.135	24299.95
679.484	24123.69
679.832	24188.77
680.181	24147.64
680.529	23999.17
680.877	23937.7
681.225	23987.42
681.573	24055.44
681.922	23889.8
682.27	23795.56
682.618	23803.92
682.966	23833.75
683.314	23881.21
683.661	23732.51
684.009	23579.3
684.357	23572.74
684.705	23494.1
685.053	23578.62
685.4	23313.99
685.748	23368.45
686.095	23350.15
686.443	23154.45
686.79	23157.16
687.138	23222.47
687.485	23126.43
687.832	23113.54
688.18	23000.78
688.527	22971.85
688.874	22852.08
689.221	22899.99
689.568	22699.54
689.915	22566.89
690.262	22619.77
690.609	22481.7
690.956	22394.24
691.303	22381.36
691.65	22348.37
691.997	22215.72
692.344	22095.49
692.69	22027.7
693.037	22010.97
693.383	21945.67
693.73	21893.46
694.077	21760.36
694.423	21640.82
694.769	21610.53
695.116	21565.11
695.462	21421.16
695.808	21388.62
696.155	21340.94
696.501	21227.27
696.847	21201.73
697.193	20994.5
697.539	20990.21
697.885	20841.51
698.231	20826.6
698.577	20795.41
698.923	20742.31
699.269	20605.14
699.614	20411.24
699.96	20312.04
700.306	20215.32
700.651	20130.12
700.997	20139.84
701.342	19957.92
701.688	19995.66
702.033	19882.22
702.379	19986.85
702.724	19818.72
703.069	19726.97
703.415	19618.04
703.76	19572.39
704.105	19565.16
704.45	19466.41
704.795	19378.73
705.14	19247.66
705.485	19223.48
705.83	19057.38
706.175	19225.29
706.52	19136.02
706.865	18978.96
707.209	19011.05
707.554	18940.1
707.899	18965.18
708.243	18777.84
708.588	18781.91
708.932	18707.11
709.277	18766.77
709.621	18663.49
709.966	18605.19
710.31	18604.06
710.654	18371.3
710.998	18447.45
711.342	18534.23
711.687	18374.23
712.031	18288.13
712.375	18242.49
712.719	18187.35
713.063	18216.72
713.407	18287.91
713.75	18139.44
714.094	18104.18
714.438	18140.79
714.782	18064.19
715.125	17988.03
715.469	18198.65
715.812	17996.84
716.156	17987.8
716.499	17953
716.843	18016.96
717.186	17936.28
717.53	17997.07
717.873	18044.75
718.216	17929.27
718.559	17912.33
718.902	17705.55
719.246	17773.8
719.589	17921.14
719.932	17678.43
720.275	17821.71
720.617	17870.29
720.96	17710.07
721.303	17736.51
721.646	17807.02
721.989	17719.56
722.331	17774.25
722.674	17824.64
723.016	17818.77
723.359	17784.87
723.701	17762.05
724.044	17795.04
724.386	17715.95
724.729	17859.45
725.071	17877.75
725.413	17797.3
725.755	17769.73
726.097	17710.97
726.439	17740.8
726.782	17651.99
727.124	17809.05
727.465	17830.97
727.807	17817.86
728.149	17879.11
728.491	17695.83
728.833	17840.69
729.175	17907.81
729.516	17797.07
729.858	17859.22
730.199	17835.94
730.541	17809.5
730.882	17807.7
731.224	17936.51
731.565	17875.94
731.906	17899.9
732.248	17995.71
732.589	17919.11
732.93	18002.72
733.271	17982.61
733.612	18052.89
733.953	18120.23
734.294	18120
734.635	18059.67
734.976	18225.76
735.317	18236.84
735.658	18220.11
735.999	18260.79
736.339	18252.43
736.68	18401.58
737.021	18441.13
737.361	18413.1
737.702	18637.73
738.042	18589.14
738.383	18621.46
738.723	18783.04
739.063	18726.77
739.404	18834.79
739.744	18880.89
740.084	18873.43
740.424	18994.11
740.764	19070.26
741.104	19231.16
741.444	19290.82
741.784	19240.65
742.124	19404.72
742.464	19447.88
742.804	19520.64
743.143	19673.64
743.483	19775.55
743.823	19808.55
744.162	19890.8
744.502	20192.94
744.841	20082.44
745.181	20241.08
745.52	20326.95
745.86	20579.37
746.199	20768.52
746.538	20837.67
746.877	21036.76
747.216	21099.36
747.556	21281.95
747.895	21400.37
748.234	21575.96
748.573	21668.84
748.911	21756.07
749.25	22008.94
749.589	22088.04
749.928	22433.11
750.267	22714.69
750.605	22760.56
750.944	22972.53
751.283	23160.1
751.621	23481.67
751.96	23569.35
752.298	23726.86
752.636	23980.41
752.975	24178.6
753.313	24405.49
753.651	24800.73
753.989	24917.34
754.327	25127.5
