Data from 18-4330_FLMS001491_004.txt Node
Date: Thu Apr 19 16:43:27 BST 2018
User: hsy
Spectrometer: FLMS00149
Trigger mode: 0
Integration Time (sec): 1.000000E-2
Scans to average: 10
Electric dark correction enabled: true
Nonlinearity correction enabled: false
Boxcar width: 0
XAxis mode: Wavelengths
Number of Pixels in Spectrum: 2048
>>>>>Begin Spectral Data<<<<<
341.393	-32.06
341.776	-32.06
342.16	-32.06
342.543	-66.86
342.927	-48.33
343.31	-73.42
343.693	-73.64
344.077	-73.64
344.46	-70.25
344.843	-65.28
345.226	-39.52
345.61	-30.25
345.993	-2.46
346.376	4.77
346.759	21.04
347.142	27.15
347.525	49.74
347.908	40.93
348.291	77.31
348.674	77.99
349.057	129.52
349.44	131.32
349.823	159.57
350.206	161.38
350.588	224.88
350.971	244.99
351.354	248.61
351.737	275.28
352.119	272.11
352.502	291.09
352.884	294.26
353.267	307.14
353.65	340.13
354.032	337.87
354.414	349.85
354.797	361.6
355.179	374.93
355.562	369.51
355.944	356.86
356.326	376.06
356.709	378.32
357.091	383.52
357.473	367.02
357.855	366.8
358.238	379.91
358.62	398.89
359.002	372.45
359.384	371.09
359.766	372.9
360.148	382.62
360.53	369.74
360.912	375.61
361.294	362.5
361.676	369.96
362.057	355.05
362.439	369.96
362.821	338.78
363.203	382.62
363.584	353.47
363.966	380.36
364.348	372.22
364.729	341.04
365.111	361.83
365.493	368.83
365.874	362.5
366.256	353.69
366.637	369.74
367.019	373.13
367.4	370.41
367.781	356.4
368.163	357.76
368.544	346.46
368.925	362.96
369.306	376.06
369.688	375.39
370.069	342.84
370.45	369.96
370.831	351.43
371.212	357.08
371.593	358.89
371.974	348.27
372.355	368.83
372.736	358.89
373.117	383.07
373.498	383.3
373.879	367.7
374.26	347.36
374.641	360.24
375.021	359.79
375.402	390.3
375.783	364.31
376.163	393.46
376.544	387.36
376.925	392.33
377.305	374.03
377.686	386.68
378.066	408.15
378.447	404.76
378.827	393.92
379.208	386.46
379.588	379.45
379.968	400.7
380.349	400.02
380.729	405.89
381.109	403.63
381.489	419.9
381.87	417.64
382.25	386.23
382.63	419.45
383.01	415.84
383.39	417.42
383.77	410.86
384.15	408.15
384.53	426.01
384.91	439.56
385.29	430.3
385.67	433.46
386.049	450.86
386.429	437.98
386.809	446.12
387.189	451.09
387.568	466
387.948	461.03
388.328	478.21
388.707	455.16
389.087	472.56
389.466	455.84
389.846	461.03
390.225	484.54
390.605	493.35
390.984	483.63
391.363	496.29
391.743	507.13
392.122	526.57
392.501	497.64
392.881	499.9
393.26	522.73
393.639	512.56
394.018	539.9
394.397	555.95
394.776	542.84
395.155	549.62
395.534	532.22
395.913	556.4
396.292	559.11
396.671	562.73
397.05	560.47
397.429	549.84
397.808	548.94
398.186	579.45
398.565	590.52
398.944	544.65
399.323	591.65
399.701	583.52
400.08	588.26
400.458	602.5
400.837	630.97
401.215	611.99
401.594	620.35
401.972	622.84
402.351	627.58
402.729	632.1
403.107	660.8
403.486	647.92
403.864	657.86
404.242	671.2
404.62	658.09
404.999	675.04
405.377	679.78
405.755	707.58
406.133	693.57
406.511	711.87
406.889	724.08
407.267	727.47
407.645	735.83
408.023	751.42
408.401	760.46
408.779	765.66
409.156	759.33
409.534	797.52
409.912	805.66
410.29	821.25
410.667	828.26
411.045	828.03
411.422	852.89
411.8	872.77
412.178	866.45
412.555	917.07
412.933	911.87
413.31	927.91
413.687	917.07
414.065	971.08
414.442	980.34
414.819	963.62
415.197	958.42
415.574	988.48
415.951	987.12
416.328	1013.11
416.705	1036.39
417.082	1052.66
417.46	1022.6
417.837	1064.86
418.214	1053.79
418.591	1083.39
418.967	1082.49
419.344	1080.9
419.721	1098.76
420.098	1138.76
420.475	1142.6
420.852	1149.38
421.228	1186.66
421.605	1176.04
421.982	1186.89
422.358	1195.93
422.735	1216.27
423.111	1234.35
423.488	1223.05
423.864	1238.87
424.241	1288.58
424.617	1293.55
424.994	1336.94
425.37	1308.92
425.746	1329.71
426.123	1383.95
426.499	1386.88
426.875	1381.46
427.251	1429.6
427.627	1443.15
428.003	1451.74
428.379	1482.7
428.756	1489.03
429.132	1510.5
429.507	1542.59
429.883	1562.02
430.259	1581
430.635	1597.5
431.011	1575.58
431.387	1636.6
431.763	1679.53
432.138	1683.15
432.514	1715.24
432.89	1726.54
433.265	1743.71
433.641	1820.09
434.016	1793.88
434.392	1865.29
434.767	1926.08
435.143	1836.14
435.518	1935.34
435.894	1948.23
436.269	1997.94
436.644	2018.73
437.02	2011.5
437.395	2050.6
437.77	2068
438.145	2099.18
438.52	2126.98
438.895	2145.28
439.271	2173.08
439.646	2225.51
440.021	2223.92
440.395	2255.34
440.77	2239.07
441.145	2284.26
441.52	2330.36
441.895	2324.03
442.27	2373.75
442.645	2357.48
443.019	2394.77
443.394	2412.85
443.769	2418.5
444.143	2427.99
444.518	2476.8
444.892	2465.27
445.267	2507.08
445.641	2511.83
446.016	2546.85
446.39	2576.68
446.764	2590.69
447.139	2574.42
447.513	2614.42
447.887	2634.08
448.262	2620.07
448.636	2704.14
449.01	2703.23
449.384	2722.44
449.758	2746.17
450.132	2773.29
450.506	2801.76
450.88	2830.24
451.254	2828.65
451.628	2868.88
452.002	2964.92
452.376	2971.48
452.75	2969.67
453.123	2990.91
453.497	3067.07
453.871	3075.43
454.244	3135.99
454.618	3162.88
454.992	3239.94
455.365	3206.72
455.739	3331.24
456.112	3331.92
456.486	3377.11
456.859	3426.6
457.232	3481.97
457.606	3500.28
457.979	3567.39
458.352	3592.7
458.725	3626.83
459.099	3634.28
459.472	3759.7
459.845	3779.59
460.218	3796.09
460.591	3880.6
460.964	3858.01
461.337	3973.48
461.71	4005.12
462.083	4086.25
462.456	4082.63
462.829	4112.91
463.201	4221.39
463.574	4184.55
463.947	4243.76
464.32	4352.68
464.692	4412.57
465.065	4363.76
465.438	4505.67
465.81	4531.66
466.183	4546.58
466.555	4673.35
466.928	4714.93
467.3	4690.07
467.672	4776.17
468.045	4852.78
468.417	4908.83
468.789	4932.1
469.161	5001.7
469.534	5068.6
469.906	5137.29
470.278	5176.39
470.65	5240.79
471.022	5348.36
471.394	5443.05
471.766	5452.31
472.138	5553.55
472.51	5703.16
472.882	5754.23
473.253	5783.6
473.625	5875.35
473.997	5985.63
474.369	5997.38
474.74	6081.68
475.112	6218.85
475.484	6275.34
475.855	6377.04
476.227	6452.29
476.598	6642.57
476.97	6680.53
477.341	6765.73
477.713	6833.97
478.084	6936.34
478.455	7086.62
478.827	7159.61
479.198	7326.84
479.569	7338.14
479.94	7591.69
480.311	7599.83
480.682	7762.76
481.053	8048.63
481.424	8070.32
481.795	8209.98
482.166	8279.13
482.537	8435.96
482.908	8589.86
483.279	8721.61
483.65	8875.28
484.021	9023.75
484.391	9143.97
484.762	9188.26
485.133	9306.68
485.503	9449.5
485.874	9654.24
486.244	9656.27
486.615	9894.01
486.985	10077.73
487.356	10146.65
487.726	10266.65
488.097	10471.17
488.467	10606.76
488.837	10821.21
489.207	10865.73
489.578	11062.79
489.948	11182.33
490.318	11356.57
490.688	11385.04
491.058	11561.08
491.428	11754.75
491.798	11774.63
492.168	12039.49
492.538	12156.77
492.908	12296.43
493.278	12408.29
493.648	12520.83
494.017	12628.85
494.387	12747.49
494.757	12852.8
495.126	12940.7
495.496	13103.41
495.866	13147.93
496.235	13296.18
496.605	13370.07
496.974	13463.63
497.344	13566.23
497.713	13615.94
498.082	13805.77
498.452	13857.29
498.821	14066.1
499.19	13951.75
499.559	14168.7
499.928	14252.76
500.298	14321.69
500.667	14398.97
501.036	14447.33
501.405	14519.87
501.774	14624.5
502.143	14610.94
502.512	14758.28
502.88	14831.95
503.249	14885.51
503.618	14982.91
503.987	15011.16
504.356	15057.49
504.724	15208.22
505.093	15225.62
505.462	15323.24
505.83	15360.98
506.199	15497.93
506.567	15565.27
506.936	15513.74
507.304	15848.2
507.672	15808.88
508.041	15887.52
508.409	15958.25
508.777	16134.52
509.145	16185.14
509.514	16167.96
509.882	16228.75
510.25	16243.22
510.618	16363.67
510.986	16433.49
511.354	16529.99
511.722	16644.56
512.09	16759.59
512.458	16732.92
512.826	16838.23
513.193	16896.99
513.561	16969.07
513.929	17073.03
514.297	17127.94
514.664	17299.69
515.032	17349.18
515.4	17429.63
515.767	17437.76
516.135	17598.21
516.502	17434.82
516.869	17719.56
517.237	17727.7
517.604	17661.03
517.972	17900.8
518.339	17985.77
518.706	18037.52
519.073	18000.91
519.44	18134.92
519.808	18280.45
520.175	18219.89
520.542	18386.89
520.909	18511.86
521.276	18514.34
521.643	18755.47
522.009	18792.98
522.376	18859.65
522.743	18915.92
523.11	19153.42
523.477	19212.86
523.843	19304.15
524.21	19417.82
524.577	19498.95
524.943	19591.15
525.31	19658.49
525.676	19811.26
526.043	19897.81
526.409	19981.42
526.776	20102.1
527.142	20126.73
527.508	20168.54
527.874	20415.54
528.241	20354.97
528.607	20381.64
528.973	20597.45
529.339	20592.71
529.705	20740.95
530.071	20818.46
530.437	20848.75
530.803	20828.41
531.169	21050.1
531.535	20922.19
531.901	21003.77
532.267	21073.82
532.632	21147.04
532.998	21097.33
533.364	21231.79
533.73	21191.79
534.095	21368.73
534.461	21244.44
534.826	21306.81
535.192	21344.78
535.557	21482.85
535.923	21495.28
536.288	21505
536.653	21472.68
537.019	21395.85
537.384	21473.81
537.749	21452.12
538.114	21421.84
538.479	21399.01
538.845	21483.98
539.21	21399.47
539.575	21359.69
539.94	21419.13
540.305	21548.16
540.67	21367.83
541.034	21365.34
541.399	21432.46
541.764	21441.72
542.129	21385.45
542.494	21287.6
542.858	21367.83
543.223	21187.27
543.587	21267.49
543.952	21164.67
544.316	21219.58
544.681	21121.51
545.045	21280.37
545.41	21202.18
545.774	21237.66
546.138	21083.99
546.503	21136.87
546.867	21055.97
547.231	21065.92
547.595	21005.13
547.959	21079.47
548.324	21055.29
548.688	20961.74
549.052	21076.99
549.416	20897.11
549.779	20921.29
550.143	20912.25
550.507	20933.94
550.871	20876.99
551.235	20825.47
551.599	20890.1
551.962	20885.58
552.326	20840.38
552.689	20842.87
553.053	20645.36
553.417	20662.76
553.78	20832.02
554.143	20692.59
554.507	20747.28
554.87	20740.27
555.234	20817.56
555.597	20743.21
555.96	20744.34
556.323	20718.35
556.686	20671.12
557.05	20762.65
557.413	20719.94
557.776	20656.89
558.139	20738.69
558.502	20661.86
558.865	20734.4
559.228	20845.13
559.59	20739.82
559.953	20609.2
560.316	20874.51
560.679	20711.12
561.041	20892.36
561.404	20923.32
561.767	21041.73
562.129	20871.57
562.492	21061.62
562.854	21035.86
563.217	20930.33
563.579	21078.8
563.941	21091.9
564.304	21241.73
564.666	21325.8
565.028	21202.86
565.39	21271.11
565.753	21290.99
566.115	21388.39
566.477	21481.27
566.839	21418.45
567.201	21697.76
567.563	21520.14
567.925	21860.24
568.287	21770.3
568.648	21770.98
569.01	21949.51
569.372	22138.2
569.734	21960.35
570.095	22081.71
570.457	22225.43
570.819	22260.23
571.18	22177.07
571.542	22410.74
571.903	22235.38
572.265	22491.19
572.626	22564.63
572.987	22614.8
573.349	22705.87
573.71	22802.59
574.071	22888.24
574.432	22940.44
574.794	23075.58
575.155	23055.92
575.516	23077.84
575.877	23169.36
576.238	23169.36
576.599	23186.76
576.96	23300.88
577.32	23303.37
577.681	23324.16
578.042	23547.66
578.403	23415.91
578.763	23558.96
579.124	23562.8
579.485	23544.72
579.845	23688.44
580.206	23542.91
580.566	23676.92
580.927	23767.76
581.287	23685.28
581.648	23661.1
582.008	23796.01
582.368	23705.62
582.728	23773.41
583.089	23774.77
583.449	23690.25
583.809	23884.37
584.169	23792.85
584.529	23784.71
584.889	23872.39
585.249	23682.34
585.609	23765.73
585.969	23862.45
586.329	23651.84
586.688	23797.59
587.048	23708.56
587.408	23716.01
587.768	23688.67
588.127	23736.35
588.487	23631.72
588.846	23856.35
589.206	23620.2
589.565	23707.88
589.925	23896.58
590.284	23758.95
590.643	23721.66
591.003	23717.37
591.362	23950.13
591.721	23785.39
592.08	23643.7
592.44	23809.57
592.799	23827.88
593.158	23622.23
593.517	23559.18
593.876	23725.05
594.235	23659.75
594.593	23655.68
594.952	23648.45
595.311	23537.49
595.67	23752.62
596.029	23764.6
596.387	23733.42
596.746	23702.46
597.104	23575.91
597.463	23577.04
597.822	23664.49
598.18	23581.78
598.538	23590.59
598.897	23731.61
599.255	23594.44
599.613	23869.23
599.972	23661.78
600.33	23663.13
600.688	23691.16
601.046	23645.73
601.404	23724.15
601.762	23637.15
602.12	23757.14
602.478	23827.42
602.836	23710.82
603.194	23492.97
603.552	23761.89
603.91	23576.36
604.268	23623.59
604.625	23638.73
604.983	23693.19
605.341	23622.91
605.698	23704.26
606.056	23782.91
606.413	23685.73
606.771	23879.85
607.128	23760.76
607.485	23803.47
607.843	23745.62
608.2	23971.38
608.557	23844.83
608.914	23864.94
609.272	23964.14
609.629	23944.94
609.986	24134.31
610.343	23957.59
610.7	24224.02
611.057	24169.56
611.414	24079.85
611.771	24332.27
612.127	24226.74
612.484	24264.02
612.841	24197.58
613.198	24098.6
613.554	24128.21
613.911	24356.68
614.267	24268.32
614.624	24320.07
614.98	24371.36
615.337	24561.42
615.693	24425.15
616.05	24528.2
616.406	24620.62
616.762	24653.84
617.118	24501.98
617.475	24532.94
617.831	24694.07
618.187	24672.6
618.543	24726.84
618.899	24860.39
619.255	24771.58
619.611	24749.43
619.967	24925.7
620.323	24897.68
620.678	24811.13
621.034	24850.22
621.39	24850.67
621.746	24948.52
622.101	25079.37
622.457	24903.55
622.812	25079.37
623.168	24989.43
623.523	24965.47
623.879	25128.41
624.234	25043.89
624.589	25129.76
624.945	24995.53
625.3	25126.6
625.655	25080.95
626.01	25086.15
626.365	25095.87
626.72	25009.99
627.075	25069.65
627.43	25081.4
627.785	25030.56
628.14	24978.81
628.495	25119.59
628.85	25168.18
629.205	25006.38
629.559	25115.75
629.914	24981.07
630.269	24970.22
630.623	24890
630.978	24901.52
631.332	24965.25
631.687	25004.34
632.041	25007.51
632.396	24912.14
632.75	25004.12
633.104	24984.23
633.459	24745.14
633.813	24801.41
634.167	24742.88
634.521	24893.84
634.875	24780.17
635.229	24860.39
635.583	24586.73
635.937	24659.72
636.291	24682.09
636.645	24658.59
636.999	24518.71
637.352	24669.44
637.706	24542.21
638.06	24610
638.413	24448.88
638.767	24430.57
639.121	24374.08
639.474	24364.13
639.828	24360.29
640.181	24432.15
640.534	24485.49
640.888	24358.94
641.241	24228.77
641.594	24414.53
641.947	24373.62
642.301	24341.08
642.654	24316.68
643.007	24283.23
643.36	24269.45
643.713	24155.1
644.066	24349.44
644.419	24206.4
644.771	24003.92
645.124	23788.33
645.477	23836.46
645.83	23683.02
646.182	23608.9
646.535	23600.31
646.888	23735
647.24	23634.89
647.593	23815.67
647.945	23739.29
648.298	23659.75
648.65	23599.41
649.002	23433.54
649.355	23454.78
649.707	23242.58
650.059	23380.88
650.411	23711.72
650.763	23869.23
651.115	24148.77
651.467	24070.58
651.819	24137.47
652.171	24109.9
652.523	23991.94
652.875	24174.08
653.227	24028.55
653.578	24087.98
653.93	24088.43
654.282	24036.68
654.633	24015.67
654.985	24163.69
655.337	24166.85
655.688	24040.3
656.039	24153.07
656.391	24054.76
656.742	24105.38
657.094	24111.26
657.445	24275.32
657.796	24194.42
658.147	24171.37
658.498	24212.95
658.849	24348.77
659.2	24215.44
659.551	24113.52
659.902	24384.02
660.253	24272.84
660.604	24337.02
660.955	24318.03
661.306	24419.5
661.656	24326.85
662.007	24412.04
662.358	24406.17
662.708	24459.27
663.059	24368.65
663.409	24282.55
663.76	24513.96
664.11	24411.14
664.461	24510.12
664.811	24388.77
665.161	24417.47
665.511	24429.67
665.862	24375.88
666.212	24607.74
666.562	24598.03
666.912	24485.94
667.262	24421.53
667.612	24421.53
667.962	24505.15
668.312	24444.81
668.662	24524.13
669.011	24492.72
669.361	24532.04
669.711	24492.04
670.06	24468.31
670.41	24459.95
670.76	24397.58
671.109	24585.37
671.459	24454.07
671.808	24421.53
672.157	24463.34
672.507	24329.78
672.856	24286.85
673.205	24381.31
673.554	24278.94
673.904	24235.78
674.253	24502.66
674.602	24177.25
674.951	23997.59
675.3	23857.71
675.649	24344.02
675.998	24222.44
676.346	24172.05
676.695	24285.72
677.044	24079.4
677.393	24155.78
677.741	24106.06
678.09	24176.79
678.438	24053.18
678.787	24167.98
679.135	24001.21
679.484	24000.75
679.832	24017.48
680.181	23848.89
680.529	23969.12
680.877	23766.86
681.225	23956.69
681.573	24012.5
681.922	23784.49
682.27	23812.28
682.618	23758.05
682.966	23698.84
683.314	23688.9
683.661	23638.95
684.009	23504.27
684.357	23419.53
684.705	23443.25
685.053	23432.18
685.4	23300.43
685.748	23224.5
686.095	23386.08
686.443	23129.82
686.79	23054.56
687.138	23165.07
687.485	23090.49
687.832	22941.8
688.18	22932.76
688.527	22750.84
688.874	22794.68
689.221	22733.44
689.568	22688.7
689.915	22491.41
690.262	22550.85
690.609	22585.42
690.956	22413
691.303	22432.66
691.65	22227.01
691.997	22129.62
692.344	22046.45
692.69	22017.3
693.037	21889.4
693.383	21820.47
693.73	21776.63
694.077	21541.38
694.423	21655.5
694.769	21518.11
695.116	21509.07
695.462	21374.16
695.808	21330.09
696.155	21335.29
696.501	21112.47
696.847	21199.02
697.193	20940.27
697.539	20925.58
697.885	20806.71
698.231	20751.35
698.577	20798.8
698.923	20709.31
699.269	20482.65
699.614	20451.47
699.96	20436.78
700.306	20352.94
700.651	20198.14
700.997	20069.11
701.342	19964.48
701.688	20029.78
702.033	19874.76
702.379	19785.27
702.724	19795.89
703.069	19820.3
703.415	19556.12
703.76	19521.55
704.105	19450.82
704.45	19404.72
704.795	19330.14
705.14	19354.77
705.485	19289.46
705.83	19068
706.175	19194.78
706.52	19104.84
706.865	19059.64
707.209	18978.29
707.554	18909.81
707.899	18932.41
708.243	18776.71
708.588	18792.98
708.932	18642.93
709.277	18717.05
709.621	18607
709.966	18431.41
710.31	18547.11
710.654	18420.11
710.998	18492.2
711.342	18381.92
711.687	18323.84
712.031	18363.84
712.375	18181.47
712.719	18249.72
713.063	18200.23
713.407	18302.82
713.75	18173.11
714.094	18131.75
714.438	18100.12
714.782	18004.07
715.125	18048.14
715.469	18118.2
715.812	17941.7
716.156	17982.61
716.499	18033.23
716.843	18029.84
717.186	17941.48
717.53	18012.66
717.873	17944.42
718.216	18031.87
718.559	17872.78
718.902	17806.79
719.246	17898.77
719.589	17833.68
719.932	17809.5
720.275	17899.22
720.617	17841.82
720.96	17786
721.303	17802.72
721.646	17916.62
721.989	17802.27
722.331	17850.86
722.674	17820.12
723.016	17804.31
723.359	17796.17
723.701	17790.75
724.044	17769.96
724.386	17720.69
724.729	17818.32
725.071	17743.06
725.413	17829.62
725.755	17830.07
726.097	17824.87
726.439	17771.09
726.782	17800.01
727.124	17893.12
727.465	17909.16
727.807	17821.48
728.149	17825.55
728.491	17852.21
728.833	17830.29
729.175	17969.5
729.516	17900.12
729.858	17939.22
730.199	17996.17
730.541	18001.59
730.882	18041.14
731.224	18095.82
731.565	18060.12
731.906	18070.06
732.248	18230.96
732.589	17952.32
732.93	18025.77
733.271	18129.72
733.612	18064.19
733.953	18271.41
734.294	18182.38
734.635	18234.13
734.976	18462.59
735.317	18357.29
735.658	18407.45
735.999	18300.11
736.339	18405.65
736.68	18512.76
737.021	18482.71
737.361	18517.51
737.702	18754.79
738.042	18610.39
738.383	18775.81
738.723	18857.61
739.063	18852.64
739.404	18976.25
739.744	19020.09
740.084	18952.52
740.424	19074.78
740.764	19229.81
741.104	19359.75
741.444	19359.75
741.784	19395.9
742.124	19596.35
742.464	19642.45
742.804	19730.58
743.143	19786.4
743.483	19903.91
743.823	19902.33
744.162	20018.03
744.502	20263.45
744.841	20221.19
745.181	20413.28
745.52	20407.85
745.86	20749.09
746.199	20787.5
746.538	20894.85
746.877	21095.74
747.216	21266.14
747.556	21385.68
747.895	21645.56
748.234	21707.03
748.573	21847.14
748.911	22020.01
749.25	22291.65
749.589	22337.29
749.928	22718.75
750.267	22708.36
750.605	22844.85
750.944	23094.34
751.283	23345.86
751.621	23650.25
751.96	23821.55
752.298	24071.94
752.636	24266.73
752.975	24392.38
753.313	24560.74
753.651	25040.27
