Data from 18-4525_FLMS001491_009.txt Node
Date: Thu Apr 19 16:42:57 BST 2018
User: hsy
Spectrometer: FLMS00149
Trigger mode: 0
Integration Time (sec): 1.000000E-2
Scans to average: 10
Electric dark correction enabled: true
Nonlinearity correction enabled: false
Boxcar width: 0
XAxis mode: Wavelengths
Number of Pixels in Spectrum: 2048
>>>>>Begin Spectral Data<<<<<
341.393	-12.73
341.776	-12.73
342.16	-12.73
342.543	-72.39
342.927	-37.81
343.31	-66.96
343.693	-54.31
344.077	-77.58
344.46	-52.5
344.843	-48.43
345.226	-49.11
345.61	-48.2
345.993	-17.7
346.376	-11.82
346.759	-0.52
347.142	21.4
347.525	63.66
347.908	76.99
348.291	90.77
348.674	85.8
349.057	88.51
349.44	133.49
349.823	155.86
350.206	166.93
350.588	221.17
350.971	246.7
351.354	255.74
351.737	285.8
352.119	287.83
352.502	301.39
352.884	291.9
353.267	314.05
353.65	333.03
354.032	330.54
354.414	328.51
354.797	349.07
355.179	357.66
355.562	345.91
355.944	359.69
356.326	377.09
356.709	392.46
357.091	360.15
357.473	377.09
357.855	391.11
358.238	390.88
358.62	351.78
359.002	379.13
359.384	380.03
359.766	386.59
360.148	387.26
360.53	366.47
360.912	379.58
361.294	378
361.676	375.96
362.057	363.76
362.439	380.26
362.821	370.99
363.203	367.15
363.584	363.31
363.966	373.48
364.348	363.99
364.729	366.93
365.111	366.02
365.493	370.99
365.874	373.25
366.256	373.25
366.637	375.51
367.019	374.16
367.4	354.95
367.781	373.7
368.163	367.38
368.544	350.65
368.925	378.68
369.306	364.89
369.688	353.59
370.069	379.13
370.45	349.75
370.831	385
371.212	368.28
371.593	370.77
371.974	391.11
372.355	372.12
372.736	388.17
373.117	394.5
373.498	386.13
373.879	365.8
374.26	346.13
374.641	384.1
375.021	393.14
375.402	403.08
375.783	394.72
376.163	399.47
376.544	389.98
376.925	417.32
377.305	374.61
377.686	401.5
378.066	410.99
378.447	403.08
378.827	397.89
379.208	400.14
379.588	394.5
379.968	418.22
380.349	418.22
380.729	426.81
381.109	410.54
381.489	396.08
381.87	428.84
382.25	442.63
382.63	432.01
383.01	439.92
383.39	420.48
383.77	423.42
384.15	431.33
384.53	451.44
384.91	446.47
385.29	449.64
385.67	452.8
386.049	488.28
386.429	453.25
386.809	478.56
387.189	442.86
387.568	468.17
387.948	475.85
388.328	481.27
388.707	455.96
389.087	446.25
389.466	475.85
389.846	474.95
390.225	489.63
390.605	490.31
390.984	495.06
391.363	494.15
391.743	483.08
392.122	498.45
392.501	502.06
392.881	533.93
393.26	514.72
393.639	528.05
394.018	539.12
394.397	536.19
394.776	527.83
395.155	560.37
395.534	514.94
395.913	539.12
396.292	558.56
396.671	560.82
397.05	573.02
397.429	558.33
397.808	581.61
398.186	588.39
398.565	587.03
398.944	558.11
399.323	599.91
399.701	576.19
400.08	602.85
400.458	598.11
400.837	596.3
401.215	622.96
401.594	599.69
401.972	628.84
402.351	622.96
402.729	635.62
403.107	648.27
403.486	627.26
403.864	637.65
404.242	652.57
404.62	663.41
404.999	674.04
405.377	686.01
405.755	697.54
406.133	695.96
406.511	707.26
406.889	698.89
407.267	715.39
407.645	720.14
408.023	729.4
408.401	731.66
408.779	761.49
409.156	779.34
409.534	756.29
409.912	763.53
410.29	794.03
410.667	807.14
411.045	822.28
411.422	803.52
411.8	834.94
412.178	836.29
412.555	865.22
412.933	869.06
413.31	889.17
413.687	894.37
414.065	904.99
414.442	932.11
414.819	906.57
415.197	928.27
415.574	929.17
415.951	958.77
416.328	967.36
416.705	973.01
417.082	974.59
417.46	986.8
417.837	993.12
418.214	1020.69
418.591	1030.18
418.967	1013.01
419.344	1019.56
419.721	1035.83
420.098	1074.03
420.475	1044.87
420.852	1076.74
421.228	1076.29
421.605	1095.49
421.982	1110.18
422.358	1110.63
422.735	1133.01
423.111	1129.84
423.488	1168.49
423.864	1164.42
424.241	1167.58
424.617	1199.67
424.994	1203.51
425.37	1222.95
425.746	1241.93
426.123	1232.21
426.499	1274.47
426.875	1264.08
427.251	1293
427.627	1299.1
428.003	1352.89
428.379	1335.04
428.756	1369.84
429.132	1383.62
429.507	1406.45
429.883	1416.84
430.259	1446.22
430.635	1465.2
431.011	1456.16
431.387	1490.29
431.763	1514.47
432.138	1480.79
432.514	1548.59
432.89	1561.47
433.265	1585.65
433.641	1629.94
434.016	1626.33
434.392	1681.02
434.767	1728.25
435.143	1702.48
435.518	1683.27
435.894	1729.83
436.269	1748.36
436.644	1806.89
437.02	1806.66
437.395	1834.46
437.77	1866.55
438.145	1854.34
438.52	1855.47
438.895	1923.49
439.271	1918.07
439.646	1937.28
440.021	1963.27
440.395	1990.61
440.77	1989.03
441.145	2024.28
441.52	2022.93
441.895	2041.46
442.27	2082.36
442.645	2045.98
443.019	2089.59
443.394	2122.13
443.769	2157.61
444.143	2121.68
444.518	2186.31
444.892	2169.14
445.267	2194.22
445.641	2199.42
446.016	2223.15
446.39	2225.63
446.764	2226.54
447.139	2268.34
447.513	2279.64
447.887	2302.24
448.262	2307.21
448.636	2357.16
449.01	2341.79
449.384	2395.35
449.758	2370.71
450.132	2436.02
450.506	2455.23
450.88	2514.21
451.254	2448.9
451.628	2509.24
452.002	2547.21
452.376	2573.42
452.75	2576.58
453.123	2608
453.497	2646.87
453.871	2682.8
454.244	2727.32
454.618	2731.83
454.992	2813.41
455.365	2806.18
455.739	2861.1
456.112	2898.61
456.486	2918.72
456.859	2932.06
457.232	3012.05
457.606	3013.18
457.979	3063.8
458.352	3134.99
458.725	3181.54
459.099	3170.69
459.472	3245.72
459.845	3319.84
460.218	3316.9
460.591	3384.47
460.964	3396
461.337	3469.44
461.71	3500.18
462.083	3528.42
462.456	3536.11
462.829	3567.29
463.201	3656.78
463.574	3634.41
463.947	3757.57
464.32	3791.24
464.692	3839.83
465.065	3836.21
465.438	3894.06
465.81	3942.88
466.183	4022.2
466.555	4010.22
466.928	4070.1
467.3	4055.64
467.672	4131.8
468.045	4232.13
468.417	4240.04
468.789	4283.21
469.161	4337.22
469.534	4387.38
469.906	4449.98
470.278	4496.53
470.65	4579.92
471.022	4677.55
471.394	4737.43
471.766	4751.67
472.138	4809.75
472.51	4894.94
472.882	5002.51
473.253	5019.91
473.625	5104.65
473.997	5234.59
474.369	5261.03
474.74	5285.21
475.112	5337.42
475.484	5474.14
475.855	5561.82
476.227	5608.14
476.598	5758.87
476.97	5803.62
477.341	5952.54
477.713	5989.83
478.084	6082.03
478.455	6217.84
478.827	6297.62
479.198	6478.18
479.569	6505.07
479.94	6624.84
480.311	6726.76
480.682	6885.4
481.053	7056.47
481.424	7157.26
481.795	7199.74
482.166	7319.28
482.537	7438.6
482.908	7627.98
483.279	7778.03
483.65	7844.02
484.021	7973.51
484.391	8131.24
484.762	8229.77
485.133	8321.97
485.503	8415.53
485.874	8654.62
486.244	8726.48
486.615	8835.4
486.985	9008.96
487.356	9151.1
487.726	9293.02
488.097	9480.81
488.467	9583.41
488.837	9792.44
489.207	9884.87
489.578	10093.45
489.948	10208.7
490.318	10359.66
490.688	10419.32
491.058	10674.68
491.428	10807.33
491.798	10936.14
492.168	11226.53
492.538	11234.21
492.908	11386.97
493.278	11633.52
493.648	11647.53
494.017	11762.78
494.387	11955.32
494.757	12080.52
495.126	12146.5
495.496	12348.31
495.866	12545.36
496.235	12731.35
496.605	12791.23
496.974	12895.41
497.344	13088.4
497.713	13165.46
498.082	13296.3
498.452	13462.85
498.821	13526.35
499.19	13570.65
499.559	13830.3
499.928	13902.61
500.298	14097.64
500.667	14162.49
501.036	14161.14
501.405	14244.3
501.774	14383.05
502.143	14489.72
502.512	14593.44
502.88	14788.24
503.249	14806.32
503.618	14984.17
503.987	15019.42
504.356	15245.18
504.724	15326.98
505.093	15344.38
505.462	15567.43
505.83	15618.05
506.199	15771.72
506.567	15936.46
506.936	15979.4
507.304	16089.9
507.672	16184.81
508.041	16260.07
508.409	16489.89
508.777	16535.99
509.145	16728.98
509.514	16682.2
509.882	16844.68
510.25	16826.15
510.618	17114.28
510.986	17013.49
511.354	17197.44
511.722	17427.04
512.09	17546.36
512.458	17414.61
512.826	17727.6
513.193	17727.37
513.561	17761.72
513.929	17905.45
514.297	18107.7
514.664	18100.47
515.032	18233.8
515.4	18275.16
515.767	18359.45
516.135	18409.84
516.502	18293.23
516.869	18748.81
517.237	18727.35
517.604	18564.64
517.972	18950.39
518.339	18988.81
518.706	19042.59
519.073	19091.18
519.44	19244.85
519.808	19372.98
520.175	19490.94
520.542	19590.6
520.909	19708.79
521.276	19695
521.643	19938.84
522.009	19977.94
522.376	20034.88
522.743	20018.61
523.11	20427.19
523.477	20518.94
523.843	20650.23
524.21	20789.67
524.577	20860.85
524.943	20829.89
525.31	20930.23
525.676	21244.34
526.043	21239.6
526.409	21298.58
526.776	21462.64
527.142	21457.22
527.508	21609.53
527.874	21692.92
528.241	21863.08
528.607	21946.92
528.973	22143.98
529.339	22041.16
529.705	22268.5
530.071	22346.23
530.437	22422.39
530.803	22521.6
531.169	22689.95
531.535	22565.66
531.901	22720.91
532.267	22713.91
532.632	22833.91
532.998	22762.04
533.364	22925.88
533.73	22966.33
534.095	23076.61
534.461	23102.15
534.826	23032.09
535.192	23118.19
535.557	23164.07
535.923	23076.61
536.288	23218.3
536.653	23327.9
537.019	23202.03
537.384	23268.02
537.749	23222.14
538.114	23271.86
538.479	23170.62
538.845	23234.12
539.21	23202.71
539.575	23322.25
539.94	23325.42
540.305	23397.73
540.67	23378.98
541.034	23160.9
541.399	23288.81
541.764	23327.68
542.129	23307.79
542.494	23373.33
542.858	23443.15
543.223	23124.75
543.587	23282.03
543.952	23242.48
544.316	23254.23
544.681	23181.47
545.045	23374.46
545.41	23239.54
545.774	23188.02
546.138	23146.21
546.503	23207.23
546.867	23166.55
547.231	23243.61
547.595	23237.51
547.959	23063.28
548.324	23134.91
548.688	23173.33
549.052	23044.75
549.416	23114.8
549.779	23002.49
550.143	23123.84
550.507	23180.79
550.871	23120.9
551.235	23043.84
551.599	23184.4
551.962	23170.39
552.326	23124.07
552.689	23157.96
553.053	22957.97
553.417	23037.29
553.78	23197.74
554.143	23136.95
554.507	22991.19
554.87	23147.57
555.234	23253.78
555.597	23046.1
555.96	23076.61
556.323	23144.86
556.686	23269.37
557.05	23301.46
557.413	23222.6
557.776	23177.63
558.139	23208.36
558.502	23188.92
558.865	23218.75
559.228	23343.95
559.59	23277.96
559.953	23260.56
560.316	23518.18
560.679	23425.98
561.041	23522.93
561.404	23558.63
561.767	23638.63
562.129	23563.15
562.492	23689.25
562.854	23678.85
563.217	23754.11
563.579	23769.47
563.941	23884.5
564.304	23934.67
564.666	24080.65
565.028	24046.53
565.39	24172.85
565.753	24162.01
566.115	24206.3
566.477	24362.9
566.839	24348.22
567.201	24572.39
567.563	24566.97
567.925	24635.89
568.287	24737.13
568.648	24640.86
569.01	24713.18
569.372	24966.73
569.734	24977.13
570.095	25144.13
570.457	25164.92
570.819	25284.24
571.18	25261.86
571.542	25429.54
571.903	25467.73
572.265	25588.18
572.626	25618.92
572.987	25687.62
573.349	25830.21
573.71	25889.42
574.071	25986.36
574.432	26008.51
574.794	26210.31
575.155	26259.58
575.516	26016.19
575.877	26292.35
576.238	26289.63
576.599	26250.76
576.96	26369.86
577.32	26463.87
577.681	26547.93
578.042	26653.47
578.403	26568.04
578.763	26577.08
579.124	26680.13
579.485	26775.04
579.845	26871.54
580.206	26749.06
580.566	26799.22
580.927	26771.88
581.287	26909.28
581.648	26780.47
582.008	26878.32
582.368	26911.09
582.728	26858.43
583.089	26783.18
583.449	26955.6
583.809	27059.78
584.169	27022.72
584.529	26919.45
584.889	27114.47
585.249	26849.17
585.609	26811.2
585.969	27042.61
586.329	26867.25
586.688	26862.27
587.048	26990.41
587.408	26852.56
587.768	26870.86
588.127	26733.01
588.487	26759.68
588.846	27029.05
589.206	26694.14
589.565	26691.43
589.925	26922.84
590.284	26821.82
590.643	26785.89
591.003	26775.95
591.362	26892.1
591.721	26767.81
592.08	26716.52
592.44	26900.92
592.799	26749.06
593.158	26735.95
593.517	26781.37
593.876	26729.17
594.235	26702.96
594.593	26741.83
594.952	26741.6
595.311	26658.44
595.67	26727.81
596.029	26831.54
596.387	26876.28
596.746	26867.47
597.104	26721.94
597.463	26703.41
597.822	26857.53
598.18	26691.88
598.538	26703.41
598.897	26969.62
599.255	26621.83
599.613	27050.07
599.972	26670.19
600.33	26771.88
600.688	26806.23
601.046	26676.29
601.404	27075.15
601.762	26802.84
602.12	26818.66
602.478	27057.97
602.836	26983.4
603.194	26835.16
603.552	26912.22
603.91	26900.01
604.268	26928.03
604.625	26907.7
604.983	27118.54
605.341	26900.24
605.698	26975.04
606.056	27107.69
606.413	27003.51
606.771	27015.72
607.128	27094.81
607.485	26975.04
607.843	26962.61
608.2	27146.79
608.557	27255.03
608.914	27172.77
609.272	27255.26
609.629	27372.54
609.986	27429.72
610.343	27340.23
610.7	27507.68
611.057	27462.48
611.414	27463.39
611.771	27562.37
612.127	27613.44
612.484	27534.57
612.841	27611.18
613.198	27425.87
613.554	27525.08
613.911	27589.26
614.267	27758.52
614.624	27710.84
614.98	27814.11
615.337	27904.28
615.693	27795.13
616.05	27939.53
616.406	28050.49
616.762	27950.83
617.118	27936.82
617.475	28077.38
617.831	28181.11
618.187	28094.11
618.543	28154.67
618.899	28173.88
619.255	28281.9
619.611	28236.02
619.967	28323.25
620.323	28454.1
620.678	28208
621.034	28229.7
621.39	28258.62
621.746	28249.81
622.101	28490.93
622.457	28198.96
622.812	28386.3
623.168	28451.38
623.523	28419.3
623.879	28580.19
624.234	28415.68
624.589	28401.22
624.945	28519.41
625.3	28605.5
625.655	28498.39
626.01	28575
626.365	28465.17
626.72	28429.01
627.075	28465.4
627.43	28377.49
627.785	28459.97
628.14	28421.78
628.495	28458.84
628.85	28576.81
629.205	28381.33
629.559	28609.12
629.914	28464.72
630.269	28415
630.623	28237.83
630.978	28257.04
631.332	28389.01
631.687	28362.57
632.041	28237.38
632.396	28375.23
632.75	28286.87
633.104	28394.66
633.459	28116.25
633.813	28166.87
634.167	28134.1
634.521	28024.28
634.875	27999.87
635.229	27944.51
635.583	27936.14
635.937	27937.95
636.291	27935.47
636.645	27999.87
636.999	27798.29
637.352	27923.04
637.706	27626.77
638.06	27855.69
638.413	27719.65
638.767	27703.83
639.121	27761.69
639.474	27554.91
639.828	27580
640.181	27603.95
640.534	27672.2
640.888	27551.75
641.241	27463.16
641.594	27483.73
641.947	27603.05
642.301	27429.94
642.654	27433.56
643.007	27335.48
643.36	27389.49
643.713	27233.11
644.066	27540.9
644.419	27334.8
644.771	26983.17
645.124	26726.68
645.477	26970.29
645.83	26763.97
646.182	26699.34
646.535	26734.37
646.888	26772.56
647.24	26570.76
647.593	26777.98
647.945	26735.5
648.298	26547.25
648.65	26559.91
649.002	26257.54
649.355	26152.91
649.707	26022.07
650.059	26135.97
650.411	26481.94
650.763	26799.68
651.115	27199.89
651.467	26990.18
651.819	27004.64
652.171	26942.95
652.523	26885.55
652.875	27106.34
653.227	26844.65
653.578	27123.74
653.93	27103.62
654.282	26985.43
654.633	26891.43
654.985	27049.39
655.337	26926
655.688	26959.22
656.039	27157.18
656.391	26858.21
656.742	26962.61
657.094	26860.01
657.445	26939.33
657.796	26977.75
658.147	26917.19
658.498	27057.52
658.849	27064.08
659.2	27017.3
659.551	26931.42
659.902	27145.2
660.253	26969.84
660.604	27254.81
660.955	27029.95
661.306	27164.86
661.656	27163.96
662.007	27123.06
662.358	27124.19
662.708	27115.6
663.059	27075.6
663.409	27077.64
663.76	27253.68
664.11	27194.69
664.461	27285.31
664.811	27221.13
665.161	27340
665.511	27166.9
665.862	27250.51
666.212	27350.4
666.562	27325.76
666.912	27276.73
667.262	27179.78
667.612	27270.4
667.962	27356.05
668.312	27148.82
668.662	27320.34
669.011	27391.07
669.361	27287.35
669.711	27277.86
670.06	27260.68
670.41	27246.22
670.76	27184.75
671.109	27226.78
671.459	27184.07
671.808	27255.94
672.157	27195.82
672.507	26983.17
672.856	26927.81
673.205	27067.69
673.554	27113.79
673.904	27044.19
674.253	27121.25
674.602	27019.33
674.951	26795.83
675.3	26618.21
675.649	27053
675.998	27150.18
676.346	27123.06
676.695	27023.63
677.044	26814.37
677.393	26920.8
677.741	27056.62
678.09	26907.7
678.438	26809.62
678.787	26940.24
679.135	26836.06
679.484	26590.64
679.832	26747.02
680.181	26738.89
680.529	26612.56
680.877	26579.34
681.225	26568.72
681.573	26715.84
681.922	26501.15
682.27	26367.6
682.618	26480.82
682.966	26256.41
683.314	26343.42
683.661	26456.18
684.009	26127.6
684.357	26119.47
684.705	26125.34
685.053	26166.25
685.4	25977.55
685.748	25823.66
686.095	25911.56
686.443	25708.86
686.79	25833.6
687.138	25724.68
687.485	25711.57
687.832	25557.68
688.18	25554.74
688.527	25418.47
688.874	25444.91
689.221	25335.53
689.568	25290.56
689.915	25060.51
690.262	25098.93
690.609	25125.82
690.956	25010.57
691.303	24929.67
691.65	24893.29
691.997	24661.2
692.344	24570.13
692.69	24667.08
693.037	24410.59
693.383	24315.45
693.73	24306.41
694.077	24186.64
694.423	24225.73
694.769	24129.24
695.116	24014.21
695.462	23890.15
695.808	23757.04
696.155	23747.33
696.501	23639.31
696.847	23575.81
697.193	23422.59
697.539	23425.98
697.885	23223.95
698.231	23087.46
698.577	23148.93
698.923	23168.81
699.269	22902.6
699.614	22956.61
699.96	22785.09
700.306	22804.08
700.651	22576.28
700.997	22605.21
701.342	22475.27
701.688	22484.08
702.033	22306.91
702.379	22369.96
702.724	22217.88
703.069	22283.41
703.415	22011.33
703.76	21943.53
704.105	21967.26
704.45	21776.53
704.795	21724.33
705.14	21756.19
705.485	21642.98
705.83	21571.11
706.175	21589.87
706.52	21536.99
706.865	21387.84
707.209	21370.89
707.554	21257.22
707.899	21287.05
708.243	21138.13
708.588	21094.52
708.932	20963.22
709.277	21074.18
709.621	20972.94
709.966	20835.54
710.31	20817.91
710.654	20727.07
710.998	20711.48
711.342	20709.89
711.687	20669.89
712.031	20636.9
712.375	20501.09
712.719	20484.81
713.063	20538.82
713.407	20576.56
713.75	20547.64
714.094	20363.46
714.438	20374.76
714.782	20382.9
715.125	20222.67
715.469	20356.91
715.812	20158.5
716.156	20229
716.499	20186.74
716.843	20203.01
717.186	20023.36
717.53	20269.9
717.873	20190.13
718.216	20103.81
718.559	20154.2
718.902	19972.29
719.246	20089.57
719.589	20057.71
719.932	19954.66
720.275	20005.05
720.617	20050.48
720.96	19942
721.303	20043.7
721.646	19921.21
721.989	19834.21
722.331	20006.41
722.674	19904.26
723.016	19924.6
723.359	19878.5
723.701	19928.44
724.044	19854.1
724.386	19708.11
724.729	19818.62
725.071	19852.97
725.413	19840.09
725.755	19837.15
726.097	19794.21
726.439	19645.06
726.782	19793.53
727.124	19973.42
727.465	19889.12
727.807	19742.69
728.149	19743.59
728.491	19749.01
728.833	19825.62
729.175	19814.55
729.516	19793.53
729.858	19794.89
730.199	20001.44
730.541	19887.32
730.882	19880.99
731.224	20006.41
731.565	19864.72
731.906	19871.05
732.248	20039.18
732.589	19883.47
732.93	19923.02
733.271	19918.95
733.612	19906.75
733.953	20016.35
734.294	20012.28
734.635	20005.51
734.976	20109.68
735.317	20063.36
735.658	20074.2
735.999	20225.84
736.339	20192.17
736.68	20220.87
737.021	20266.29
737.361	20191.04
737.702	20365.72
738.042	20420.41
738.383	20481.88
738.723	20576.56
739.063	20501.54
739.404	20639.84
739.744	20640.06
740.084	20680.74
740.424	20750.12
740.764	20807.07
741.104	20924.35
741.444	20882.32
741.784	20914.41
742.124	21195.53
742.464	21126.38
742.804	21173.61
743.143	21188.07
743.483	21461.06
743.823	21423.09
744.162	21560.27
744.502	21737.89
744.841	21730.66
745.181	22028.95
745.52	21906.7
745.86	22193.02
746.199	22244.99
746.538	22309.17
746.877	22589.84
747.216	22600.69
747.556	22790.97
747.895	22905.99
748.234	23041.36
748.573	23172.65
748.911	23336.04
749.25	23551.17
749.589	23685.63
749.928	23861
750.267	24216.47
750.605	24224.6
750.944	24394.99
751.283	24588.66
751.621	24861.42
751.96	24992.94
752.298	25158.82
752.636	25418.92
752.975	25579.6
753.313	25765.13
753.651	26129.41
753.989	26219.58
754.327	26525.79
