Data from 18-4330_FLMS001491_003.txt Node
Date: Thu Apr 19 16:43:24 BST 2018
User: hsy
Spectrometer: FLMS00149
Trigger mode: 0
Integration Time (sec): 1.000000E-2
Scans to average: 10
Electric dark correction enabled: true
Nonlinearity correction enabled: false
Boxcar width: 0
XAxis mode: Wavelengths
Number of Pixels in Spectrum: 2048
>>>>>Begin Spectral Data<<<<<
341.393	-12.15
341.776	-12.15
342.16	-12.15
342.543	-62.31
342.927	-63.44
343.31	-76.78
343.693	-88.08
344.077	-54.86
344.46	-60.28
344.843	-54.41
345.226	-42.65
345.61	-24.58
345.993	-21.64
346.376	6.38
346.759	12.71
347.142	35.31
347.525	55.87
347.908	50.45
348.291	81.41
348.674	61.98
349.057	119.15
349.44	119.15
349.823	132.48
350.206	193.95
350.588	212.71
350.971	241.63
351.354	277.79
351.737	276.43
352.119	273.27
352.502	286.38
352.884	322.31
353.267	317.79
353.65	327.96
354.032	358.69
354.414	333.16
354.797	364.79
355.179	339.03
355.562	365.47
355.944	354.85
356.326	372.02
356.709	368.63
357.091	377.45
357.473	382.65
357.855	361.63
358.238	378.13
358.62	355.3
359.002	379.48
359.384	368.41
359.766	369.31
360.148	374.96
360.53	362.76
360.912	356.88
361.294	362.53
361.676	369.31
362.057	374.51
362.439	368.86
362.821	376.77
363.203	356.21
363.584	358.92
363.966	372.93
364.348	371.8
364.729	359.14
365.111	358.69
365.493	358.24
365.874	356.66
366.256	345.36
366.637	339.03
367.019	348.07
367.4	346.26
367.781	364.79
368.163	354.62
368.544	347.39
368.925	363.89
369.306	362.08
369.688	347.17
370.069	369.76
370.45	347.84
370.831	380.39
371.212	378.35
371.593	374.28
371.974	356.88
372.355	369.76
372.736	391.91
373.117	395.53
373.498	388.29
373.879	367.28
374.26	362.98
374.641	362.08
375.021	380.61
375.402	362.76
375.783	394.85
376.163	387.16
376.544	393.27
376.925	379.71
377.305	389.42
377.686	377
378.066	369.76
378.447	412.48
378.827	399.14
379.208	412.7
379.588	400.72
379.968	387.84
380.349	414.28
380.729	393.49
381.109	394.4
381.489	398.24
381.87	413.83
382.25	408.18
382.63	401.18
383.01	418.35
383.39	430.33
383.77	414.06
384.15	419.48
384.53	426.26
384.91	424
385.29	413.15
385.67	451.34
386.049	449.99
386.429	432.36
386.809	462.19
387.189	449.99
387.568	435.07
387.948	444.56
388.328	473.04
388.707	463.77
389.087	473.04
389.466	479.59
389.846	457.45
390.225	468.97
390.605	462.87
390.984	484.56
391.363	517.33
391.743	478.46
392.122	499.48
392.501	492.25
392.881	509.65
393.26	520.49
393.639	528.63
394.018	528.86
394.397	532.02
394.776	538.35
395.155	504.22
395.534	529.99
395.913	554.39
396.292	546.26
396.671	570.66
397.05	588.06
397.429	566.14
397.808	550.1
398.186	588.29
398.565	554.84
398.944	585.13
399.323	591.45
399.701	565.24
400.08	597.55
400.458	592.81
400.837	611.57
401.215	602.75
401.594	606.14
401.972	629.19
402.351	633.26
402.729	646.82
403.107	651.34
403.486	646.82
403.864	626.03
404.242	650.43
404.62	667.38
404.999	684.11
405.377	696.99
405.755	692.24
406.133	684.78
406.511	725.46
406.889	709.42
407.267	717.33
407.645	736.53
408.023	747.38
408.401	764.78
408.779	778.12
409.156	786.48
409.534	785.57
409.912	799.13
410.29	813.37
410.667	826.7
411.045	851.79
411.422	841.39
411.8	862.18
412.178	851.79
412.555	898.34
412.933	909.41
413.31	919.35
413.687	923.2
414.065	950.77
414.442	971.78
414.819	957.09
415.197	966.58
415.574	981.95
415.951	1023.31
416.328	999.13
416.705	1007.71
417.082	1033.02
417.46	1016.53
417.837	1053.81
418.214	1058.56
418.591	1075.28
418.967	1083.64
419.344	1076.19
419.721	1097.2
420.098	1103.3
420.475	1128.84
420.852	1148.73
421.228	1169.74
421.605	1153.92
421.982	1210.19
422.358	1191.44
422.735	1208.39
423.111	1226.46
423.488	1277.09
423.864	1254.71
424.241	1266.92
424.617	1284.77
424.994	1303.3
425.37	1339.23
425.746	1347.37
426.123	1341.26
426.499	1393.92
426.875	1376.52
427.251	1410.87
427.627	1421.71
428.003	1495.16
428.379	1459
428.756	1491.54
429.132	1483.63
429.507	1511.2
429.883	1502.84
430.259	1543.74
430.635	1588.49
431.011	1589.17
431.387	1631.88
431.763	1653.8
432.138	1674.14
432.514	1715.27
432.89	1694.25
433.265	1755.04
433.641	1789.16
434.016	1804.75
434.392	1842.49
434.767	1865.09
435.143	1879.78
435.518	1893.11
435.894	1924.98
436.269	1978.76
436.644	2005.88
437.02	2007.69
437.395	2045.2
437.77	2078.65
438.145	2100.11
438.52	2121.36
438.895	2177.4
439.271	2112.77
439.646	2180.11
440.021	2231.86
440.395	2238.87
440.77	2215.59
441.145	2269.38
441.52	2348.24
441.895	2308.24
442.27	2368.36
442.645	2333.1
443.019	2400.67
443.394	2406.55
443.769	2399.77
444.143	2437.96
444.518	2463.95
444.892	2468.24
445.267	2485.19
445.641	2487
446.016	2549.37
446.39	2538.29
446.764	2550.5
447.139	2578.97
447.513	2605.86
447.887	2618.07
448.262	2632.3
448.636	2611.29
449.01	2709.14
449.384	2683.6
449.758	2731.51
450.132	2759.08
450.506	2791.17
450.88	2792.3
451.254	2781.9
451.628	2854.22
452.002	2874.11
452.376	2910.26
452.75	2933.54
453.123	2960.43
453.497	3021.9
453.871	3009.47
454.244	3115
454.618	3138.05
454.992	3194.1
455.365	3213.98
455.739	3285.85
456.112	3295.34
456.486	3374.21
456.859	3362
457.232	3463.02
457.606	3414.66
457.979	3527.87
458.352	3597.25
458.725	3560.87
459.099	3685.38
459.472	3684.93
459.845	3785.72
460.218	3767.42
460.591	3828.88
460.964	3877.92
461.337	3931.93
461.71	3995.66
462.083	4009.22
462.456	4086.05
462.829	4047.63
463.201	4171.7
463.574	4192.26
463.947	4252.37
464.32	4297.12
464.692	4336.67
465.065	4418.47
465.438	4430.9
465.81	4492.59
466.183	4549.32
466.555	4610.78
466.928	4662.98
467.3	4669.31
467.672	4722.87
468.045	4853.26
468.417	4851
468.789	4926.48
469.161	4964.22
469.534	5036.99
469.906	5070.88
470.278	5125.8
470.65	5242.18
471.022	5297.77
471.394	5360.82
471.766	5437.88
472.138	5513.36
472.51	5584.99
472.882	5679
473.253	5694.37
473.625	5836.06
473.997	5922.84
474.369	5961.93
474.74	6057.07
475.112	6116.28
475.484	6189.27
475.855	6350.85
476.227	6393.79
476.598	6547.91
476.97	6589.26
477.341	6720.33
477.713	6803.49
478.084	6834.23
478.455	7042.58
478.827	7083.49
479.198	7263.37
479.569	7310.37
479.94	7494.77
480.311	7600.99
480.682	7743.81
481.053	7911.26
481.424	8003.91
481.795	8105.61
482.166	8266.51
482.537	8360.74
482.908	8550.11
483.279	8623.33
483.65	8811.8
484.021	8982.19
484.391	9045.47
484.762	9140.61
485.133	9169.98
485.503	9391.9
485.874	9508.96
486.244	9638
486.615	9875.28
486.985	9901.72
487.356	10066.68
487.726	10110.53
488.097	10451.53
488.467	10528.82
488.837	10728.14
489.207	10799.32
489.578	10955.25
489.948	11057.84
490.318	11281.79
490.688	11282.02
491.058	11456.93
491.428	11665.29
491.798	11741.89
492.168	11977.37
492.538	11992.74
492.908	12145.27
493.278	12397.92
493.648	12317.47
494.017	12503.91
494.387	12687.18
494.757	12740.51
495.126	12949.55
495.496	12865.71
495.866	13075.42
496.235	13112.03
496.605	13229.99
496.974	13331.68
497.344	13458.23
497.713	13543.2
498.082	13549.53
498.452	13690.09
498.821	13885.12
499.19	13873.36
499.559	13944.55
499.928	14072.91
500.298	14071.55
500.667	14211.66
501.036	14184.99
501.405	14395.16
501.774	14362.62
502.143	14573.23
502.512	14641.25
502.88	14728.03
503.249	14679.22
503.618	14813.9
503.987	14899.33
504.356	14929.38
504.724	15051.64
505.093	15148.81
505.462	15135.25
505.83	15173.22
506.199	15283.5
506.567	15474.23
506.936	15409.82
507.304	15582.47
507.672	15680.77
508.041	15712.19
508.409	15773.65
508.777	15894.1
509.145	15929.81
509.514	16033.76
509.882	16054.55
510.25	16097.49
510.618	16223.81
510.986	16255
511.354	16382.9
511.722	16566.17
512.09	16487.08
512.458	16477.36
512.826	16631.71
513.193	16631.71
513.561	16817.24
513.929	16897.92
514.297	17025.82
514.664	17067.4
515.032	17064.47
515.4	17253.39
515.767	17322.31
516.135	17260.85
516.502	17197.12
516.869	17512.14
517.237	17539.48
517.604	17444.57
517.972	17750.78
518.339	17762.53
518.706	17729.76
519.073	17848.17
519.44	17841.85
519.808	18065.12
520.175	18024.44
520.542	18196.87
520.909	18240.71
521.276	18235.28
521.643	18461.27
522.009	18568.38
522.376	18622.62
522.743	18712.78
523.11	18937.41
523.477	18992.1
523.843	19037.07
524.21	19177.41
524.577	19317.51
524.943	19407.68
525.31	19510.5
525.676	19646.55
526.043	19690.61
526.409	19712.98
526.776	19903.04
527.142	19889.7
527.508	19932.19
527.874	20183.25
528.241	20174.67
528.607	20360.2
528.973	20431.16
529.339	20421.67
529.705	20515.9
530.071	20662.34
530.437	20640.19
530.803	20702.79
531.169	20843.35
531.535	20804.93
531.901	20905.27
532.267	20960.18
532.632	20993.18
532.998	20964.7
533.364	21013.97
533.73	20982.78
534.095	21200.63
534.461	21109.33
534.826	21196.34
535.192	21161.99
535.557	21254.41
535.923	21161.31
536.288	21299.84
536.653	21347.07
537.019	21146.62
537.384	21218.03
537.749	21239.27
538.114	21286.73
538.479	21208.99
538.845	21304.81
539.21	21190.46
539.575	21257.8
539.94	21250.35
540.305	21403.79
540.67	21259.16
541.034	21181.42
541.399	21187.52
541.764	21225.94
542.129	21103.91
542.494	21225.94
542.858	21181.42
543.223	21077.92
543.587	21125.15
543.952	21053.06
544.316	21112.04
544.681	20943.91
545.045	21136.68
545.41	21052.84
545.774	20945.04
546.138	20960.18
546.503	20945.27
546.867	20853.52
547.231	20967.41
547.595	20919.05
547.959	21027.75
548.324	20839.06
548.688	20849
549.052	20816.68
549.416	20756.57
549.779	20788.66
550.143	20734.43
550.507	20816.01
550.871	20765.16
551.235	20733.07
551.599	20900.07
551.962	20830.92
552.326	20697.37
552.689	20687.2
553.053	20579.18
553.417	20614.88
553.78	20664.37
554.143	20666.63
554.507	20648.78
554.87	20719.06
555.234	20736.91
555.597	20548.89
555.96	20604.26
556.323	20586.41
556.686	20632.06
557.05	20662.79
557.413	20618.27
557.776	20522.91
558.139	20680.87
558.502	20660.76
558.865	20528.56
559.228	20784.37
559.59	20799.74
559.953	20663.92
560.316	20879.73
560.679	20759.96
561.041	20907.3
561.404	20927.42
561.767	21080.63
562.129	20957.7
562.492	21022.1
562.854	21002.22
563.217	21069.33
563.579	21106.17
563.941	21124.7
564.304	21250.8
564.666	21312.72
565.028	21302.55
565.39	21300.74
565.753	21433.17
566.115	21473.16
566.477	21555.87
566.839	21597.68
567.201	21893.04
567.563	21763.55
567.925	21785.7
568.287	21930.1
568.648	21935.52
569.01	22114.28
569.372	22218.23
569.734	22216.87
570.095	22333.48
570.457	22441.95
570.819	22344.78
571.18	22477.88
571.542	22592.68
571.903	22554.27
572.265	22743.41
572.626	22757.65
572.987	22741.15
573.349	22985.67
573.71	23012.78
574.071	23191.31
574.432	23331.42
574.794	23350.63
575.155	23296.85
575.516	23278.09
575.877	23424.3
576.238	23546.33
576.599	23528.48
576.96	23536.84
577.32	23578.19
577.681	23721.01
578.042	23770.05
578.403	23653.9
578.763	23801.24
579.124	23796.49
579.485	23903.16
579.845	24026.09
580.206	23837.17
580.566	23938.18
580.927	24012.08
581.287	23982.48
581.648	23927.56
582.008	24015.47
582.368	24061.57
582.728	24105.19
583.089	24116.03
583.449	24075.13
583.809	24027.22
584.169	24273.99
584.529	24162.81
584.889	24181.79
585.249	24123.72
585.609	24038.07
585.969	24170.49
586.329	24054.57
586.688	24210.49
587.048	24039.2
587.408	24102.47
587.768	24133.66
588.127	24111.29
588.487	24144.96
588.846	24205.3
589.206	24027
589.565	24003.49
589.925	24157.16
590.284	24081.91
590.643	24065.64
591.003	24062.7
591.362	24199.42
591.721	24059.99
592.08	24217.72
592.44	24203.94
592.799	24084.17
593.158	24170.72
593.517	24025.41
593.876	24136.6
594.235	23959.88
594.593	24039.65
594.952	24159.42
595.311	24086.43
595.67	24025.87
596.029	24212.3
596.387	24153.32
596.746	24236.26
597.104	24027.9
597.463	23949.94
597.822	24167.1
598.18	24113.32
598.538	24020.67
598.897	24210.27
599.255	23968.01
599.613	24264.28
599.972	24042.59
600.33	24170.49
600.688	24009.37
601.046	24068.35
601.404	24187.67
601.762	24076.94
602.12	24271.96
602.478	24189.7
602.836	24233.09
603.194	24007.79
603.552	24074.45
603.91	24068.8
604.268	23990.16
604.625	24104.73
604.983	24220.66
605.341	24059.31
605.698	24289.36
606.056	24373.88
606.413	24183.83
606.771	24352.86
607.128	24282.36
607.485	24196.71
607.843	24154.22
608.2	24352.18
608.557	24373.88
608.914	24239.65
609.272	24391.05
609.629	24505.63
609.986	24563.03
610.343	24502.46
610.7	24646.64
611.057	24510.6
611.414	24548.34
611.771	24594.66
612.127	24755.79
612.484	24706.98
612.841	24681.22
613.198	24754.43
613.554	24636.24
613.911	24909.91
614.267	24865.39
614.624	24721.21
614.98	24862.23
615.337	25056.12
615.693	24946.75
616.05	24905.62
616.406	25154.42
616.762	25039.62
617.118	25061.32
617.475	24986.52
617.831	25232.84
618.187	25203.91
618.543	25165.72
618.899	25370.91
619.255	25269.45
619.611	25330.69
619.967	25421.76
620.323	25393.51
620.678	25243.69
621.034	25315.32
621.39	25344.93
621.746	25294.53
622.101	25591.25
622.457	25364.14
622.812	25479.61
623.168	25443.23
623.523	25509.67
623.879	25461.31
624.234	25577.69
624.589	25447.97
624.945	25514.41
625.3	25553.73
625.655	25579.04
626.01	25566.39
626.365	25676.22
626.72	25471.48
627.075	25530.46
627.43	25480.29
627.785	25540.63
628.14	25558.71
628.495	25590.8
628.85	25547.41
629.205	25453.4
629.559	25580.85
629.914	25508.99
630.269	25457.92
630.623	25431.7
630.978	25412.72
631.332	25514.19
631.687	25377.02
632.041	25410.46
632.396	25475.09
632.75	25286.62
633.104	25268.77
633.459	25259.73
633.813	25274.65
634.167	25215.89
634.521	25259.28
634.875	25288.43
635.229	25276.68
635.583	25015.22
635.937	25067.87
636.291	24979.29
636.645	25099.28
636.999	24903.58
637.352	25067.19
637.706	24897.25
638.06	24996.24
638.413	24914.88
638.767	24904.03
639.121	24964.82
639.474	24727.77
639.828	24780.65
640.181	24859.97
640.534	24766.64
640.888	24734.77
641.241	24590.6
641.594	24660.65
641.947	24719.63
642.301	24595.79
642.654	24713.98
643.007	24605.51
643.36	24607.55
643.713	24676.24
644.066	24799.18
644.419	24579.07
644.771	24186.09
645.124	24100.67
645.477	24148.35
645.83	23999.65
646.182	24020.89
646.535	23944.51
646.888	24129.59
647.24	24052.08
647.593	24210.72
647.945	24031.29
648.298	23914.68
648.65	23834.91
649.002	23737.06
649.355	23699.77
649.707	23581.36
650.059	23677.17
650.411	23957.17
650.763	24094.79
651.115	24645.06
651.467	24399.87
651.819	24515.12
652.171	24429.92
652.523	24325.29
652.875	24442.8
653.227	24365.74
653.578	24434.22
653.93	24406.65
654.282	24361.22
654.633	24369.13
654.985	24385.18
655.337	24427.21
655.688	24421.11
656.039	24507.21
656.391	24196.93
656.742	24448
657.094	24352.41
657.445	24373.43
657.796	24480.77
658.147	24402.58
658.498	24487.32
658.849	24594.21
659.2	24501.56
659.551	24433.99
659.902	24524.38
660.253	24413.2
660.604	24556.47
660.955	24481.9
661.306	24678.5
661.656	24541.11
662.007	24544.27
662.358	24615.68
662.708	24725.28
663.059	24703.81
663.409	24430.37
663.76	24716.02
664.11	24734.77
664.461	24649.8
664.811	24677.83
665.161	24744.72
665.511	24692.74
665.862	24689.35
666.212	24810.93
666.562	24864.71
666.912	24768.9
667.262	24706.53
667.612	24699.07
667.962	24812.06
668.312	24757.15
668.662	24977.7
669.011	24882.79
669.361	24835.34
669.711	24857.93
670.06	24771.61
670.41	24674.66
670.76	24731.38
671.109	24873.75
671.459	24778.16
671.808	24686.41
672.157	24744.72
672.507	24672.4
672.856	24641.89
673.205	24577.26
673.554	24889.8
673.904	24546.3
674.253	24768.22
674.602	24561.9
674.951	24385.18
675.3	24175.24
675.649	24553.99
675.998	24698.84
676.346	24592.4
676.695	24591.5
677.044	24418.62
677.393	24469.7
677.741	24596.25
678.09	24450.94
678.438	24371.17
678.787	24452.07
679.135	24454.78
679.484	24205.97
679.832	24203.26
680.181	24175.92
680.529	24188.35
680.877	24165.75
681.225	24215.24
681.573	24286.42
681.922	24100.21
682.27	24075.36
682.618	24069.93
682.966	23916.04
683.314	24080.78
683.661	23907.45
684.009	23842.37
684.357	23766.44
684.705	23650.73
685.053	23634.69
685.4	23575.03
685.748	23568.7
686.095	23511.08
686.443	23509.27
686.79	23381.59
687.138	23493.68
687.485	23355.37
687.832	23308.6
688.18	23179.79
688.527	23077.64
688.874	23151.31
689.221	23071.31
689.568	22969.17
689.915	22872.22
690.262	22779.34
690.609	22776.41
690.956	22560.59
691.303	22694.6
691.65	22572.8
691.997	22367.38
692.344	22371.22
692.69	22147.72
693.037	22207.38
693.383	21984.11
693.73	22121.96
694.077	21938.46
694.423	21953.6
694.769	21788.41
695.116	21853.95
695.462	21673.16
695.808	21501.41
696.155	21597.68
696.501	21345.71
696.847	21431.13
697.193	21193.85
697.539	21264.13
697.885	21054.64
698.231	20944.59
698.577	20952.73
698.923	20950.47
699.269	20730.36
699.614	20672.06
699.96	20549.12
700.306	20489.46
700.651	20440.87
700.997	20343.48
701.342	20392.06
701.688	20239.75
702.033	20245.4
702.379	20190.94
702.724	19992.53
703.069	20114.78
703.415	19734.9
703.76	19833.43
704.105	19780.78
704.45	19740.1
704.795	19607.22
705.14	19482.93
705.485	19508.47
705.83	19403.39
706.175	19443.84
706.52	19416.04
706.865	19376.5
707.209	19203.85
707.554	19161.81
707.899	19156.39
708.243	18969.5
708.588	18940.35
708.932	18882.72
709.277	18871.2
709.621	18796.62
709.966	18610.87
710.31	18732.9
710.654	18574.26
710.998	18632.56
711.342	18627.59
711.687	18607.25
712.031	18540.59
712.375	18445.22
712.719	18446.35
713.063	18372.45
713.407	18497.88
713.75	18372.91
714.094	18297.88
714.438	18368.39
714.782	18253.81
715.125	18306.92
715.469	18361.38
715.812	18214.72
716.156	18199.58
716.499	18211.56
716.843	18174.95
717.186	18185.12
717.53	18188.96
717.873	18191.44
718.216	18175.17
718.559	18153.93
718.902	18011.56
719.246	18108.73
719.589	18022.63
719.932	17971.56
720.275	18154.83
720.617	18055.85
720.96	18062.41
721.303	18078.23
721.646	18074.84
721.989	18013.59
722.331	18083.65
722.674	18050.43
723.016	18030.77
723.359	17959.36
723.701	18020.37
724.044	17960.71
724.386	17877.33
724.729	18075.74
725.071	18021.05
725.413	17958
725.755	18081.16
726.097	17962.97
726.439	18011.56
726.782	17985.8
727.124	17967.04
727.465	18106.25
727.807	17998
728.149	18030.32
728.491	17959.58
728.833	18113.48
729.175	17978.57
729.516	18068.51
729.858	18103.76
730.199	18181.05
730.541	18165.68
730.882	18116.42
731.224	18104.89
731.565	18068.06
731.906	18193.02
732.248	18226.47
732.589	18216.07
732.93	18240.48
733.271	18181.5
733.612	18277.54
733.953	18390.99
734.294	18315.73
734.635	18388.95
734.976	18548.27
735.317	18393.47
735.658	18433.7
735.999	18513.92
736.339	18590.3
736.68	18617.87
737.021	18657.42
737.361	18687.47
737.702	18775.83
738.042	18731.54
738.383	18948.48
738.723	18957.75
739.063	18872.1
739.404	19122.27
739.744	19021.7
740.084	19062.15
740.424	19257.63
740.764	19292.2
741.104	19498.53
741.444	19373.33
741.784	19462.37
742.124	19574.23
742.464	19709.14
742.804	19717.73
743.143	19784.62
743.483	20030.04
743.823	20022.13
744.162	20149.13
744.502	20304.16
744.841	20443.59
745.181	20574.88
745.52	20566.97
745.86	20789.57
746.199	20863.69
746.538	21031.14
746.877	21292.6
747.216	21425.48
747.556	21405.6
747.895	21671.35
748.234	21796.55
748.573	21839.93
748.911	22253.26
749.25	22267.95
749.589	22343.88
749.928	22706.13
750.267	23019.79
750.605	23072.9
750.944	23145.89
751.283	23358.09
751.621	23757.62
751.96	23744.06
752.298	24134.11
752.636	24291.17
752.975	24610.48
753.313	24755.11
753.651	25136.34
753.989	25243.01
