Data from 18-4530_FLMS001491_008.txt Node
Date: Thu Apr 19 16:44:21 BST 2018
User: hsy
Spectrometer: FLMS00149
Trigger mode: 0
Integration Time (sec): 1.000000E-2
Scans to average: 10
Electric dark correction enabled: true
Nonlinearity correction enabled: false
Boxcar width: 0
XAxis mode: Wavelengths
Number of Pixels in Spectrum: 2048
>>>>>Begin Spectral Data<<<<<
341.393	14.42
341.776	14.42
342.16	14.42
342.543	-70.1
342.927	-79.59
343.31	-69.65
343.693	-61.06
344.077	-50.89
344.46	-54.05
344.843	-56.76
345.226	-60.38
345.61	-42.75
345.993	-17.44
346.376	-14.51
346.759	2.44
347.142	14.19
347.525	63.68
347.908	62.55
348.291	93.06
348.674	80.63
349.057	110.92
349.44	126.73
349.823	139.39
350.206	166.28
350.588	207.86
350.971	244.47
351.354	258.71
351.737	270.91
352.119	274.3
352.502	289.89
352.884	298.03
353.267	302.1
353.65	319.05
354.032	337.58
354.414	338.03
354.797	349.55
355.179	355.2
355.562	350.23
355.944	358.82
356.326	359.72
356.709	375.77
357.091	378.93
357.473	371.93
357.855	378.48
358.238	372.38
358.62	374.41
359.002	384.81
359.384	390.68
359.766	386.61
360.148	379.38
360.53	371.02
360.912	375.09
361.294	384.58
361.676	391.13
362.057	370.34
362.439	374.86
362.821	388.87
363.203	368.08
363.584	370.12
363.966	351.13
364.348	359.04
364.729	375.99
365.111	375.31
365.493	370.34
365.874	338.03
366.256	360.63
366.637	359.95
367.019	352.26
367.4	381.42
367.781	372.6
368.163	368.76
368.544	374.64
368.925	365.37
369.306	370.8
369.688	356.78
370.069	378.93
370.45	370.8
370.831	380.29
371.212	394.52
371.593	362.89
371.974	366.73
372.355	373.96
372.736	396.78
373.117	382.77
373.498	383.45
373.879	383.68
374.26	377.8
374.641	387.52
375.021	374.19
375.402	390.23
375.783	394.98
376.163	408.53
376.544	398.37
376.925	389.55
377.305	400.4
377.686	403.79
378.066	404.24
378.447	404.92
378.827	403.11
379.208	411.25
379.588	424.13
379.968	413.73
380.349	421.64
380.729	401.98
381.109	417.57
381.489	421.42
381.87	423.9
382.25	428.42
382.63	452.83
383.01	438.36
383.39	449.66
383.77	463.45
384.15	441.3
384.53	437.01
384.91	451.02
385.29	456.89
385.67	452.38
386.049	455.54
386.429	478.36
386.809	480.4
387.189	478.36
387.568	482.43
387.948	489.66
388.328	491.92
388.707	498.02
389.087	478.59
389.466	490.57
389.846	500.06
390.225	504.58
390.605	522.43
390.984	528.08
391.363	513.84
391.743	503
392.122	516.78
392.501	522.66
392.881	535.54
393.26	547.06
393.639	540.73
394.018	551.36
394.397	549.55
394.776	560.17
395.155	566.72
395.534	536.21
395.913	578.02
396.292	583.22
396.671	571.69
397.05	579.15
397.429	589.09
397.808	589.32
398.186	607.17
398.565	582.32
398.944	598.59
399.323	577.57
399.701	620.28
400.08	629.55
400.458	639.49
400.837	642.88
401.215	635.87
401.594	648.53
401.972	653.05
402.351	635.42
402.729	642.43
403.107	651.24
403.486	674.74
403.864	670.9
404.242	677.68
404.62	688.53
404.999	700.73
405.377	727.4
405.755	713.61
406.133	729.88
406.511	726.27
406.889	751.58
407.267	740.5
407.645	739.15
408.023	775.08
408.401	761.29
408.779	798.13
409.156	823.44
409.534	795.42
409.912	831.12
410.29	834.06
410.667	815.76
411.045	839.48
411.422	877.67
411.8	860.05
412.178	892.59
412.555	919.48
412.933	921.29
413.31	929.65
413.687	947.73
414.065	961.51
414.442	942.98
414.819	977.33
415.197	961.29
415.574	979.59
415.951	1001.74
416.328	1005.13
416.705	1015.52
417.082	1033.38
417.46	1048.97
417.837	1049.65
418.214	1049.87
418.591	1060.95
418.967	1076.09
419.344	1061.4
419.721	1093.94
420.098	1100.04
420.475	1102.98
420.852	1125.13
421.228	1121.06
421.605	1115.86
421.982	1148.18
422.358	1169.19
422.735	1162.64
423.111	1165.8
423.488	1210.55
423.864	1217.1
424.241	1226.14
424.617	1242.86
424.994	1264.78
425.37	1274.5
425.746	1257.33
426.123	1314.95
426.499	1285.57
426.875	1328.96
427.251	1352.92
427.627	1370.54
428.003	1392.92
428.379	1381.62
428.756	1407.83
429.132	1438.11
429.507	1438.79
429.883	1467.72
430.259	1477.88
430.635	1502.07
431.011	1506.13
431.387	1541.61
431.763	1584.32
432.138	1566.24
432.514	1578.9
432.89	1628.16
433.265	1647.15
433.641	1632.91
434.016	1686.24
434.392	1714.71
434.767	1757.43
435.143	1748.84
435.518	1761.27
435.894	1785.22
436.269	1819.8
436.644	1819.34
437.02	1869.51
437.395	1879.68
437.77	1923.75
438.145	1932.79
438.52	1924.88
438.895	1943.86
439.271	1946.57
439.646	1974.14
440.021	2017.98
440.395	2050.98
440.77	2001.49
441.145	2083.07
441.52	2088.49
441.895	2109.96
442.27	2110.41
442.645	2111.31
443.019	2098.21
443.394	2133.01
443.769	2179.34
444.143	2189.05
444.518	2173.46
444.892	2208.49
445.267	2237.41
445.641	2227.47
446.016	2277.86
446.39	2268.82
446.764	2283.74
447.139	2268.6
447.513	2293.91
447.887	2345.21
448.262	2318.99
448.636	2344.75
449.01	2374.36
449.384	2414.81
449.758	2408.03
450.132	2451.42
450.506	2440.8
450.88	2477.41
451.254	2486.67
451.628	2500.23
452.002	2569.61
452.376	2578.42
452.75	2609.83
453.123	2636.05
453.497	2690.96
453.871	2669.04
454.244	2749.94
454.618	2778.87
454.992	2790.17
455.365	2778.87
455.739	2910.84
456.112	2925.98
456.486	2932.99
456.859	2931.18
457.232	3047.34
457.606	3045.75
457.979	3046.21
458.352	3175.24
458.725	3160.33
459.099	3150.84
459.472	3246.88
459.845	3288.23
460.218	3300.66
460.591	3373.43
460.964	3383.6
461.337	3400.55
461.71	3518.51
462.083	3557.83
462.456	3535.68
462.829	3560.32
463.201	3645.06
463.574	3644.16
463.947	3676.7
464.32	3714.89
464.692	3756.7
465.065	3836.24
465.438	3862.23
465.81	3892.51
466.183	3957.59
466.555	4037.82
466.928	4076.91
467.3	4067.87
467.672	4119.85
468.045	4219.51
468.417	4213.41
468.789	4250.69
469.161	4303.57
469.534	4403.46
469.906	4455.43
470.278	4500.4
470.65	4565.26
471.022	4600.29
471.394	4638.48
471.766	4730.68
472.138	4762.54
472.51	4891.35
472.882	4874.86
473.253	4959.38
473.625	4980.62
473.997	5140.84
474.369	5146.26
474.74	5256.09
475.112	5306.48
475.484	5358.01
475.855	5498.34
476.227	5546.7
476.598	5719.58
476.97	5717.55
477.341	5894.49
477.713	5956.64
478.084	5999.35
478.455	6146.01
478.827	6183.3
479.198	6349.85
479.569	6379.68
479.94	6532.67
480.311	6657.41
480.682	6701.48
481.053	6932.66
481.424	7035.93
481.795	7063.95
482.166	7206.32
482.537	7340.56
482.908	7463.94
483.279	7533.09
483.65	7675.01
484.021	7844.72
484.391	7920.88
484.762	8025.51
485.133	8127.2
485.503	8166.3
485.874	8455.55
486.244	8517.93
486.615	8717.24
486.985	8771.93
487.356	8905.71
487.726	9041.08
488.097	9274.74
488.467	9295.31
488.837	9455.08
489.207	9584.79
489.578	9759.93
489.948	9825.24
490.318	10034.27
490.688	10062.07
491.058	10274.04
491.428	10450.3
491.798	10477.42
492.168	10675.16
492.538	10756.74
492.908	10933.68
493.278	11105.2
493.648	11145.43
494.017	11249.61
494.387	11398.3
494.757	11496.15
495.126	11516.49
495.496	11681.46
495.866	11784.73
496.235	11961
496.605	12033.99
496.974	12098.62
497.344	12251.84
497.713	12413.64
498.082	12460.65
498.452	12594.65
498.821	12728.44
499.19	12747.65
499.559	12878.04
499.928	12942.89
500.298	13058.37
500.667	13228.54
501.036	13169.1
501.405	13344.01
501.774	13440.96
502.143	13501.52
502.512	13607.06
502.88	13775.41
503.249	13701.07
503.618	13909.42
503.987	13947.84
504.356	14024.67
504.724	14137.89
505.093	14139.02
505.462	14277.32
505.83	14324.55
506.199	14437.54
506.567	14671.44
506.936	14697.2
507.304	14941.94
507.672	14896.29
508.041	14956.63
508.409	14990.07
508.777	15090.86
509.145	15273
509.514	15290.4
509.882	15378.99
510.25	15463.28
510.618	15554.8
510.986	15603.62
511.354	15761.58
511.722	16009.03
512.09	16027.33
512.458	15975.58
512.826	16201.34
513.193	16285.63
513.561	16312.75
513.929	16481.78
514.297	16599.97
514.664	16621.44
515.032	16789.8
515.4	16862.79
515.767	16949.34
516.135	17098.27
516.502	16917.7
516.869	17254.42
517.237	17342.33
517.604	17129.68
517.972	17553.17
518.339	17597.24
518.706	17659.15
519.073	17718.36
519.44	17929.88
519.808	17980.05
520.175	18097.33
520.542	18383.88
520.909	18409.64
521.276	18454.39
521.643	18640.37
522.009	18721.05
522.376	18806.92
522.743	18926.47
523.11	19123.3
523.477	19396.28
523.843	19434.25
524.21	19566.22
524.577	19712.66
524.943	19820.91
525.31	19843.05
525.676	20074.46
526.043	20181.12
526.409	20274.68
526.776	20442.13
527.142	20491.4
527.508	20612.3
527.874	20775.46
528.241	20964.6
528.607	20983.59
528.973	21165.73
529.339	21178.61
529.705	21485.27
530.071	21518.94
530.437	21661.31
530.803	21709.22
531.169	21770.68
531.535	21790.12
531.901	21930.45
532.267	22072.6
532.632	22101.07
532.998	22144.69
533.364	22244.57
533.73	22369.76
534.095	22504.22
534.461	22419.71
534.826	22520.27
535.192	22598.01
535.557	22930.88
535.923	22681.17
536.288	22774.05
536.653	22835.29
537.019	22911.67
537.384	22896.76
537.749	22994.16
538.114	23063.98
538.479	23065.11
538.845	23118.67
539.21	23072.35
539.575	23153.25
539.94	23176.07
540.305	23341.26
540.67	23294.26
541.034	23367.48
541.399	23308.05
541.764	23434.14
542.129	23377.2
542.494	23542.16
542.858	23524.76
543.223	23456.74
543.587	23610.18
543.952	23542.39
544.316	23531.77
544.681	23565.67
545.045	23690.63
545.41	23714.36
545.774	23666.45
546.138	23653.12
546.503	23797.52
546.867	23711.65
547.231	23885.21
547.595	23809.05
547.959	23836.62
548.324	23805.43
548.688	23882.72
549.052	23953.9
549.416	23920.91
549.779	23897.86
550.143	23902.38
550.507	24145.31
550.871	24103.96
551.235	23970.4
551.599	24192.99
551.962	24296.72
552.326	24215.82
552.689	24260.34
553.053	24079.78
553.417	24152.54
553.78	24329.71
554.143	24414.23
554.507	24457.62
554.87	24423.72
555.234	24584.4
555.597	24394.57
555.96	24585.3
556.323	24524.28
556.686	24533.55
557.05	24700.55
557.413	24618.29
557.776	24647.67
558.139	24908.68
558.502	24939.64
558.865	24815.12
559.228	25067.55
559.59	24989.36
559.953	25038.62
560.316	25388.22
560.679	25239.52
561.041	25420.76
561.404	25458.72
561.767	25644.71
562.129	25565.84
562.492	25779.17
562.854	25870.46
563.217	25863.01
563.579	26046.96
563.941	26121.53
564.304	26201.3
564.666	26309.1
565.028	26448.98
565.39	26395.65
565.753	26606.49
566.115	26629.99
566.477	26636.09
566.839	26815.3
567.201	27112.69
567.563	26962.41
567.925	27241.5
568.287	27180.94
568.648	27419.12
569.01	27669.96
569.372	27907.02
569.734	27893.69
570.095	27895.72
570.457	28222.94
570.819	28186.56
571.18	28163.06
571.542	28524.63
571.903	28452.32
572.265	28605.53
572.626	28712.42
572.987	28780.9
573.349	29147.21
573.71	29049.14
574.071	29177.72
574.432	29401.67
574.794	29471.73
575.155	29485.74
575.516	29505.62
575.877	29613.64
576.238	29720.76
576.599	29772.96
576.96	29877.59
577.32	30025.16
577.681	29938.61
578.042	30263.79
578.403	30171.37
578.763	30349.44
579.124	30282.78
579.485	30630.79
579.845	30588.98
580.206	30516.67
580.566	30517.8
580.927	30563.67
581.287	30735.19
581.648	30599.38
582.008	30774.74
582.368	30781.07
582.728	30814.06
583.089	30880.73
583.449	30820.84
583.809	30930.67
584.169	31051.34
584.529	30965.25
584.889	31132.25
585.249	30865.36
585.609	30872.14
585.969	30937.22
586.329	30727.06
586.688	30974.06
587.048	30962.76
587.408	30996.88
587.768	30953.72
588.127	30986.94
588.487	30903.1
588.846	31160.72
589.206	30791.24
589.565	30849.09
589.925	31118.24
590.284	30917.34
590.643	30938.81
591.003	30914.62
591.362	31033.72
591.721	31063.1
592.08	30852.71
592.44	31075.52
592.799	30876.43
593.158	30882.99
593.517	30835.76
593.876	31009.54
594.235	30932.48
594.593	30837.79
594.952	31036.2
595.311	30891.35
595.67	31010.22
596.029	31127.5
596.387	31250.44
596.746	31139.03
597.104	30982.65
597.463	30947.17
597.822	31096.54
598.18	30931.12
598.538	31069.2
598.897	31175.41
599.255	30938.13
599.613	31337.44
599.972	31108.29
600.33	31235.07
600.688	31058.58
601.046	30944.23
601.404	31447.94
601.762	31208.4
602.12	31244.11
602.478	31207.95
602.836	31298.57
603.194	31068.07
603.552	31212.02
603.91	31056.32
604.268	31172.7
604.625	31152.13
604.983	31289.3
605.341	31067.62
605.698	31397.1
606.056	31372.24
606.413	31205.01
606.771	31417.21
607.128	31253.15
607.485	31347.16
607.843	31272.58
608.2	31483.88
608.557	31573.82
608.914	31341.51
609.272	31558
609.629	31737.65
609.986	31676.19
610.343	31610.88
610.7	31839.8
611.057	31868.27
611.414	31743.3
611.771	31980.59
612.127	32021.94
612.484	32083.86
612.841	32140.81
613.198	31957.76
613.554	31948.5
613.911	32227.58
614.267	32221.48
614.624	32132.22
614.98	32210.86
615.337	32406.11
615.693	32369.73
616.05	32442.27
616.406	32607.69
616.762	32432.78
617.118	32470.06
617.475	32516.39
617.831	32624.41
618.187	32693.79
618.543	32630.51
618.899	32807.23
619.255	32771.98
619.611	32716.61
619.967	32927.91
620.323	33000.45
620.678	32788.02
621.034	32844.74
621.39	32844.97
621.746	32789.6
622.101	33083.61
622.457	32835.48
622.812	32918.41
623.168	33056.04
623.523	33015.36
623.879	33206.32
624.234	32982.14
624.589	33021.24
624.945	33047
625.3	33172.87
625.655	33052.2
626.01	33129.03
626.365	33286.54
626.72	33027.56
627.075	33096.49
627.43	33106.21
627.785	33054.46
628.14	33147.33
628.495	33159.31
628.85	33115.47
629.205	32868.7
629.559	33240.44
629.914	33088.13
630.269	33049.03
630.623	32816.72
630.978	32847.46
631.332	32998.86
631.687	32930.17
632.041	32786.21
632.396	32911.18
632.75	32883.39
633.104	32905.76
633.459	32777.17
633.813	32773.11
634.167	32704.41
634.521	32731.53
634.875	32655.82
635.229	32572.21
635.583	32357.75
635.937	32435.94
636.291	32474.81
636.645	32576.28
636.999	32395.26
637.352	32520.46
637.706	32241.6
638.06	32507.13
638.413	32284.98
638.767	32169.73
639.121	32282.5
639.474	32164.08
639.828	32103.75
640.181	32218.32
640.534	32261.03
640.888	32030.98
641.241	31969.51
641.594	31958.44
641.947	32082.05
642.301	31840.93
642.654	31961.38
643.007	31920.25
643.36	31993.24
643.713	31842.06
644.066	32025.1
644.419	31748.05
644.771	31462.63
645.124	31250.66
645.477	31226.48
645.83	31172.25
646.182	31057.22
646.535	31015.64
646.888	31075.75
647.24	31092.7
647.593	31112.36
647.945	30884.57
648.298	31047.95
648.65	30789.66
649.002	30595.09
649.355	30465.37
649.707	30342.21
650.059	30421.08
650.411	30907.39
650.763	31020.61
651.115	31555.74
651.467	31468.96
651.819	31546.7
652.171	31405.01
652.523	31327.72
652.875	31439.81
653.227	31351.9
653.578	31426.25
653.93	31427.38
654.282	31334.5
654.633	31250.89
654.985	31457.89
655.337	31461.73
655.688	31264.22
656.039	31449.07
656.391	31115.07
656.742	31254.5
657.094	31206.37
657.445	31355.97
657.796	31480.26
658.147	31301.73
658.498	31386.7
658.849	31434.84
659.2	31368.85
659.551	31247.95
659.902	31443.88
660.253	31347.61
660.604	31469.19
660.955	31396.42
661.306	31553.48
661.656	31440.71
662.007	31392.8
662.358	31496.98
662.708	31422.18
663.059	31543.31
663.409	31277.55
663.76	31472.8
664.11	31527.26
664.461	31568.62
664.811	31643.87
665.161	31531.78
665.511	31493.59
665.862	31430.54
666.212	31549.41
666.562	31750.76
666.912	31490.88
667.262	31524.1
667.612	31522.74
667.962	31665.57
668.312	31492.69
668.662	31807.93
669.011	31757.99
669.361	31536.76
669.711	31529.52
670.06	31415.18
670.41	31473.03
670.76	31573.36
671.109	31456.53
671.459	31474.84
671.808	31451.11
672.157	31650.2
672.507	31283.43
672.856	31207.27
673.205	31346.48
673.554	31378.57
673.904	31357.33
674.253	31573.82
674.602	31241.4
674.951	30781.07
675.3	30642.09
675.649	31267.16
675.998	31164.11
676.346	31195.07
676.695	31317.78
677.044	31007.28
677.393	31114.17
677.741	31163.21
678.09	31104.22
678.438	31022.42
678.787	31020.38
679.135	31023.32
679.484	30729.32
679.832	30975.19
680.181	30770
680.529	30725.7
680.877	30688.42
681.225	30768.64
681.573	30847.96
681.922	30607.51
682.27	30583.79
682.618	30550.57
682.966	30552.6
683.314	30431.25
683.661	30386.28
684.009	30285.49
684.357	30191.25
684.705	30116.68
685.053	30106.28
685.4	29969.34
685.748	30037.36
686.095	29857.25
686.443	29853.64
686.79	29816.57
687.138	29770.25
687.485	29568.45
687.832	29495.45
688.18	29675.11
688.527	29533.42
688.874	29403.48
689.221	29322.35
689.568	29275.57
689.915	29129.14
690.262	29070.83
690.609	29133.88
690.956	28903.83
691.303	28882.14
691.65	28781.57
691.997	28678.07
692.344	28599.21
692.69	28368.7
693.037	28443.96
693.383	28175.26
693.73	28281.7
694.077	28138.43
694.423	28036.96
694.769	27783.86
695.116	27846.46
695.462	27735.05
695.808	27684.88
696.155	27701.15
696.501	27454.83
696.847	27448.5
697.193	27218.9
697.539	27288.73
697.885	27141.62
698.231	27011.9
698.577	26948.63
698.923	26933.71
699.269	26770.55
699.614	26741.18
699.96	26518.13
700.306	26418.02
700.651	26360.85
700.997	26212.15
701.342	26172.6
701.688	26085.6
702.033	25939.16
702.379	25985.94
702.724	25820.75
703.069	25889.9
703.415	25514.32
703.76	25572.39
704.105	25568.55
704.45	25489.46
704.795	25274.77
705.14	25172.86
705.485	25192.06
705.83	25051.95
706.175	25049.47
706.52	25017.6
706.865	24892.86
707.209	24869.81
707.554	24813.99
707.899	24851.73
708.243	24704.17
708.588	24623.94
708.932	24377.17
709.277	24545.75
709.621	24303.5
709.966	24248.81
710.31	24412.42
710.654	24105.09
710.998	24287.45
711.342	24153.22
711.687	24124.97
712.031	24134.92
712.375	23894.7
712.719	23946.22
713.063	23947.8
713.407	23983.51
713.75	23949.61
714.094	23838.43
714.438	23763.85
714.782	23784.42
715.125	23614.48
715.469	23755.72
715.812	23555.27
716.156	23683.18
716.499	23613.8
716.843	23503.75
717.186	23484.09
717.53	23576.29
717.873	23633.69
718.216	23444.76
718.559	23473.92
718.902	23283.19
719.246	23296.97
719.589	23221.27
719.932	23281.15
720.275	23355.05
720.617	23295.62
720.96	23268.72
721.303	23346.46
721.646	23429.4
721.989	23224.66
722.331	23267.37
722.674	23233.47
723.016	23214.71
723.359	23182.62
723.701	23202.06
724.044	23129.29
724.386	23046.13
724.729	23178.33
725.071	23075.96
725.413	23210.42
725.755	23065.57
726.097	23029.18
726.439	23027.83
726.782	22984.21
727.124	23109.86
727.465	23015.62
727.807	23078.45
728.149	23024.66
728.491	23109.63
728.833	23079.12
729.175	23221.04
729.516	23077.54
729.858	23073.25
730.199	23109.18
730.541	23209.74
730.882	23139.01
731.224	23191.44
731.565	23013.59
731.906	23085.45
732.248	23111.89
732.589	23087.71
732.93	23159.35
733.271	23237.99
733.612	23089.75
733.953	23177.2
734.294	23191.66
734.635	23084.77
734.976	23230.99
735.317	23301.27
735.658	23298.55
735.999	23236.86
736.339	23139.91
736.68	23371.32
737.021	23312.79
737.361	23192.12
737.702	23426.91
738.042	23445.44
738.383	23538.1
738.723	23631.43
739.063	23486.35
739.404	23607.7
739.744	23608.83
740.084	23646.79
740.424	23680.46
740.764	23710.52
741.104	23895.6
741.444	23737.86
741.784	23877.52
742.124	24030.96
742.464	24052.21
742.804	24001.36
743.143	24077.52
743.483	24257.85
743.823	24206.78
744.162	24384.85
744.502	24479.31
744.841	24396.83
745.181	24658.29
745.52	24667.11
745.86	24770.15
746.199	24858.74
746.538	24873.2
746.877	25273.87
747.216	25220.99
747.556	25229.58
747.895	25543.24
748.234	25470.02
748.573	25508.67
748.911	25573.52
749.25	25835.89
749.589	25812.39
749.928	25952.5
750.267	26170.57
750.605	26252.37
750.944	26400.62
751.283	26405.82
751.621	26704.79
751.96	26851.23
752.298	26823.43
752.636	27038.79
752.975	27189.53
753.313	27256.19
753.651	27548.84
753.989	27603.75
