Data from 18-4330_FLMS001491_008.txt Node
Date: Thu Apr 19 16:43:40 BST 2018
User: hsy
Spectrometer: FLMS00149
Trigger mode: 0
Integration Time (sec): 1.000000E-2
Scans to average: 10
Electric dark correction enabled: true
Nonlinearity correction enabled: false
Boxcar width: 0
XAxis mode: Wavelengths
Number of Pixels in Spectrum: 2048
>>>>>Begin Spectral Data<<<<<
341.393	-9.11
341.776	-9.11
342.16	-9.11
342.543	-70.35
342.927	-60.63
343.31	-59.73
343.693	-67.41
344.077	-68.77
344.46	-64.02
344.843	-59.5
345.226	-43.46
345.61	-25.83
345.993	-37.36
346.376	6.03
346.759	-0.07
347.142	18.69
347.525	44.9
347.908	66.82
348.291	80.61
348.674	101.17
349.057	107.95
349.44	113.37
349.823	147.95
350.206	179.59
350.588	221.84
350.971	234.27
351.354	250.09
351.737	263.43
352.119	295.74
352.502	282.41
352.884	297.1
353.267	315.18
353.65	317.21
354.032	304.33
354.414	323.08
354.797	356.76
355.179	354.27
355.562	349.3
355.944	377.32
356.326	359.69
356.709	338
357.091	380.71
357.473	383.65
357.855	375.29
358.238	373.48
358.62	348.17
359.002	357.43
359.384	388.62
359.766	356.53
360.148	374.16
360.53	358.34
360.912	378.45
361.294	370.32
361.676	386.36
362.057	382.74
362.439	380.48
362.821	360.37
363.203	357.21
363.584	376.19
363.966	359.69
364.348	350.88
364.729	367.83
365.111	346.59
365.493	357.66
365.874	361.95
366.256	354.5
366.637	330.32
367.019	368.06
367.4	356.3
367.781	340.49
368.163	354.04
368.544	361.95
368.925	366.93
369.306	355.4
369.688	359.92
370.069	353.82
370.45	367.15
370.831	373.03
371.212	361.73
371.593	365.8
371.974	367.6
372.355	356.76
372.736	354.72
373.117	369.41
373.498	382.29
373.879	365.57
374.26	366.93
374.641	363.54
375.021	371.22
375.402	381.16
375.783	383.65
376.163	391.56
376.544	390.43
376.925	392.46
377.305	374.38
377.686	401.73
378.066	395.17
378.447	377.32
378.827	399.92
379.208	389.52
379.588	409.18
379.968	412.12
380.349	409.86
380.729	427.04
381.109	407.83
381.489	413.03
381.87	408.73
382.25	413.03
382.63	387.04
383.01	422.29
383.39	427.71
383.77	433.14
384.15	426.81
384.53	445.57
384.91	420.03
385.29	428.17
385.67	436.08
386.049	436.98
386.429	437.43
386.809	451.67
387.189	452.8
387.568	440.37
387.948	443.99
388.328	463.65
388.707	475.85
389.087	429.52
389.466	478.33
389.846	465.91
390.225	478.79
390.605	479.69
390.984	481.05
391.363	464.55
391.743	497.77
392.122	468.62
392.501	509.29
392.881	519.46
393.26	512.46
393.639	534.6
394.018	521.05
394.397	501.39
394.776	528.96
395.155	547.94
395.534	526.47
395.913	547.49
396.292	564.89
396.671	578.9
397.05	550.2
397.429	547.26
397.808	538.45
398.186	549.07
398.565	557.65
398.944	580.25
399.323	570.08
399.701	572.34
400.08	582.96
400.458	594.94
400.837	586.58
401.215	582.06
401.594	635.39
401.972	597.43
402.351	619.35
402.729	594.04
403.107	638.33
403.486	636.97
403.864	626.58
404.242	631.33
404.62	665
404.999	668.39
405.377	664.32
405.755	666.58
406.133	704.32
406.511	703.41
406.889	718.55
407.267	751.77
407.645	739.12
408.023	707.93
408.401	741.15
408.779	755.62
409.156	759.46
409.534	776.86
409.912	779.34
410.29	797.2
410.667	829.96
411.045	811.43
411.422	851.21
411.8	848.27
412.178	858.21
412.555	885.56
412.933	878.1
413.31	893.24
413.687	912.45
414.065	923.07
414.442	919.91
414.819	937.53
415.197	953.58
415.574	960.36
415.951	958.55
416.328	966.91
416.705	1007.59
417.082	984.08
417.46	1031.77
417.837	1019.56
418.214	1024.31
418.591	1040.13
418.967	1049.62
419.344	1095.95
419.721	1053.24
420.098	1084.87
420.475	1111.09
420.852	1126.23
421.228	1130.3
421.605	1140.92
421.982	1138.2
422.358	1185.66
422.735	1175.49
423.111	1163.06
423.488	1215.49
423.864	1201.48
424.241	1241.25
424.617	1245.32
424.994	1253
425.37	1266.56
425.746	1294.58
426.123	1298.2
426.499	1312.44
426.875	1339.78
427.251	1359.22
427.627	1389.05
428.003	1396.05
428.379	1459.78
428.756	1415.26
429.132	1456.84
429.507	1445.09
429.883	1504.07
430.259	1524.64
430.635	1552.66
431.011	1557.63
431.387	1559.66
431.763	1584.52
432.138	1639.43
432.514	1636.5
432.89	1619.32
433.265	1692.09
433.641	1723.73
434.016	1734.57
434.392	1778.41
434.767	1804.4
435.143	1811.41
435.518	1867
435.894	1880.78
436.269	1902.93
436.644	1941.8
437.02	1942.48
437.395	1952.65
437.77	1982.02
438.145	2023.15
438.52	2050.04
438.895	2070.84
439.271	2064.28
439.646	2161.45
440.021	2108.57
440.395	2145.86
440.77	2149.03
441.145	2165.75
441.52	2201.23
441.895	2243.03
442.27	2271.96
442.645	2266.54
443.019	2295.69
443.394	2323.94
443.769	2342.92
444.143	2350.6
444.518	2382.47
444.892	2379.3
445.267	2412.75
445.641	2394.89
446.016	2466.31
446.39	2498.62
446.764	2456.14
447.139	2492.29
447.513	2506.98
447.887	2498.17
448.262	2520.77
448.636	2533.87
449.01	2595.34
449.384	2625.62
449.758	2634.66
450.132	2676.02
450.506	2693.19
450.88	2701.1
451.254	2708.33
451.628	2765.51
452.002	2766.41
452.376	2811.83
452.75	2874.2
453.123	2852.96
453.497	2907.2
453.871	2942
454.244	3026.97
454.618	3067.87
454.992	3084.37
455.365	3100.19
455.739	3112.39
456.112	3213.86
456.486	3213.4
456.859	3257.47
457.232	3330.46
457.606	3371.59
457.979	3387.41
458.352	3478.93
458.725	3473.96
459.099	3556.45
459.472	3588.31
459.845	3634.64
460.218	3641.19
460.591	3684.35
460.964	3698.59
461.337	3766.84
461.71	3889.54
462.083	3929.32
462.456	3896.78
462.829	3937.23
463.201	3996.66
463.574	3998.02
463.947	4098.13
464.32	4152.36
464.692	4162.76
465.065	4237.11
465.438	4285.01
465.81	4333.37
466.183	4350.32
466.555	4519.81
466.928	4493.6
467.3	4481.17
467.672	4579.24
468.045	4616.08
468.417	4668.06
468.789	4700.6
469.161	4784.66
469.534	4832.8
469.906	4969.29
470.278	4953.7
470.65	4992.11
471.022	5130.42
471.394	5203.86
471.766	5236.85
472.138	5320.47
472.51	5438.66
472.882	5459.9
473.253	5504.19
473.625	5590.52
473.997	5673.23
474.369	5728.82
474.74	5826.44
475.112	5880.68
475.484	5983.73
475.855	6066.44
476.227	6170.61
476.598	6267.11
476.97	6355.69
477.341	6501.45
477.713	6522.47
478.084	6655.8
478.455	6853.53
478.827	6784.16
479.198	6975.34
479.569	7068.44
479.94	7144.37
480.311	7268.66
480.682	7375.78
481.053	7608.54
481.424	7693.51
481.795	7847.41
482.166	7970.34
482.537	7997.46
482.908	8172.37
483.279	8292.14
483.65	8430.89
484.021	8547.5
484.391	8668.4
484.762	8771.68
485.133	8918.11
485.503	8954.27
485.874	9131.44
486.244	9234.94
486.615	9440.59
486.985	9566.23
487.356	9762.84
487.726	9821.37
488.097	9967.58
488.467	10063.39
488.837	10207.57
489.207	10449.37
489.578	10573.66
489.948	10685.52
490.318	10879.42
490.688	10845.07
491.058	11090.71
491.428	11198.73
491.798	11289.12
492.168	11505.62
492.538	11658.15
492.908	11719.85
493.278	11911.03
493.648	11892.72
494.017	12068.76
494.387	12150.12
494.757	12320.51
495.126	12468.75
495.496	12513.95
495.866	12572.03
496.235	12789.2
496.605	12836.2
496.974	12832.36
497.344	12979.02
497.713	13060.83
498.082	13103.99
498.452	13293.82
498.821	13362.06
499.19	13391.89
499.559	13503.08
499.928	13553.7
500.298	13638.44
500.667	13787.36
501.036	13742.39
501.405	13892.45
501.774	13893.8
502.143	14021.71
502.512	14085.89
502.88	14223.96
503.249	14216.96
503.618	14390.51
503.987	14364.07
504.356	14423.5
504.724	14516.61
505.093	14533.33
505.462	14663.05
505.83	14703.27
506.199	14873.21
506.567	14992.76
506.936	14938.97
507.304	15088.35
507.672	15156.14
508.041	15128.12
508.409	15261.67
508.777	15347.77
509.145	15482.23
509.514	15494.66
509.882	15620.99
510.25	15590.03
510.618	15737.37
510.986	15763.36
511.354	15841.32
511.722	16032.95
512.09	16153.18
512.458	16027.98
512.826	16187.98
513.193	16268.65
513.561	16311.36
513.929	16402.66
514.297	16502.55
514.664	16588.19
515.032	16595.88
515.4	16748.42
515.767	16739.15
516.135	16732.82
516.502	16721.07
516.869	16979.82
517.237	17042.42
517.604	16890.11
517.972	17206.93
518.339	17202.87
518.706	17320.15
519.073	17340.49
519.44	17379.36
519.808	17651.44
520.175	17630.43
520.542	17702.97
520.909	17851.66
521.276	17816.64
521.643	18094.37
522.009	18086.69
522.376	18208.49
522.743	18259.11
523.11	18447.13
523.477	18492.1
523.843	18570.29
524.21	18709.49
524.577	18824.97
524.943	18878.76
525.31	18947.68
525.676	19184.51
526.043	19138.18
526.409	19234.68
526.776	19428.35
527.142	19426.54
527.508	19432.86
527.874	19637.83
528.241	19784.95
528.607	19684.84
528.973	19887.77
529.339	19809.13
529.705	20017.48
530.071	20117.82
530.437	20227.19
530.803	20367.53
531.169	20277.59
531.535	20333.63
531.901	20358.04
532.267	20363.01
532.632	20457.47
532.998	20514.42
533.364	20576.11
533.73	20556.45
534.095	20804.35
534.461	20623.57
534.826	20717.35
535.192	20700.4
535.557	20831.7
535.923	20750.8
536.288	20790.8
536.653	20845.26
537.019	20877.12
537.384	20898.59
537.749	20843.68
538.114	20897.46
538.479	20735.2
538.845	20795.09
539.21	20820.4
539.575	20755.32
539.94	20887.06
540.305	20864.47
540.67	20880.74
541.034	20855.88
541.399	20780.63
541.764	20885.26
542.129	20813.17
542.494	20901.53
542.858	20839.61
543.223	20720.29
543.587	20909.89
543.952	20779.95
544.316	20821.53
544.681	20753.28
545.045	20788.76
545.41	20821.75
545.774	20748.08
546.138	20771.81
546.503	20764.36
546.867	20704.7
547.231	20777.01
547.595	20700.18
547.959	20783.79
548.324	20702.44
548.688	20621.99
549.052	20669.22
549.416	20683
549.779	20606.39
550.143	20532.5
550.507	20486.4
550.871	20601.87
551.235	20541.08
551.599	20688.42
551.962	20571.59
552.326	20628.09
552.689	20610.23
553.053	20341.77
553.417	20459.28
553.78	20584.47
554.143	20526.17
554.507	20533.17
554.87	20508.32
555.234	20649.1
555.597	20541.76
555.96	20499.73
556.323	20513.74
556.686	20510.58
557.05	20542.44
557.413	20623.12
557.776	20522.1
558.139	20655.88
558.502	20624.47
558.865	20518.26
559.228	20741.53
559.59	20622.66
559.953	20757.8
560.316	20843
560.679	20630.35
561.041	20826.27
561.404	20803.22
561.767	20928.64
562.129	20908.76
562.492	20982.65
562.854	21031.47
563.217	21068.75
563.579	20998.25
563.941	21156.89
564.304	21189.2
564.666	21326.37
565.028	21347.84
565.39	21310.1
565.753	21468.07
566.115	21529.31
566.477	21483.21
566.839	21605.91
567.201	21787.61
567.563	21667.16
567.925	21910.31
568.287	21957.54
568.648	21908.05
569.01	22086.81
569.372	22146.24
569.734	22060.82
570.095	22301.49
570.457	22455.38
570.819	22437.98
571.18	22491.09
571.542	22628.71
571.903	22652.22
572.265	22804.08
572.626	22774.47
572.987	22867.35
573.349	22857.41
573.71	23004.3
574.071	23148.02
574.432	23188.47
574.794	23387.79
575.155	23252.88
575.516	23293.78
575.877	23435.47
576.238	23470.95
576.599	23541.91
576.96	23647.44
577.32	23657.39
577.681	23766.54
578.042	23820.77
578.403	23815.35
578.763	23823.26
579.124	23809.7
579.485	23921.79
579.845	23993.42
580.206	23946.64
580.566	23916.36
580.927	23913.88
581.287	24165.62
581.648	24088.11
582.008	24074.78
582.368	24146.41
582.728	24138.73
583.089	24105.96
583.449	24169.24
583.809	24013.54
584.169	24201.1
584.529	24158.39
584.889	24252.85
585.249	24152.29
585.609	24145.28
585.969	24270.7
586.329	24141.89
586.688	24168.56
587.048	24206.98
587.408	24160.42
587.768	24155
588.127	24058.05
588.487	24126.75
588.846	24286.75
589.206	24117.49
589.565	24141.67
589.925	24190.03
590.284	24213.76
590.643	24152.06
591.003	24096.47
591.362	24193.87
591.721	24081.56
592.08	24140.09
592.44	24222.57
592.799	24048.79
593.158	24110.93
593.517	24120.88
593.876	24158.16
594.235	24146.19
594.593	24053.31
594.952	24137.15
595.311	24091.95
595.67	24069.8
596.029	24274.77
596.387	24203.81
596.746	24224.6
597.104	23990.03
597.463	24111.84
597.822	24148
598.18	24015.57
598.538	24069.35
598.897	24148.45
599.255	24015.57
599.613	24392.96
599.972	24209.69
600.33	24178.95
600.688	24010.82
601.046	24214.21
601.404	24191.84
601.762	24137.6
602.12	24236.58
602.478	24206.52
602.836	24256.69
603.194	24090.6
603.552	24202
603.91	24054.21
604.268	24239.07
604.625	24096.24
604.983	24300.31
605.341	24133.76
605.698	24257.14
606.056	24321.78
606.413	24214.89
606.771	24273.19
607.128	24434.99
607.485	24261.89
607.843	24254.43
608.2	24486.74
608.557	24468.21
608.914	24318.84
609.272	24505.73
609.629	24475.9
609.986	24549.57
610.343	24622.33
610.7	24687.42
611.057	24590.47
611.414	24610.36
611.771	24641.54
612.127	24723.57
612.484	24686.29
612.841	24777.36
613.198	24823.23
613.554	24721.09
613.911	24875.89
614.267	24919.27
614.624	24873.63
614.98	24934.64
615.337	25105.26
615.693	25087.41
616.05	25090.57
616.406	25151.13
616.762	25099.61
617.118	25072.26
617.475	25053.73
617.831	25298.93
618.187	25221.41
618.543	25113.85
618.899	25349.09
619.255	25298.02
619.611	25334.63
619.967	25473.38
620.323	25639.03
620.678	25294.41
621.034	25293.5
621.39	25394.97
621.746	25405.82
622.101	25582.31
622.457	25386.15
622.812	25673.83
623.168	25604
623.523	25662.53
623.879	25692.36
624.234	25515.42
624.589	25605.58
624.945	25650.55
625.3	25648.29
625.655	25595.64
626.01	25568.52
626.365	25719.93
626.72	25615.08
627.075	25603.1
627.43	25492.82
627.785	25688.75
628.14	25569.65
628.495	25602.87
628.85	25644.9
629.205	25503.89
629.559	25730.1
629.914	25539.14
630.269	25553.83
630.623	25457.34
630.978	25476.32
631.332	25623.89
631.687	25691.91
632.041	25474.51
632.396	25457.79
632.75	25560.61
633.104	25420.28
633.459	25344.35
633.813	25305.25
634.167	25256.44
634.521	25313.16
634.875	25272.26
635.229	25327.4
635.583	25243.56
635.937	25227.29
636.291	25033.62
636.645	25150.45
636.999	25119.49
637.352	25232.94
637.706	24962.44
638.06	25085.6
638.413	24975.77
638.767	24918.6
639.121	24993.17
639.474	24797.47
639.828	24915.88
640.181	24860.97
640.534	24918.82
640.888	24721.09
641.241	24734.65
641.594	24878.82
641.947	24830.24
642.301	24741.43
642.654	24811.48
643.007	24732.39
643.36	24740.52
643.713	24675.66
644.066	24859.39
644.419	24709.79
644.771	24403.58
645.124	24191.84
645.477	24214.89
645.83	24167.88
646.182	24212.17
646.535	24120.88
646.888	24244.04
647.24	24127.43
647.593	24279.52
647.945	24183.02
648.298	24042.01
648.65	23922.92
649.002	23767.21
649.355	23744.62
649.707	23656.48
650.059	23586.2
650.411	24038.62
650.763	24279.29
651.115	24665.04
651.467	24535.1
651.819	24519.51
652.171	24463.47
652.523	24498.27
652.875	24472.96
653.227	24340.08
653.578	24654.42
653.93	24552.05
654.282	24402
654.633	24437.03
654.985	24463.69
655.337	24517.7
655.688	24529
656.039	24599.51
656.391	24414.2
656.742	24503.69
657.094	24456.24
657.445	24472.73
657.796	24548.66
658.147	24495.33
658.498	24551.15
658.849	24688.09
659.2	24478.16
659.551	24570.81
659.902	24861.2
660.253	24632.28
660.604	24785.72
660.955	24643.8
661.306	24776.91
661.656	24653.74
662.007	24729.67
662.358	24746.85
662.708	24766.96
663.059	24750.01
663.409	24575.33
663.76	24667.98
664.11	24885.15
664.461	24801.54
664.811	24929.9
665.161	24849.67
665.511	24752.95
665.862	24873.63
666.212	24856.45
666.562	24940.52
666.912	24899.61
667.262	24785.04
667.612	24777.13
667.962	24870.69
668.312	24835.21
668.662	24919.05
669.011	24836.79
669.361	24776.23
669.711	24897.35
670.06	24821.2
670.41	24728.09
670.76	24848.54
671.109	24856
671.459	24819.62
671.808	24840.86
672.157	24814.42
672.507	24644.93
672.856	24689.68
673.205	24805.38
673.554	24742.1
673.904	24646.06
674.253	24945.71
674.602	24624.14
674.951	24391.6
675.3	24216.92
675.649	24518.15
675.998	24526.74
676.346	24662.78
676.695	24699.39
677.044	24538.27
677.393	24595.89
677.741	24586.18
678.09	24554.99
678.438	24486.97
678.787	24565.16
679.135	24412.62
679.484	24301.66
679.832	24314.77
680.181	24290.14
680.529	24306.41
680.877	24170.14
681.225	24207.65
681.573	24466.86
681.922	24193.42
682.27	24076.13
682.618	24156.13
682.966	23965.63
683.314	24022.57
683.661	24002.01
684.009	23853.54
684.357	23848.34
684.705	23788
685.053	23809.02
685.4	23683.15
685.748	23623.26
686.095	23619.65
686.443	23405.19
686.79	23452.87
687.138	23520.21
687.485	23464.17
687.832	23315.02
688.18	23171.52
688.527	23232.31
688.874	23212.65
689.221	23043.39
689.568	22974.47
689.915	22822.38
690.262	22993.45
690.609	22797.52
690.956	22728.6
691.303	22712.1
691.65	22548.04
691.997	22428.04
692.344	22371.09
692.69	22361.15
693.037	22336.29
693.383	22131.55
693.73	22198.22
694.077	22073.93
694.423	22028.28
694.769	21823.99
695.116	21807.49
695.462	21691.11
695.808	21669.64
696.155	21659.47
696.501	21457.22
696.847	21543.09
697.193	21354.62
697.539	21254.29
697.885	21128.64
698.231	20985.82
698.577	20994.86
698.923	20951.47
699.269	20836.44
699.614	20751.02
699.96	20677.58
700.306	20660.86
700.651	20449.11
700.997	20444.59
701.342	20345.84
701.688	20304.71
702.033	20214.31
702.379	20101.55
702.724	20161.43
703.069	20149.46
703.415	19840.54
703.76	19753.31
704.105	19920.08
704.45	19849.8
704.795	19694.1
705.14	19693.87
705.485	19605.74
705.83	19408.23
706.175	19517.61
706.52	19447.1
706.865	19324.84
707.209	19242.14
707.554	19204.85
707.899	19148.58
708.243	19097.28
708.588	19073.55
708.932	18954.01
709.277	18913.1
709.621	19010.28
709.966	18834.46
710.31	18910.17
710.654	18736.39
710.998	18723.28
711.342	18806.21
711.687	18631.08
712.031	18677.18
712.375	18499.33
712.719	18550.63
713.063	18598.31
713.407	18582.72
713.75	18557.18
714.094	18500.69
714.438	18420.46
714.782	18407.81
715.125	18337.98
715.469	18402.16
715.812	18418.65
716.156	18316.96
716.499	18242.39
716.843	18338.2
717.186	18196.51
717.53	18306.11
717.873	18308.37
718.216	18240.81
718.559	18214.14
718.902	18054.14
719.246	18193.35
719.589	18136.85
719.932	18204.2
720.275	18184.31
720.617	18217.08
720.96	18092.34
721.303	18068.38
721.646	18050.98
721.989	18010.76
722.331	18107.7
722.674	18013.92
723.016	18072.9
723.359	18049.17
723.701	18057.08
724.044	18012.34
724.386	17955.16
724.729	18016.4
725.071	18053.24
725.413	17995.84
725.755	18089.4
726.097	18076.97
726.439	18020.47
726.782	18033.81
727.124	18146.34
727.465	18143.18
727.807	18078.55
728.149	18066.12
728.491	18209.85
728.833	18120.36
729.175	18164.65
729.516	18096.85
729.858	18115.61
730.199	18208.26
730.541	18227.47
730.882	18191.77
731.224	18158.32
731.565	18170.75
731.906	18213.69
732.248	18286.45
732.589	18208.94
732.93	18286.45
733.271	18338.2
733.612	18326.91
733.953	18422.27
734.294	18351.99
734.635	18407.35
734.976	18505.88
735.317	18548.14
735.658	18504.98
735.999	18545.66
736.339	18574.58
736.68	18653.9
737.021	18751.53
737.361	18678.53
737.702	18753.56
738.042	18796.27
738.383	18899.55
738.723	18940.67
739.063	18904.97
739.404	19019.32
739.744	19144.96
740.084	19135.47
740.424	19325.52
740.764	19339.31
741.104	19433.54
741.444	19423.37
741.784	19494.78
742.124	19686.19
742.464	19627.44
742.804	19744.95
743.143	19737.26
743.483	19913.98
743.823	19921.89
744.162	20109.91
744.502	20177.7
744.841	20342.45
745.181	20607.52
745.52	20663.34
745.86	20706.73
746.199	20791.25
746.538	21081.18
746.877	21262.65
747.216	21268.97
747.556	21347.62
747.895	21596.42
748.234	21616.99
748.573	21826.93
748.911	21987.83
749.25	22138.1
749.589	22342.39
749.928	22652.67
750.267	22857.86
750.605	22943.51
750.944	23151.86
751.283	23357.73
751.621	23705.75
751.96	23726.99
752.298	24044.27
752.636	24132.63
752.975	24349.35
753.313	24565.16
753.651	24996.11
753.989	25084.69
