Data from 18-4525_FLMS001491_006.txt Node
Date: Thu Apr 19 16:42:49 BST 2018
User: hsy
Spectrometer: FLMS00149
Trigger mode: 0
Integration Time (sec): 1.000000E-2
Scans to average: 10
Electric dark correction enabled: true
Nonlinearity correction enabled: false
Boxcar width: 0
XAxis mode: Wavelengths
Number of Pixels in Spectrum: 2048
>>>>>Begin Spectral Data<<<<<
341.393	-14.73
341.776	-14.73
342.16	-14.73
342.543	-61.28
342.927	-56.76
343.31	-60.83
343.693	-67.16
344.077	-73.71
344.46	-52.02
344.843	-68.97
345.226	-34.84
345.61	-34.84
345.993	-16.09
346.376	-19.7
346.759	16.23
347.142	44.7
347.525	43.12
347.908	59.17
348.291	63.91
348.674	91.93
349.057	109.11
349.44	117.69
349.823	127.64
350.206	170.57
350.588	226.84
350.971	230.01
351.354	240.18
351.737	269.33
352.119	299.61
352.502	294.87
352.884	307.07
353.267	307.29
353.65	343
354.032	324.47
354.414	324.47
354.797	342.77
355.179	366.05
355.562	358.14
355.944	363.34
356.326	360.63
356.709	379.38
357.091	382.77
357.473	395.65
357.855	389.55
358.238	364.24
358.62	373.28
359.002	379.83
359.384	373.96
359.766	382.32
360.148	381.87
360.53	363.34
360.912	369.21
361.294	387.07
361.676	377.8
362.057	373.06
362.439	362.21
362.821	365.6
363.203	383.45
363.584	378.25
363.966	358.14
364.348	365.82
364.729	366.5
365.111	376.44
365.493	367.41
365.874	359.5
366.256	368.08
366.637	361.98
367.019	389.33
367.4	348.65
367.781	361.3
368.163	357.46
368.544	360.85
368.925	378.48
369.306	383.22
369.688	392.04
370.069	380.51
370.45	363.56
370.831	362.89
371.212	381.87
371.593	367.41
371.974	367.63
372.355	369.44
372.736	388.2
373.117	382.77
373.498	377.12
373.879	363.56
374.26	403.34
374.641	365.82
375.021	366.5
375.402	394.07
375.783	408.08
376.163	393.39
376.544	388.42
376.925	380.06
377.305	400.4
377.686	391.81
378.066	404.47
378.447	417.8
378.827	394.3
379.208	400.63
379.588	393.62
379.968	416.44
380.349	395.65
380.729	425.94
381.109	421.19
381.489	407.86
381.87	406.27
382.25	416.44
382.63	422.77
383.01	415.31
383.39	437.23
383.77	396.11
384.15	420.96
384.53	422.32
384.91	461.64
385.29	433.39
385.67	449.44
386.049	455.76
386.429	453.28
386.809	451.7
387.189	470.68
387.568	456.22
387.948	462.54
388.328	467.74
388.707	471.81
389.087	465.26
389.466	462.54
389.846	491.7
390.225	476.1
390.605	470.68
390.984	485.37
391.363	514.75
391.743	470.45
392.122	515.65
392.501	505.48
392.881	484.46
393.26	536.89
393.639	540.73
394.018	503
394.397	518.81
394.776	522.88
395.155	533.28
395.534	506.61
395.913	546.16
396.292	555.42
396.671	575.99
397.05	561.98
397.429	545.48
397.808	552.03
398.186	543.22
398.565	564.91
398.944	567.17
399.323	583.45
399.701	586.38
400.08	598.13
400.458	603.33
400.837	600.85
401.215	607.4
401.594	613.73
401.972	624.12
402.351	623.67
402.729	639.49
403.107	620.73
403.486	650.34
403.864	644.91
404.242	654.18
404.62	660.73
404.999	656.89
405.377	679.26
405.755	658.02
406.133	682.88
406.511	703.89
406.889	710.45
407.267	714.29
407.645	712.26
408.023	729.2
408.401	720.16
408.779	736.66
409.156	766.94
409.534	760.39
409.912	786.83
410.29	752.71
410.667	786.83
411.045	794.06
411.422	790.67
411.8	808.52
412.178	835.19
412.555	867.28
412.933	844.23
413.31	882.87
413.687	890.56
414.065	894.85
414.442	916.32
414.819	905.02
415.197	919.26
415.574	944.34
415.951	941.18
416.328	927.62
416.705	946.37
417.082	960.38
417.46	985.02
417.837	978.91
418.214	994.73
418.591	999.48
418.967	990.44
419.344	1015.52
419.721	1050.78
420.098	1036.77
420.475	1051.23
420.852	1022.08
421.228	1067.5
421.605	1080.83
421.982	1112.02
422.358	1108.63
422.735	1128.52
423.111	1136.2
423.488	1154.28
423.864	1143.43
424.241	1175.52
424.617	1191.11
424.994	1171.68
425.37	1204.67
425.746	1215.74
426.123	1279.47
426.499	1278.12
426.875	1273.6
427.251	1292.35
427.627	1307.95
428.003	1291
428.379	1326.7
428.756	1349.98
429.132	1371
429.507	1376.19
429.883	1390.43
430.259	1415.97
430.635	1457.09
431.011	1450.99
431.387	1442.41
431.763	1477.88
432.138	1490.09
432.514	1549.75
432.89	1551.78
433.265	1584.32
433.641	1612.8
434.016	1621.84
434.392	1641.27
434.767	1695.96
435.143	1682.63
435.518	1710.42
435.894	1730.08
436.269	1760.14
436.644	1773.47
437.02	1800.14
437.395	1808.27
437.77	1829.74
438.145	1879
438.52	1879.46
438.895	1908.16
439.271	1894.15
439.646	1940.47
440.021	1969.17
440.395	1968.95
440.77	1958.55
441.145	2015.5
441.52	2011.43
441.895	2032.22
442.27	2054.59
442.645	2046.91
443.019	2113.35
443.394	2106.34
443.769	2123.74
444.143	2129.85
444.518	2168.26
444.892	2147.02
445.267	2171.65
445.641	2175.49
446.016	2209.39
446.39	2260.92
446.764	2253.68
447.139	2229.73
447.513	2249.16
447.887	2243.51
448.262	2276.51
448.636	2294.81
449.01	2352.44
449.384	2332.78
449.758	2375.49
450.132	2402.61
450.506	2417.75
450.88	2434.47
451.254	2458.88
451.628	2499.55
452.002	2531.42
452.376	2514.47
452.75	2615.48
453.123	2604.86
453.497	2627.91
453.871	2635.82
454.244	2723.05
454.618	2710.17
454.992	2784.52
455.365	2808.02
455.739	2842.37
456.112	2871.97
456.486	2920.78
456.859	2927.79
457.232	3016.38
457.606	3021.12
457.979	3055.92
458.352	3076.03
458.725	3133.43
459.099	3164.39
459.472	3229.03
459.845	3260.89
460.218	3288.68
460.591	3343.6
460.964	3359.64
461.337	3414.33
461.71	3454.78
462.083	3504.05
462.456	3515.12
462.829	3525.74
463.201	3602.12
463.574	3610.26
463.947	3687.77
464.32	3731.61
464.692	3791.27
465.065	3810.48
465.438	3868.56
465.81	3920.31
466.183	3924.6
466.555	4054.09
466.928	4085.05
467.3	4032.39
467.672	4092.28
468.045	4202.33
468.417	4186.51
468.789	4216.12
469.161	4295.21
469.534	4398.94
469.906	4431.03
470.278	4474.64
470.65	4539.05
471.022	4617.24
471.394	4692.72
471.766	4717.35
472.138	4743.56
472.51	4868.76
472.882	4978.13
473.253	5010.67
473.625	5052.93
473.997	5169.31
474.369	5184.68
474.74	5282.3
475.112	5377.22
475.484	5433.71
475.855	5513.71
476.227	5561.62
476.598	5734.95
476.97	5773.82
477.341	5921.84
477.713	5966.35
478.084	5981.04
478.455	6204.54
478.827	6273.24
479.198	6383.97
479.569	6434.36
479.94	6581.71
480.311	6677.52
480.682	6806.33
481.053	6930.85
481.424	7042.48
481.795	7124.52
482.166	7262.14
482.537	7403.6
482.908	7529.93
483.279	7569.48
483.65	7811.73
484.021	7958.17
484.391	8023.7
484.762	8154.55
485.133	8225.05
485.503	8350.47
485.874	8646.51
486.244	8640.41
486.615	8880.4
486.985	8999.5
487.356	9078.81
487.726	9173.73
488.097	9434.06
488.467	9497.79
488.837	9653.04
489.207	9775.29
489.578	9978.23
489.948	10083.31
490.318	10279.46
490.688	10343.19
491.058	10584.09
491.428	10761.71
491.798	10808.71
492.168	10998.76
492.538	11098.42
492.908	11269.94
493.278	11461.58
493.648	11486.21
494.017	11716.49
494.387	11838.29
494.757	11875.58
495.126	12119.41
495.496	12196.25
495.866	12367.54
496.235	12487.54
496.605	12609.34
496.974	12670.58
497.344	12882.78
497.713	12939.28
498.082	13141.76
498.452	13238.25
498.821	13288.87
499.19	13351.47
499.559	13466.27
499.928	13653.84
500.298	13752.59
500.667	13933.15
501.036	13877.33
501.405	14103.99
501.774	14166.36
502.143	14315.51
502.512	14320.26
502.88	14600.03
503.249	14531.78
503.618	14684.77
503.987	14780.81
504.356	14921.37
504.724	15020.58
505.093	15041.14
505.462	15155.94
505.83	15150.75
506.199	15293.34
506.567	15536.05
506.936	15633.67
507.304	15797.06
507.672	15846.55
508.041	15849.26
508.409	16051.74
508.777	16105.75
509.145	16281.34
509.514	16277.27
509.882	16436.59
510.25	16460.77
510.618	16652.85
510.986	16697.6
511.354	16807.43
511.722	16961.55
512.09	17151.15
512.458	17010.58
512.826	17206.74
513.193	17268.2
513.561	17269.56
513.929	17447.18
514.297	17630.68
514.664	17686.72
515.032	17717.68
515.4	17945.47
515.767	17917.68
516.135	18060.95
516.502	17889.43
516.869	18261.4
517.237	18230.89
517.604	18102.08
517.972	18375.07
518.339	18530.09
518.706	18502.97
519.073	18729.18
519.44	18653.48
519.808	18973.47
520.175	18987.25
520.542	19045.56
520.909	19199.23
521.276	19146.57
521.643	19355.38
522.009	19413.68
522.376	19556.96
522.743	19563.74
523.11	19812.54
523.477	19955.37
523.843	19970.51
524.21	20156.94
524.577	20276.49
524.943	20386.99
525.31	20371.85
525.676	20686.19
526.043	20725.51
526.409	20816.13
526.776	20964.38
527.142	20907.66
527.508	21029.91
527.874	21209.34
528.241	21246.4
528.607	21240.76
528.973	21595.55
529.339	21400.75
529.705	21669.22
530.071	21779.05
530.437	21837.12
530.803	21882.77
531.169	21968.87
531.535	22008.64
531.901	21979.04
532.267	21997.57
532.632	22141.97
532.998	22264.91
533.364	22300.16
533.73	22294.74
534.095	22384.45
534.461	22371.35
534.826	22320.5
535.192	22370.44
535.557	22547.61
535.923	22559.36
536.288	22608.4
536.653	22668.06
537.019	22497.67
537.384	22536.99
537.749	22506.94
538.114	22634.39
538.479	22579.93
538.845	22566.82
539.21	22529.53
539.575	22595.75
539.94	22441.85
540.305	22637.78
540.67	22616.31
541.034	22513.94
541.399	22682.53
541.764	22549.87
542.129	22628.29
542.494	22556.88
542.858	22545.81
543.223	22515.98
543.587	22769.08
543.952	22533.83
544.316	22595.75
544.681	22400.05
545.045	22618.8
545.41	22578.35
545.774	22516.2
546.138	22470.55
546.503	22529.53
546.867	22489.99
547.231	22547.16
547.595	22468.07
547.959	22464.68
548.324	22449.31
548.688	22364.34
549.052	22430.33
549.416	22285.47
549.779	22328.41
550.143	22347.39
550.507	22372.25
550.871	22384.91
551.235	22193.95
551.599	22475.98
551.962	22391.01
552.326	22362.08
552.689	22363.89
553.053	22200.05
553.417	22282.54
553.78	22406.15
554.143	22362.76
554.507	22462.64
554.87	22356.43
555.234	22511.23
555.597	22184.23
555.96	22383.55
556.323	22426.26
556.686	22354.85
557.05	22379.03
557.413	22414.51
557.776	22366.6
558.139	22430.33
558.502	22490.21
558.865	22467.62
559.228	22473.27
559.59	22604.79
559.953	22595.75
560.316	22757.33
560.679	22616.31
561.041	22856.53
561.404	22822.41
561.767	22935.63
562.129	22782.64
562.492	22831.67
562.854	23021.73
563.217	22915.74
563.579	23019.47
563.941	23055.17
564.304	23119.35
564.666	23310.31
565.028	23364.77
565.39	23316.86
565.753	23483.63
566.115	23545.78
566.477	23564.76
566.839	23637.98
567.201	23752.1
567.563	23713.91
567.925	23874.81
568.287	23841.82
568.648	23863.96
569.01	23957.75
569.372	24268.25
569.734	24024.86
570.095	24331.75
570.457	24399.99
570.819	24348.02
571.18	24354.35
571.542	24571.74
571.903	24582.36
572.265	24689.7
572.626	24826.2
572.987	24811.96
573.349	24881.56
573.71	25043.59
574.071	25062.12
574.432	25117.26
574.794	25352.29
575.155	25421.89
575.516	25312.74
575.877	25457.37
576.238	25429.12
576.599	25626.85
576.96	25534.43
577.32	25639.28
577.681	25688.32
578.042	25826.85
578.403	25744.59
578.763	25715.89
579.124	25703.69
579.485	25934.19
579.845	25869.79
580.206	25912.95
580.566	25892.16
580.927	25965.38
581.287	26113.85
581.648	25979.39
582.008	25988.2
582.368	26059.16
582.728	26088.31
583.089	26126.73
583.449	26040.18
583.809	26165.82
584.169	26204.01
584.529	25973.96
584.889	26238.14
585.249	26105.94
585.609	25902.1
585.969	26105.03
586.329	26045.83
586.688	26090.57
587.048	26065.03
587.408	26046.05
587.768	25961.53
588.127	26044.92
588.487	25939.61
588.846	26205.6
589.206	25917.24
589.565	25875.89
589.925	26103.45
590.284	26038.6
590.643	25966.73
591.003	26007.64
591.362	26134.41
591.721	26007.18
592.08	25940.97
592.44	26047.86
592.799	26057.13
593.158	25986.62
593.517	25820.75
593.876	25929.9
594.235	25936
594.593	25979.39
594.952	25905.04
595.311	25910.01
595.67	25846.74
596.029	26062.78
596.387	25982.33
596.746	26146.61
597.104	25799.28
597.463	25889.9
597.822	26103.68
598.18	25820.52
598.538	25964.47
598.897	25990.69
599.255	25897.13
599.613	26233.17
599.972	25822.33
600.33	25982.78
600.688	25926.28
601.046	25854.65
601.404	26086.28
601.762	26029.78
602.12	26110.46
602.478	26114.98
602.836	26079.27
603.194	25880.63
603.552	25979.16
603.91	25895.77
604.268	25978.94
604.625	26027.97
604.983	26158.82
605.341	25952.5
605.698	26097.8
606.056	26288.08
606.413	26053.06
606.771	26217.57
607.128	26222.32
607.485	26102.55
607.843	26125.6
608.2	26186.16
608.557	26298.48
608.914	26186.61
609.272	26357.23
609.629	26430.45
609.986	26509.09
610.343	26319.04
610.7	26535.08
611.057	26612.82
611.414	26465.48
611.771	26589.09
612.127	26519.71
612.484	26584.57
612.841	26742.31
613.198	26618.69
613.554	26641.29
613.911	26855.3
614.267	26705.92
614.624	26757.22
614.98	26863.21
615.337	26925.13
615.693	26868.63
616.05	26952.47
616.406	27060.26
616.762	27027.95
617.118	27043.54
617.475	27041.51
617.831	27127.61
618.187	27154.27
618.543	27117.66
618.899	27368.96
619.255	27227.26
619.611	27292.57
619.967	27305.91
620.323	27440.82
620.678	27226.36
621.034	27263.42
621.39	27382.97
621.746	27255.74
622.101	27655.28
622.457	27276.3
622.812	27534.37
623.168	27449.63
623.523	27571.44
623.879	27559.23
624.234	27506.58
624.589	27570.53
624.945	27464.77
625.3	27561.04
625.655	27486.47
626.01	27618.67
626.365	27578.67
626.72	27600.14
627.075	27567.37
627.43	27474.49
627.785	27542.96
628.14	27508.16
628.495	27545.22
628.85	27535.96
629.205	27543.64
629.559	27649.85
629.914	27444.21
630.269	27502.06
630.623	27322.4
630.978	27218.68
631.332	27519.23
631.687	27533.24
632.041	27342.06
632.396	27395.85
632.75	27435.17
633.104	27250.09
633.459	27152.69
633.813	27262.74
634.167	27234.95
634.521	27097.78
634.875	27133.48
635.229	27037.21
635.583	27023.2
635.937	27046.93
636.291	26919.25
636.645	27017.33
636.999	26893.49
637.352	27056.65
637.706	26790.67
638.06	26943.43
638.413	26866.82
638.767	26740.95
639.121	26833.15
639.474	26731.23
639.828	26645.13
640.181	26727.84
640.534	26877.44
640.888	26694.17
641.241	26527.17
641.594	26589.31
641.947	26601.07
642.301	26587.96
642.654	26644.68
643.007	26557.23
643.36	26597.68
643.713	26504.8
644.066	26743.21
644.419	26444.01
644.771	26283.79
645.124	25995.66
645.477	25925.38
645.83	25880.18
646.182	25965.38
646.535	25808.54
646.888	25945.49
647.24	25978.94
647.593	26042.66
647.945	25991.14
648.298	25714.31
648.65	25663.69
649.002	25532.39
649.355	25394.77
649.707	25287.43
650.059	25305.73
650.411	25783.01
650.763	26006.05
651.115	26350.23
651.467	26369.21
651.819	26440.17
652.171	26318.36
652.523	26053.96
652.875	26283.56
653.227	26158.59
653.578	26327.85
653.93	26154.75
654.282	26185.26
654.633	26081.76
654.985	26191.81
655.337	26124.02
655.688	26176.9
656.039	26319.49
656.391	26051.02
656.742	26200.4
657.094	26142.1
657.445	26275.2
657.796	26217.35
658.147	26171.92
658.498	26259.15
658.849	26389.32
659.2	26322.88
659.551	26229.55
659.902	26381.41
660.253	26261.64
660.604	26361.52
660.955	26334.41
661.306	26433.61
661.656	26301.19
662.007	26253.28
662.358	26417.57
662.708	26514.97
663.059	26390.45
663.409	26284.69
663.76	26412.14
664.11	26511.12
664.461	26508.64
664.811	26554.51
665.161	26605.81
665.511	26344.8
665.862	26544.34
666.212	26615.08
666.562	26631.35
666.912	26455.31
667.262	26435.65
667.612	26453.27
667.962	26480.84
668.312	26489.66
668.662	26443.56
669.011	26497.57
669.361	26404.46
669.711	26518.36
670.06	26456.89
670.41	26377.57
670.76	26435.65
671.109	26461.18
671.459	26481.3
671.808	26441.3
672.157	26549.09
672.507	26395.2
672.856	26323.11
673.205	26352.49
673.554	26432.93
673.904	26348.42
674.253	26473.39
674.602	26473.84
674.951	25996.56
675.3	25983.46
675.649	26305.03
675.998	26393.16
676.346	26318.14
676.695	26360.39
677.044	26101.64
677.393	26233.17
677.741	26277.68
678.09	26166.28
678.438	26191.36
678.787	26292.37
679.135	26159.04
679.484	25991.82
679.832	25952.95
680.181	25919.5
680.529	25867.07
680.877	25759.73
681.225	25887.86
681.573	26082.89
681.922	25802.89
682.27	25680.41
682.618	25789.34
682.966	25616.01
683.314	25593.63
683.661	25567.87
684.009	25449.91
684.357	25393.87
684.705	25281.55
685.053	25400.42
685.4	25329.46
685.748	25202.91
686.095	25233.87
686.443	25016.47
686.79	25050.15
687.138	25041.79
687.485	24981.45
687.832	24810.6
688.18	24901.9
688.527	24695.13
688.874	24645.64
689.221	24633.21
689.568	24530.16
689.915	24423.72
690.262	24500.33
690.609	24335.36
690.956	24118.19
691.303	24287.23
691.65	24039.78
691.997	24011.53
692.344	23899.67
692.69	23784.87
693.037	23918.65
693.383	23648.6
693.73	23672.33
694.077	23541.71
694.423	23406.8
694.769	23483.63
695.116	23379.91
695.462	23261.27
695.808	23145.34
696.155	23110.08
696.501	22932.69
696.847	23003.87
697.193	22774.5
697.539	22769.08
697.885	22566.6
698.231	22519.59
698.577	22515.07
698.923	22546.48
699.269	22314.85
699.614	22266.04
699.96	22111.69
700.306	22122.77
700.651	21942.66
700.997	21899.72
701.342	21818.14
701.688	21749.89
702.033	21651.37
702.379	21641.65
702.724	21484.59
703.069	21615.66
703.415	21354.2
703.76	21297.02
704.105	21292.51
704.45	21244.6
704.795	21138.16
705.14	20962.57
705.485	21032.4
705.83	20862.69
706.175	21014.55
706.52	20889.13
706.865	20792.18
707.209	20610.49
707.554	20681.45
707.899	20640.77
708.243	20572.3
708.588	20565.29
708.932	20389.93
709.277	20391.06
709.621	20317.39
709.966	20173.21
710.31	20209.14
710.654	20111.52
710.998	20078.07
711.342	20221.35
711.687	20057.28
712.031	20027.68
712.375	19867.23
712.719	19954.69
713.063	19905.65
713.407	20029.04
713.75	19888.25
714.094	19860.68
714.438	19830.85
714.782	19738.2
715.125	19720.8
715.469	19829.94
715.812	19667.92
716.156	19684.41
716.499	19719.67
716.843	19636.96
717.186	19600.57
717.53	19696.84
717.873	19690.97
718.216	19601.48
718.559	19510.18
718.902	19382.5
719.246	19460.69
719.589	19495.26
719.932	19308.6
720.275	19436.73
720.617	19528.94
720.96	19360.8
721.303	19475.15
721.646	19488.48
721.989	19337.08
722.331	19422.27
722.674	19388.15
723.016	19436.28
723.359	19291.88
723.701	19386.79
724.044	19307.02
724.386	19241.71
724.729	19414.81
725.071	19322.16
725.413	19337.08
725.755	19333.69
726.097	19274.03
726.439	19213.24
726.782	19273.8
727.124	19352.22
727.465	19362.39
727.807	19323.74
728.149	19262.05
728.491	19297.76
728.833	19324.2
729.175	19324.42
729.516	19326.23
729.858	19289.39
730.199	19288.04
730.541	19473.57
730.882	19348.38
731.224	19448.49
731.565	19356.74
731.906	19322.39
732.248	19453.91
732.589	19379.11
732.93	19442.61
733.271	19493.91
733.612	19502.5
733.953	19581.36
734.294	19561.7
734.635	19506.79
734.976	19748.59
735.317	19625.43
735.658	19593.34
735.999	19664.53
736.339	19676.73
736.68	19818.19
737.021	19778.87
737.361	19826.33
737.702	19940
738.042	19925.31
738.383	19876.72
738.723	20028.81
739.063	19954.91
739.404	20136.6
739.744	20191.07
740.084	20200.33
740.424	20338.41
740.764	20316.03
741.104	20545.86
741.444	20522.36
741.784	20446.43
742.124	20673.09
742.464	20690.04
742.804	20713.54
743.143	20770.26
743.483	20972.51
743.823	20976.81
744.162	21057.26
744.502	21250.02
744.841	21235.11
745.181	21466.74
745.52	21435.78
745.86	21682.33
746.199	21874.41
746.538	21948.08
746.877	22067.17
747.216	22222.65
747.556	22264.68
747.895	22547.84
748.234	22558.23
748.573	22743.09
748.911	22918.68
749.25	23074.38
749.589	23113.7
749.928	23470.07
750.267	23657.19
750.605	23654.48
750.944	23995.71
751.283	24177.18
751.621	24378.53
751.96	24549.37
752.298	24892.18
752.636	24993.65
752.975	25145.06
753.313	25216.24
753.651	25658.04
