Data from 18-4525_FLMS001491_004.txt Node
Date: Thu Apr 19 16:42:43 BST 2018
User: hsy
Spectrometer: FLMS00149
Trigger mode: 0
Integration Time (sec): 1.000000E-2
Scans to average: 10
Electric dark correction enabled: true
Nonlinearity correction enabled: false
Boxcar width: 0
XAxis mode: Wavelengths
Number of Pixels in Spectrum: 2048
>>>>>Begin Spectral Data<<<<<
341.393	-2.34
341.776	-2.34
342.16	-2.34
342.543	-42.12
342.927	-73.3
343.31	-76.47
343.693	-49.35
344.077	-53.64
344.46	-60.42
344.843	-57.26
345.226	-24.26
345.61	-36.92
345.993	-7.77
346.376	2.18
346.759	6.92
347.142	7.82
347.525	24.1
347.908	55.73
348.291	72.46
348.674	80.14
349.057	116.75
349.44	104.77
349.823	153.36
350.206	157.2
350.588	233.81
350.971	239.68
351.354	259.12
351.737	265.44
352.119	281.26
352.502	288.27
352.884	302.28
353.267	319
353.65	335.5
354.032	322.84
354.414	306.35
354.797	371.88
355.179	353.13
355.562	347.93
355.944	361.94
356.326	369.4
356.709	349.51
357.091	363.07
357.473	358.1
357.855	353.8
358.238	376.63
358.62	370.98
359.002	370.08
359.384	378.44
359.766	399
360.148	373.46
360.53	387.48
360.912	387.7
361.294	356.06
361.676	384.09
362.057	378.21
362.439	358.32
362.821	359
363.203	369.62
363.584	347.7
363.966	379.34
364.348	352.22
364.729	371.66
365.111	352.45
365.493	351.54
365.874	359
366.256	365.56
366.637	340.47
367.019	368.27
367.4	371.2
367.781	362.17
368.163	356.74
368.544	370.08
368.925	363.97
369.306	375.27
369.688	359.23
370.069	369.62
370.45	377.98
370.831	371.2
371.212	370.08
371.593	363.07
371.974	353.35
372.355	349.96
372.736	367.36
373.117	349.06
373.498	378.66
373.879	370.98
374.26	378.89
374.641	349.51
375.021	375.5
375.402	362.39
375.783	378.21
376.163	411.88
376.544	402.16
376.925	387.7
377.305	404.65
377.686	392
378.066	367.14
378.447	387.7
378.827	409.62
379.208	395.39
379.588	390.19
379.968	402.84
380.349	413.01
380.729	413.01
381.109	401.71
381.489	431.54
381.87	398.55
382.25	424.08
382.63	414.59
383.01	415.27
383.39	441.26
383.77	436.97
384.15	416.18
384.53	423.86
384.91	445.78
385.29	434.48
385.67	441.26
386.049	443.75
386.429	432.9
386.809	441.94
387.189	450.75
387.568	432.45
387.948	457.76
388.328	476.06
388.707	481.48
389.087	456.85
389.466	473.12
389.846	484.65
390.225	481.03
390.605	482.16
390.984	479.9
391.363	476.06
391.743	485.55
392.122	489.85
392.501	468.83
392.881	498.89
393.26	489.39
393.639	518.77
394.018	498.43
394.397	521.03
394.776	503.86
395.155	549.05
395.534	520.58
395.913	515.38
396.292	548.83
396.671	536.17
397.05	549.05
397.429	553.8
397.808	543.18
398.186	550.64
398.565	585.66
398.944	561.03
399.323	561.71
399.701	586.34
400.08	591.09
400.458	566
400.837	599
401.215	573.01
401.594	588.6
401.972	618.2
402.351	599.9
402.729	658.65
403.107	619.33
403.486	643.29
403.864	635.15
404.242	635.83
404.62	653.91
404.999	642.61
405.377	668.37
405.755	652.33
406.133	678.77
406.511	686.45
406.889	706.79
407.267	708.15
407.645	708.6
408.023	731.65
408.401	729.84
408.779	723.51
409.156	717.86
409.534	773.45
409.912	779.33
410.29	774.58
410.667	784.53
411.045	810.97
411.422	817.07
411.8	798.76
412.178	819.55
412.555	833.79
412.933	874.47
413.31	855.49
413.687	914.02
414.065	862.72
414.442	901.81
414.819	906.78
415.197	907.01
415.574	932.09
415.951	942.94
416.328	934.81
416.705	970.06
417.082	954.69
417.46	961.25
417.837	999.66
418.214	999.66
418.591	1003.28
418.967	1026.33
419.344	1013.9
419.721	1028.36
420.098	1000.57
420.475	1057.74
420.852	1049.15
421.228	1054.35
421.605	1072.43
421.982	1078.3
422.358	1093.9
422.735	1141.58
423.111	1154.91
423.488	1151.75
423.864	1151.3
424.241	1194.23
424.617	1143.39
424.994	1205.08
425.37	1195.14
425.746	1234.69
426.123	1250.96
426.499	1249.6
426.875	1277.85
427.251	1288.24
427.627	1296.15
428.003	1313.33
428.379	1342.93
428.756	1347.9
429.132	1356.49
429.507	1364.17
429.883	1395.58
430.259	1437.17
430.635	1446.2
431.011	1438.75
431.387	1472.42
431.763	1492.98
432.138	1493.66
432.514	1511.51
432.89	1522.59
433.265	1572.08
433.641	1572.08
434.016	1611.4
434.392	1609.36
434.767	1694.79
435.143	1669.02
435.518	1684.39
435.894	1737.95
436.269	1749.93
436.644	1780.89
437.02	1809.13
437.395	1830.83
437.77	1845.97
438.145	1866.08
438.52	1863.82
438.895	1900.88
439.271	1891.84
439.646	1933.65
440.021	1976.81
440.395	1956.93
440.77	1962.8
441.145	1985.85
441.52	2040.99
441.895	2038.05
442.27	2041.9
442.645	2057.71
443.019	2057.71
443.394	2097.04
443.769	2126.64
444.143	2119.18
444.518	2138.84
444.892	2162.12
445.267	2177.94
445.641	2194.89
446.016	2183.13
446.39	2181.78
446.764	2218.39
447.139	2261.1
447.513	2253.19
447.887	2270.14
448.262	2248.22
448.636	2296.58
449.01	2328.89
449.384	2346.29
449.758	2349.46
450.132	2421.09
450.506	2391.94
450.88	2428.55
451.254	2436.01
451.628	2469.68
452.002	2513.3
452.376	2518.49
452.75	2534.09
453.123	2563.92
453.497	2636
453.871	2633.74
454.244	2690.47
454.618	2705.83
454.992	2770.69
455.365	2773.63
455.739	2796
456.112	2860.86
456.486	2878.03
456.859	2930.69
457.232	2989.44
457.606	2986.28
457.979	3035.09
458.352	3084.35
458.725	3125.48
459.099	3158.02
459.472	3216.78
459.845	3247.51
460.218	3240.51
460.591	3315.53
460.964	3357.12
461.337	3381.75
461.71	3506.49
462.083	3505.81
462.456	3526.38
462.829	3513.04
463.201	3610.89
463.574	3628.07
463.947	3696.54
464.32	3748.07
464.692	3774.05
465.065	3789.87
465.438	3842.98
465.81	3893.6
466.183	3905.12
466.555	4014.95
466.928	4005.91
467.3	4055.63
467.672	4086.81
468.045	4189.86
468.417	4202.74
468.789	4255.17
469.161	4273.25
469.534	4366.35
469.906	4428.27
470.278	4478.67
470.65	4496.75
471.022	4562.51
471.394	4641.6
471.766	4698.32
472.138	4750.75
472.51	4835.04
472.882	4922.95
473.253	4928.15
473.625	5089.27
473.997	5092.66
474.369	5174.69
474.74	5218.76
475.112	5327.68
475.484	5395.25
475.855	5493.78
476.227	5557.51
476.598	5682.03
476.97	5726.77
477.341	5831.17
477.713	5977.39
478.084	6019.87
478.455	6149.36
478.827	6152.07
479.198	6330.37
479.569	6363.59
479.94	6531.95
480.311	6670.93
480.682	6747.53
481.053	6907.53
481.424	6998.15
481.795	7070.01
482.166	7179.84
482.537	7330.34
482.908	7455.54
483.279	7604.91
483.65	7727.4
484.021	7846.04
484.391	7923.77
484.762	8080.15
485.133	8177.78
485.503	8304.78
485.874	8525.34
486.244	8589.52
486.615	8778.67
486.985	8862.06
487.356	9048.04
487.726	9180.01
488.097	9327.13
488.467	9403.96
488.837	9627.23
489.207	9726.44
489.578	9961.91
489.948	10063.83
490.318	10239.19
490.688	10256.14
491.058	10398.96
491.428	10677.6
491.798	10732.74
492.168	10927.76
492.538	11067.65
492.908	11229
493.278	11380.18
493.648	11418.15
494.017	11655.43
494.387	11729.1
494.757	11843.22
495.126	12009.32
495.496	12049.32
495.866	12277.33
496.235	12406.14
496.605	12516.2
496.974	12579.92
497.344	12724.55
497.713	12853.81
498.082	13072.34
498.452	13184.2
498.821	13303.29
499.19	13365.89
499.559	13507.13
499.928	13535.83
500.298	13613.79
500.667	13890.85
501.036	13866.9
501.405	14027.79
501.774	14143.27
502.143	14287
502.512	14313.89
502.88	14580.32
503.249	14511.4
503.618	14628.68
503.987	14826.19
504.356	14815.12
504.724	15008.56
505.093	14986.19
505.462	15095.56
505.83	15242.68
506.199	15278.16
506.567	15526.06
506.936	15568.77
507.304	15727.41
507.672	15831.36
508.041	15920.4
508.409	16025.71
508.777	16172.37
509.145	16175.76
509.514	16308.86
509.882	16393.61
510.25	16412.14
510.618	16586.82
510.986	16591.8
511.354	16760.6
511.722	16861.84
512.09	16956.08
512.458	16984.1
512.826	17133.93
513.193	17206.92
513.561	17281.72
513.929	17309.97
514.297	17464.09
514.664	17590.41
515.032	17586.35
515.4	17739.34
515.767	17906.34
516.135	17942.72
516.502	17836.96
516.869	18140
517.237	18154.24
517.604	18067.69
517.972	18350.62
518.339	18463.38
518.706	18422.26
519.073	18482.14
519.44	18482.37
519.808	18834.67
520.175	18792.42
520.542	19015.91
520.909	19104.27
521.276	19155.34
521.643	19172.74
522.009	19314.21
522.376	19497.03
522.743	19445.96
523.11	19603.92
523.477	19844.59
523.843	19868.55
524.21	20100.18
524.577	20211.59
524.943	20198.93
525.31	20336.78
525.676	20443.67
526.043	20485.03
526.409	20650.45
526.776	20755.53
527.142	20819.48
527.508	20895.86
527.874	21070.55
528.241	21141.51
528.607	21118
528.973	21398.67
529.339	21315.74
529.705	21561.16
530.071	21653.58
530.437	21671.89
530.803	21798.66
531.169	21840.02
531.535	21850.87
531.901	21817.42
532.267	21875.72
532.632	22051.99
532.998	22027.13
533.364	22077.07
533.73	22105.1
534.095	22243.62
534.461	22134.25
534.826	22316.84
535.192	22291.53
535.557	22357.52
535.923	22359.33
536.288	22444.07
536.653	22459.44
537.019	22363.4
537.384	22358.65
537.749	22318.42
538.114	22431.64
538.479	22305.54
538.845	22361.81
539.21	22288.59
539.575	22385.09
539.94	22428.25
540.305	22428.03
540.67	22403.17
541.034	22385.09
541.399	22438.65
541.764	22350.51
542.129	22392.32
542.494	22298.99
542.858	22295.37
543.223	22248.14
543.587	22381.02
543.952	22193
544.316	22186
544.681	22153.01
545.045	22363.4
545.41	22289.72
545.774	22089.96
546.138	22128.82
546.503	22176.51
546.867	22048.38
547.231	22127.24
547.595	22216.51
547.959	22154.13
548.324	22126.79
548.688	21989.17
549.052	22107.36
549.416	22059.9
549.779	22046.79
550.143	21978.77
550.507	22040.69
550.871	22018.55
551.235	21943.52
551.599	22093.35
551.962	21995.27
552.326	21979.45
552.689	22016.96
553.053	21761.38
553.417	21932.45
553.78	22056.28
554.143	21997.75
554.507	21923.41
554.87	22047.47
555.234	22082.5
555.597	21867.36
555.96	21965.67
556.323	21958.89
556.686	21960.69
557.05	22058.54
557.413	22077.75
557.776	21927.02
558.139	22008.83
558.502	22130.41
558.865	22108.71
559.228	22158.2
559.59	22102.38
559.953	22011.54
560.316	22278.2
560.679	22211.53
561.041	22256.05
561.404	22238.2
561.767	22389.61
562.129	22189.84
562.492	22404.52
562.854	22449.95
563.217	22300.35
563.579	22369.72
563.941	22475.48
564.304	22657.85
564.666	22823.27
565.028	22705.31
565.39	22753.44
565.753	22869.82
566.115	22801.35
566.477	22957.96
566.839	22975.81
567.201	23238.63
567.563	23192.3
567.925	23277.27
568.287	23228.23
568.648	23249.47
569.01	23381.67
569.372	23578.96
569.734	23491.95
570.095	23755.67
570.457	23769.91
570.819	23779.18
571.18	23729.01
571.542	23959.74
571.903	23948.21
572.265	24081.77
572.626	24118.6
572.987	24136.68
573.349	24241.54
573.71	24300.07
574.071	24356.34
574.432	24459.39
574.794	24690.34
575.155	24644.69
575.516	24434.53
575.877	24680.62
576.238	24693.28
576.599	24776.21
576.96	24837
577.32	24781.41
577.681	24816.89
578.042	25093.49
578.403	24978.24
578.763	25015.3
579.124	24944.57
579.485	25245.58
579.845	25278.57
580.206	25189.76
580.566	25196.99
580.927	25187.28
581.287	25259.82
581.648	25204.22
582.008	25454.84
582.368	25276.31
582.728	25359.7
583.089	25239.25
583.449	25347.72
583.809	25349.31
584.169	25393.15
584.529	25399.7
584.889	25519.92
585.249	25235.18
585.609	25114.51
585.969	25337.1
586.329	25194.28
586.688	25349.98
587.048	25345.69
587.408	25162.64
587.768	25319.02
588.127	25309.08
588.487	25267.05
588.846	25429.08
589.206	25132.59
589.565	25216.65
589.925	25309.76
590.284	25319.02
590.643	25062.99
591.003	25309.76
591.362	25332.81
591.721	25281.28
592.08	25169.42
592.44	25169.2
592.799	25229.08
593.158	25186.15
593.517	25150.21
593.876	25124.23
594.235	25185.69
594.593	25085.13
594.952	25181.4
595.311	25090.1
595.67	25159.03
596.029	25166.49
596.387	25234.28
596.746	25229.99
597.104	25144.56
597.463	25142.76
597.822	25253.71
598.18	25129.2
598.538	25087.39
598.897	25251.91
599.255	25106.6
599.613	25382.07
599.972	25186.6
600.33	25213.49
600.688	25082.19
601.046	25165.58
601.404	25363.99
601.762	25172.36
602.12	25236.54
602.478	25312.92
602.836	25309.08
603.194	24985.02
603.552	25145.02
603.91	25070.67
604.268	25210.78
604.625	25156.99
604.983	25329.42
605.341	25140.95
605.698	25234.51
606.056	25435.86
606.413	25201.51
606.771	25355.86
607.128	25325.58
607.485	25247.84
607.843	25281.96
608.2	25408.51
608.557	25448.74
608.914	25299.59
609.272	25472.01
609.629	25605.12
609.986	25605.34
610.343	25455.74
610.7	25738.45
611.057	25672.91
611.414	25588.39
611.771	25729.41
612.127	25745.23
612.484	25800.37
612.841	25935.05
613.198	25761.5
613.554	25702.29
613.911	25861.83
614.267	25966.01
614.624	25868.16
614.98	25947.03
615.337	26123.97
615.693	26141.6
616.05	26047.14
616.406	26139.79
616.762	26062.28
617.118	26145.67
617.475	26090.3
617.831	26260.47
618.187	26270.18
618.543	26284.65
618.899	26482.38
619.255	26345.89
619.611	26422.95
619.967	26487.13
620.323	26540.91
620.678	26383.63
621.034	26478.09
621.39	26488.03
621.746	26526
622.101	26771.19
622.457	26530.07
622.812	26709.72
623.168	26636.5
623.523	26588.37
623.879	26717.4
624.234	26658.42
624.589	26613.9
624.945	26671.98
625.3	26707.91
625.655	26834.92
626.01	26774.35
626.365	26648.93
626.72	26621.81
627.075	26580.01
627.43	26685.99
627.785	26501.82
628.14	26679.89
628.495	26558.09
628.85	26679.21
629.205	26514.25
629.559	26692.32
629.914	26566.9
630.269	26512.89
630.623	26449.39
630.978	26468.6
631.332	26520.12
631.687	26600.57
632.041	26575.94
632.396	26538.43
632.75	26444.42
633.104	26445.77
633.459	26362.84
633.813	26389.28
634.167	26304.31
634.521	26336.4
634.875	26421.59
635.229	26395.83
635.583	26156.52
635.937	26154.03
636.291	26112
636.645	26220.24
636.999	26041.72
637.352	26255.27
637.706	26052.11
638.06	26112
638.413	25993.36
638.767	25985.22
639.121	26036.07
639.474	25882.62
639.828	25902.96
640.181	25912.91
640.534	25834.72
640.888	25825.9
641.241	25748.84
641.594	25736.87
641.947	25835.85
642.301	25790.88
642.654	25818.9
643.007	25656.19
643.36	25863.42
643.713	25701.61
644.066	25817.32
644.419	25617.55
644.771	25363.32
645.124	25099.59
645.477	25207.16
645.83	25262.98
646.182	25146.82
646.535	25100.95
646.888	25168.29
647.24	25029.09
647.593	25292.13
647.945	25007.62
648.298	25055.3
648.65	25069.99
649.002	24808.53
649.355	24644.69
649.707	24540.51
650.059	24643.56
650.411	24900.5
650.763	25203.32
651.115	25601.95
651.467	25452.81
651.819	25605.57
652.171	25500.49
652.523	25355.63
652.875	25419.13
653.227	25295.3
653.578	25503.65
653.93	25458.68
654.282	25369.87
654.633	25340.27
654.985	25414.39
655.337	25491.9
655.688	25460.94
656.039	25424.11
656.391	25307.27
656.742	25474.5
657.094	25371.45
657.445	25531
657.796	25612.58
658.147	25427.72
658.498	25512.92
658.849	25714.95
659.2	25560.6
659.551	25518.57
659.902	25597.43
660.253	25600.37
660.604	25608.28
660.955	25523.54
661.306	25600.15
661.656	25546.81
662.007	25705.23
662.358	25620.48
662.708	25742.74
663.059	25694.38
663.409	25519.92
663.76	25706.81
664.11	25795.4
664.461	25778.9
664.811	25849.63
665.161	25650.54
665.511	25667.49
665.862	25738
666.212	25873.81
666.562	25827.48
666.912	25772.12
667.262	25751.1
667.612	25823.19
667.962	25776.19
668.312	25688.73
668.662	25894.83
669.011	25801.27
669.361	25738.67
669.711	25822.74
670.06	25846.69
670.41	25826.13
670.76	25745.9
671.109	25924.66
671.459	25747.94
671.808	25733.02
672.157	25748.16
672.507	25658.68
672.856	25634.04
673.205	25668.39
673.554	25814.15
673.904	25613.48
674.253	25825
674.602	25757.88
674.951	25317.67
675.3	25181.17
675.649	25592.69
675.998	25533.93
676.346	25510.66
676.695	25594.72
677.044	25493.03
677.393	25471.34
677.741	25632.69
678.09	25515.18
678.438	25332.81
678.787	25565.34
679.135	25523.99
679.484	25226.82
679.832	25288.74
680.181	25192.93
680.529	25163.32
680.877	25149.54
681.225	25117.22
681.573	25218.69
681.922	25094.4
682.27	25046.04
682.618	25021.18
682.966	24896.44
683.314	24994.06
683.661	24966.04
684.009	24808.08
684.357	24792.48
684.705	24679.04
685.053	24677.46
685.4	24515.2
685.748	24483.57
686.095	24488.76
686.443	24357.01
686.79	24409.67
687.138	24335.55
687.485	24333.96
687.832	24138.94
688.18	24159.73
688.527	24063.24
688.874	24000.64
689.221	23918.38
689.568	23881.1
689.915	23777.37
690.262	23693.98
690.609	23742.34
690.956	23499.18
691.303	23570.14
691.65	23354.78
691.997	23372.63
692.344	23225.75
692.69	23128.57
693.037	23214.22
693.383	22959.76
693.73	22952.08
694.077	22813.55
694.423	22780.79
694.769	22674.8
695.116	22682.48
695.462	22573.56
695.808	22441.59
696.155	22445.2
696.501	22259.89
696.847	22178.54
697.193	22219.67
697.539	22098.54
697.885	21842.96
698.231	21885.67
698.577	21761.15
698.923	21685.45
699.269	21687.03
699.614	21459.01
699.96	21467.6
700.306	21408.62
700.651	21334.95
700.997	21167.72
701.342	21162.75
701.688	21087.27
702.033	21021.06
702.379	20935.41
702.724	20860.61
703.069	20832.81
703.415	20634.63
703.76	20487.29
704.105	20653.61
704.45	20506.72
704.795	20523.9
705.14	20300.62
705.485	20274.18
705.83	20044.81
706.175	20153.06
706.52	20092.95
706.865	20008.43
707.209	19978.6
707.554	19959.84
707.899	19980.63
708.243	19816.34
708.588	19802.33
708.932	19720.3
709.277	19684.14
709.621	19624.26
709.966	19517.82
710.31	19555.11
710.654	19356.24
710.998	19468.33
711.342	19413.42
711.687	19264.95
712.031	19367.32
712.375	19177.04
712.719	19268.34
713.063	19224.72
713.407	19245.28
713.75	19095.46
714.094	19083.03
714.438	19024.95
714.782	19062.69
715.125	18927.33
715.469	19103.59
715.812	19005.29
716.156	18979.3
716.499	19022.47
716.843	19056.14
717.186	18856.14
717.53	19040.54
717.873	19006.42
718.216	18970.04
718.559	18874.45
718.902	18715.81
719.246	18803.26
719.589	18749.25
719.932	18786.09
720.275	18759.65
720.617	18797.16
720.96	18706.09
721.303	18861.79
721.646	18817.95
721.989	18835.58
722.331	18832.41
722.674	18648.46
723.016	18707.9
723.359	18663.15
723.701	18689.37
724.044	18678.29
724.386	18532.31
724.729	18753.77
725.071	18678.52
725.413	18672.19
725.755	18729.59
726.097	18556.72
726.439	18556.94
726.782	18598.52
727.124	18702.93
727.465	18760.1
727.807	18696.82
728.149	18657.73
728.491	18683.04
728.833	18798.74
729.175	18713.77
729.516	18709.03
729.858	18701.12
730.199	18822.7
730.541	18855.92
730.882	18820.66
731.224	18770.04
731.565	18799.42
731.906	18788.12
732.248	18841
732.589	18716.26
732.93	18880.32
733.271	18939.98
733.612	18883.49
733.953	18973.2
734.294	19045.97
734.635	19007.33
734.976	19117.15
735.317	19163.25
735.658	19087.55
735.999	19048.91
736.339	19207.55
736.68	19202.35
737.021	19180.43
737.361	19240.77
737.702	19440.99
738.042	19353.3
738.383	19468.33
738.723	19554.66
739.063	19520.98
739.404	19588.33
739.744	19683.69
740.084	19695.89
740.424	19776.8
740.764	19816.12
741.104	20010.91
741.444	19959.16
741.784	19998.94
742.124	20161.42
742.464	20185.15
742.804	20270.57
743.143	20337.01
743.483	20428.53
743.823	20452.03
744.162	20673.95
744.502	20904
744.841	20953.94
745.181	21021.06
745.52	21141.05
745.86	21300.15
746.199	21403.65
746.538	21511.44
746.877	21834.82
747.216	21818.1
747.556	21986.91
747.895	22164.53
748.234	22126.11
748.573	22310.06
748.911	22537.63
749.25	22806.1
749.589	22868.24
749.928	23181.45
750.267	23345.06
750.605	23522.91
750.944	23784.6
751.283	23942.34
751.621	24209.9
751.96	24263.46
752.298	24501.87
752.636	24802.2
752.975	24834.52
753.313	25152.93
753.651	25423.43
753.989	25568.06
754.327	25776.19
754.666	25862.06
755.004	26253.91
