Data from 18-4525_FLMS001491_002.txt Node
Date: Thu Apr 19 16:42:38 BST 2018
User: hsy
Spectrometer: FLMS00149
Trigger mode: 0
Integration Time (sec): 1.000000E-2
Scans to average: 10
Electric dark correction enabled: true
Nonlinearity correction enabled: false
Boxcar width: 0
XAxis mode: Wavelengths
Number of Pixels in Spectrum: 2048
>>>>>Begin Spectral Data<<<<<
341.393	-20.95
341.776	-20.95
342.16	-20.95
342.543	-60.27
342.927	-64.56
343.31	-64.79
343.693	-82.19
344.077	-64.11
344.46	-71.11
344.843	-42.19
345.226	-44.22
345.61	-41.51
345.993	-4.22
346.376	-13.71
346.759	17.02
347.142	22.44
347.525	49.79
347.908	61.09
348.291	77.36
348.674	98.15
349.057	102.21
349.44	118.26
349.823	133.4
350.206	183.12
350.588	221.99
350.971	253.4
351.354	267.86
351.737	277.13
352.119	278.48
352.502	282.32
352.884	307.18
353.267	330.01
353.65	325.26
354.032	323.68
354.414	337.01
354.797	335.43
355.179	374.3
355.562	361.87
355.944	349.44
356.326	356.22
356.709	386.5
357.091	384.47
357.473	393.51
357.855	361.64
358.238	363.22
358.62	389.89
359.002	360.29
359.384	374.75
359.766	379.72
360.148	387.63
360.53	369.33
360.912	384.02
361.294	348.99
361.676	371.36
362.057	355.54
362.439	378.82
362.821	358.93
363.203	380.63
363.584	365.03
363.966	367.74
364.348	351.93
364.729	374.52
365.111	393.28
365.493	353.96
365.874	365.71
366.256	347.41
366.637	355.09
367.019	353.28
367.4	347.86
367.781	329.1
368.163	348.54
368.544	361.19
368.925	357.35
369.306	345.37
369.688	356.67
370.069	374.3
370.45	360.06
370.831	367.74
371.212	383.79
371.593	342.66
371.974	377.91
372.355	359.38
372.736	370.68
373.117	380.4
373.498	379.72
373.879	381.53
374.26	358.93
374.641	358.48
375.021	376.56
375.402	372.49
375.783	373.62
376.163	393.73
376.544	403.22
376.925	386.5
377.305	397.8
377.686	406.16
378.066	400.29
378.447	406.84
378.827	373.39
379.208	414.97
379.588	400.29
379.968	413.17
380.349	392.83
380.729	403.45
381.109	422.88
381.489	394.64
381.87	401.19
382.25	419.72
382.63	415.88
383.01	416.1
383.39	429.66
383.77	420.17
384.15	433.96
384.53	436.44
384.91	448.65
385.29	432.6
385.67	441.87
386.049	451.13
386.429	447.06
386.809	443.22
387.189	452.49
387.568	455.2
387.948	477.35
388.328	468.08
388.707	483.9
389.087	479.83
389.466	464.69
389.846	475.31
390.225	482.09
390.605	479.83
390.984	491.58
391.363	490.23
391.743	506.05
392.122	494.52
392.501	508.98
392.881	514.63
393.26	520.51
393.639	524.12
394.018	522.77
394.397	529.77
394.776	520.96
395.155	545.82
395.534	526.38
395.913	537.68
396.292	525.71
396.671	532.94
397.05	555.99
397.429	557.34
397.808	554.18
398.186	556.67
398.565	558.93
398.944	576.33
399.323	575.2
399.701	584.24
400.08	587.85
400.458	607.06
400.837	613.39
401.215	595.54
401.594	623.33
401.972	594.86
402.351	615.87
402.729	618.81
403.107	638.02
403.486	637.57
403.864	613.39
404.242	641.18
404.62	679.83
404.999	647.29
405.377	667.62
405.755	649.77
406.133	681.86
406.511	660.39
406.889	670.79
407.267	684.57
407.645	712.14
408.023	724.35
408.401	742.2
408.779	729.54
409.156	756.66
409.534	775.42
409.912	787.17
410.29	780.39
410.667	788.98
411.045	798.47
411.422	828.52
411.8	821.52
412.178	836.88
412.555	865.81
412.933	901.74
413.31	876.66
413.687	893.61
414.065	904.45
414.442	931.57
414.819	939.03
415.197	926.6
415.574	940.84
415.951	948.29
416.328	960.95
416.705	976.32
417.082	971.8
417.46	1016.99
417.837	979.03
418.214	986.71
418.591	1019.7
418.967	1021.29
419.344	1004.56
419.721	1024.68
420.098	1022.64
420.475	1041.63
420.852	1064.45
421.228	1080.72
421.605	1086.37
421.982	1103.77
422.358	1116.65
422.735	1156.65
423.111	1135.41
423.488	1169.53
423.864	1189.19
424.241	1163.88
424.617	1174.5
424.994	1205.01
425.37	1234.16
425.746	1236.87
426.123	1249.98
426.499	1237.33
426.875	1263.54
427.251	1317.55
427.627	1331.11
428.003	1340.83
428.379	1328.17
428.756	1348.96
429.132	1367.94
429.507	1386.7
429.883	1408.62
430.259	1429.86
430.635	1433.25
431.011	1448.17
431.387	1484.55
431.763	1521.16
432.138	1535.17
432.514	1529.3
432.89	1543.76
433.265	1601.16
433.641	1592.8
434.016	1628.73
434.392	1678.22
434.767	1700.14
435.143	1695.17
435.518	1712.57
435.894	1757.31
436.269	1768.39
436.644	1791.66
437.02	1812.9
437.395	1821.72
437.77	1836.41
438.145	1872.34
438.52	1899.46
438.895	1933.35
439.271	1932.68
439.646	1948.72
440.021	1996.85
440.395	2017.64
440.77	1951.43
441.145	2009.28
441.52	2043.63
441.895	2052.9
442.27	2078.43
442.645	2057.87
443.019	2099
443.394	2147.58
443.769	2148.94
444.143	2142.84
444.518	2196.4
444.892	2181.03
445.267	2201.82
445.641	2235.27
446.016	2229.84
446.39	2231.42
446.764	2255.6
447.139	2262.16
447.513	2272.55
447.887	2265.1
448.262	2300.58
448.636	2363.17
449.01	2392.55
449.384	2401.36
449.758	2408.14
450.132	2438.42
450.506	2424.64
450.88	2493.11
451.254	2429.16
451.628	2494.69
452.002	2524.75
452.376	2578.31
452.75	2618.98
453.123	2615.82
453.497	2651.75
453.871	2654.69
454.244	2738.76
454.618	2770.62
454.992	2825.08
455.365	2764.74
455.739	2849.94
456.112	2907.34
456.486	2936.72
456.859	2980.78
457.232	3024.85
457.606	3063.72
457.979	3105.07
458.352	3154.34
458.725	3159.76
459.099	3208.35
459.472	3193.21
459.845	3301
460.218	3316.37
460.591	3347.1
460.964	3368.34
461.337	3419.19
461.71	3526.76
462.083	3529.7
462.456	3587.09
462.829	3546.87
463.201	3651.73
463.574	3626.64
463.947	3750.93
464.32	3795
464.692	3813.3
465.065	3821.44
465.438	3890.82
465.81	3911.61
466.183	3928.78
466.555	4080.87
466.928	4093.97
467.3	4060.08
467.672	4126.74
468.045	4258.49
468.417	4243.35
468.789	4254.42
469.161	4352.72
469.534	4453.29
469.906	4507.07
470.278	4529.9
470.65	4529.67
471.022	4667.52
471.394	4712.04
471.766	4722.21
472.138	4831.58
472.51	4928.08
472.882	5040.16
473.253	5006.27
473.625	5075.87
473.997	5232.48
474.369	5234.74
474.74	5304.34
475.112	5394.28
475.484	5466.59
475.855	5588.17
476.227	5564.9
476.598	5754.95
476.97	5843.53
477.341	5917.66
477.713	6056.41
478.084	6063.41
478.455	6185.9
478.827	6271.32
479.198	6492.78
479.569	6504.08
479.94	6677.64
480.311	6765.32
480.682	6883.73
481.053	7030.39
481.424	7130.73
481.795	7272.42
482.166	7338.63
482.537	7429.48
482.908	7529.36
483.279	7719.42
483.65	7867.21
484.021	8028.56
484.391	8111.95
484.762	8236.01
485.133	8272.62
485.503	8426.97
485.874	8628.32
486.244	8721.2
486.615	8923.68
486.985	9008.2
487.356	9176.1
487.726	9303.1
488.097	9552.14
488.467	9556.2
488.837	9748.74
489.207	9899.02
489.578	10098.79
489.948	10210.2
490.318	10333.13
490.688	10471.43
491.058	10661.49
491.428	10778.54
491.798	10944.87
492.168	11139.66
492.538	11321.35
492.908	11372.2
493.278	11490.62
493.648	11646.54
494.017	11783.04
494.387	11957.27
494.757	12099.41
495.126	12226.19
495.496	12315.23
495.866	12477.03
496.235	12568.33
496.605	12792.28
496.974	12873.18
497.344	12983.68
497.713	13117.01
498.082	13174.19
498.452	13381.41
498.821	13525.14
499.19	13570.34
499.559	13737.56
499.928	13930.1
500.298	13960.16
500.667	14095.29
501.036	14040.38
501.405	14305.23
501.774	14376.19
502.143	14521.95
502.512	14597.2
502.88	14803.07
503.249	14699.8
503.618	14896.18
503.987	15009.39
504.356	15152.44
504.724	15262.49
505.093	15386.33
505.462	15410.96
505.83	15505.65
506.199	15741.35
506.567	15863.83
506.936	15918.97
507.304	16060.21
507.672	16151.28
508.041	16285.07
508.409	16309.25
508.777	16373.88
509.145	16693.64
509.514	16584.04
509.882	16702
510.25	16783.36
510.618	16939.06
510.986	16910.36
511.354	17200.52
511.722	17306.28
512.09	17464.47
512.458	17373.17
512.826	17619.49
513.193	17550.57
513.561	17613.39
513.929	17777.91
514.297	17879.83
514.664	17963.21
515.032	18094.96
515.4	18198.01
515.767	18309.42
516.135	18369.08
516.502	18212.7
516.869	18634.16
517.237	18643.42
517.604	18564.78
517.972	18820.59
518.339	18864.66
518.706	18891.78
519.073	19066.91
519.44	19169.06
519.808	19370.86
520.175	19317.75
520.542	19509.84
520.909	19631.42
521.276	19576.96
521.643	19777.18
522.009	19878.87
522.376	20053.33
522.743	20000.22
523.11	20202.48
523.477	20432.3
523.843	20368.12
524.21	20633.2
524.577	20671.17
524.943	20829.81
525.31	20871.61
525.676	21124.71
526.043	21164.71
526.409	21156.12
526.776	21319.28
527.142	21381.88
527.508	21505.49
527.874	21565.38
528.241	21630.46
528.607	21717.24
528.973	21915.43
529.339	21941.19
529.705	22052.37
530.071	22212.82
530.437	22112.71
530.803	22374.17
531.169	22458.01
531.535	22399.03
531.901	22390.67
532.267	22495.52
532.632	22644.9
532.998	22634.05
533.364	22722.19
533.73	22656.65
534.095	22933.93
534.461	22712.24
534.826	22846.48
535.192	22869.98
535.557	22998.11
535.923	22991.56
536.288	23018.9
536.653	23188.16
537.019	22991.56
537.384	23003.76
537.749	23072.46
538.114	23062.74
538.479	23005.12
538.845	23090.31
539.21	22979.35
539.575	23063.42
539.94	23131.21
540.305	23137.77
540.67	23041.95
541.034	23066.58
541.399	23086.47
541.764	23068.16
542.129	23153.81
542.494	23067.71
542.858	23091.21
543.223	22994.27
543.587	23103.64
543.952	23060.03
544.316	23009.64
544.681	22818
545.045	22928.96
545.41	23048.5
545.774	22813.71
546.138	22832.92
546.503	22895.97
546.867	22821.62
547.231	23000.14
547.595	22812.8
547.959	22845.12
548.324	22821.17
548.688	22824.78
549.052	22944.33
549.416	22828.85
549.779	22733.26
550.143	22712.92
550.507	22803.09
550.871	22691.23
551.235	22628.85
551.599	22822.97
551.962	22784.78
552.326	22772.58
552.689	22806.02
553.053	22662.3
553.417	22676.31
553.78	22884.89
554.143	22654.84
554.507	22648.06
554.87	22788.17
555.234	22869.75
555.597	22682.64
555.96	22699.81
556.323	22660.49
556.686	22695.97
557.05	22748.85
557.413	22821.39
557.776	22711.79
558.139	22824.56
558.502	22732.35
558.865	22791.56
559.228	22878.34
559.59	22960.6
559.953	22924.44
560.316	23042.4
560.679	23007.83
561.041	22954.27
561.404	22992.69
561.767	23189.07
562.129	23080.59
562.492	23258.22
562.854	23205.11
563.217	23182.29
563.579	23413.24
563.941	23402.39
564.304	23487.14
564.666	23580.92
565.028	23579.11
565.39	23614.59
565.753	23721.25
566.115	23694.36
566.477	23803.96
566.839	23750.86
567.201	24081.02
567.563	24005.99
567.925	24109.95
568.287	24193.11
568.648	24208.25
569.01	24404.63
569.372	24433.55
569.734	24387.45
570.095	24553.1
570.457	24709.48
570.819	24693.21
571.18	24621.12
571.542	24819.98
571.903	24817.95
572.265	24973.43
572.626	25073.99
572.987	25051.84
573.349	25148.11
573.71	25240.54
574.071	25281.44
574.432	25355.11
574.794	25558.72
575.155	25550.59
575.516	25603.24
575.877	25576.35
576.238	25587.42
576.599	25790.13
576.96	25826.51
577.32	25855.89
577.681	25804.59
578.042	25838.04
578.403	26026.96
578.763	26078.93
579.124	26041.42
579.485	26168.87
579.845	26231.92
580.206	26075.32
580.566	26194.41
580.927	26191.02
581.287	26426.49
581.648	26230.79
582.008	26307.85
582.368	26294.75
582.728	26306.5
583.089	26243.45
583.449	26310.11
583.809	26334.97
584.169	26344.24
584.529	26324.35
584.889	26353.73
585.249	26295.65
585.609	26068.31
585.969	26444.57
586.329	26307.63
586.688	26404.12
587.048	26198.93
587.408	26318.7
587.768	26184.69
588.127	26208.87
588.487	26176.11
588.846	26364.12
589.206	26110.8
589.565	26059.5
589.925	26364.12
590.284	26200.51
590.643	26098.82
591.003	26250.23
591.362	26337.23
591.721	26163.22
592.08	26099.95
592.44	26364.12
592.799	26197.35
593.158	26142.66
593.517	26133.62
593.876	26099.5
594.235	26089.33
594.593	26094.53
594.952	26028.76
595.311	26057.69
595.67	26067.18
596.029	26184.47
596.387	26188.76
596.746	26193.96
597.104	25902.44
597.463	26021.31
597.822	26141.98
598.18	26056.33
598.538	26089.1
598.897	26186.27
599.255	25967.3
599.613	26283.67
599.972	26030.57
600.33	26153.06
600.688	26015.21
601.046	26137.69
601.404	26256.33
601.762	26188.76
602.12	26260.4
602.478	26167.52
602.836	26250.68
603.194	26105.82
603.552	26129.55
603.91	26051.81
604.268	26297.01
604.625	26137.69
604.983	26202.55
605.341	26048.65
605.698	26288.87
606.056	26340.62
606.413	26286.61
606.771	26413.61
607.128	26367.96
607.485	26327.97
607.843	26299.49
608.2	26353.05
608.557	26447.51
608.914	26424.01
609.272	26407.51
609.629	26521.18
609.986	26708.07
610.343	26679.6
610.7	26711.01
611.057	26725.92
611.414	26476.44
611.771	26659.03
612.127	26895.86
612.484	26806.82
612.841	26901.06
613.198	26859.93
613.554	26729.31
613.911	26941.74
614.267	26974.73
614.624	26883.66
614.98	27036.65
615.337	27099.92
615.693	27112.58
616.05	27094.27
616.406	27292.91
616.762	27188.51
617.118	27103.99
617.475	27043.65
617.831	27356.19
618.187	27330.65
618.543	27346.92
618.899	27479.57
619.255	27498.56
619.611	27359.58
619.967	27637.54
620.323	27687.7
620.678	27505.34
621.034	27471.89
621.39	27526.13
621.746	27475.28
622.101	27774.03
622.457	27563.64
622.812	27694.48
623.168	27749.62
623.523	27742.62
623.879	27866.91
624.234	27709.4
624.589	27660.59
624.945	27654.94
625.3	27768.38
625.655	27734.26
626.01	27858.77
626.365	27756.85
626.72	27796.63
627.075	27673.47
627.43	27763.63
627.785	27720.02
628.14	27780.58
628.495	27722.73
628.85	27714.6
629.205	27733.58
629.559	27735.84
629.914	27676.18
630.269	27652.9
630.623	27471.66
630.978	27421.5
631.332	27736.97
631.687	27710.53
632.041	27454.49
632.396	27538.78
632.75	27554.37
633.104	27610.64
633.459	27396.19
633.813	27466.69
634.167	27441.61
634.521	27388.95
634.875	27446.81
635.229	27154.84
635.583	27184.44
635.937	27289.07
636.291	27177.66
636.645	27142.18
636.999	27098.34
637.352	27167.94
637.706	26983.09
638.06	27047.5
638.413	27022.64
638.767	26939.48
639.121	26961.85
639.474	26872.13
639.828	26807.73
640.181	26835.98
640.534	26791.68
640.888	26810.67
641.241	26724.79
641.594	26772.93
641.947	26783.77
642.301	26714.17
642.654	26872.36
643.007	26639.37
643.36	26862.19
643.713	26696.09
644.066	26873.49
644.419	26472.14
644.771	26390.11
645.124	25999.84
645.477	26148.76
645.83	26073.06
646.182	26030.12
646.535	26040.06
646.888	26176.11
647.24	26088.65
647.593	26173.39
647.945	26085.26
648.298	25985.6
648.65	25842.55
649.002	25655.22
649.355	25609.79
649.707	25538.38
650.059	25609.79
650.411	25970.24
650.763	26157.12
651.115	26637.11
651.467	26490.9
651.819	26398.25
652.171	26451.13
652.523	26433.5
652.875	26388.76
653.227	26328.42
653.578	26547.62
653.93	26432.14
654.282	26232.15
654.633	26261.75
654.985	26431.01
655.337	26395.53
655.688	26351.69
656.039	26517.57
656.391	26211.58
656.742	26347.85
657.094	26425.14
657.445	26483.22
657.796	26439.15
658.147	26400.73
658.498	26432.14
658.849	26560.5
659.2	26426.72
659.551	26382.65
659.902	26630.33
660.253	26471.46
660.604	26587.62
660.955	26460.39
661.306	26647.96
661.656	26396.44
662.007	26574.51
662.358	26639.37
662.708	26657.9
663.059	26525.02
663.409	26493.61
663.76	26676.88
664.11	26774.28
664.461	26773.15
664.811	26735.19
665.161	26731.8
665.511	26658.58
665.862	26697.45
666.212	26772.93
666.562	26803.43
666.912	26704.45
667.262	26731.12
667.612	26871.68
667.962	26800.04
668.312	26622.2
668.662	26829.42
669.011	26690.44
669.361	26747.62
669.711	26755.98
670.06	26709.65
670.41	26712.59
670.76	26751.46
671.109	26746.49
671.459	26779.25
671.808	26627.62
672.157	26671.01
672.507	26552.82
672.856	26437.57
673.205	26615.87
673.554	26607.73
673.904	26568.64
674.253	26727.05
674.602	26474.85
674.951	26150.34
675.3	26025.38
675.649	26538.58
675.998	26498.58
676.346	26531.35
676.695	26509.66
677.044	26327.06
677.393	26393.5
677.741	26371.81
678.09	26289.55
678.438	26263.56
678.787	26224.47
679.135	26274.63
679.484	26011.36
679.832	26166.84
680.181	26109.89
680.529	26139.5
680.877	25987.86
681.225	26001.65
681.573	26157.35
681.922	25963.91
682.27	25873.51
682.618	25861.09
682.966	25799.62
683.314	25753.74
683.661	25722.78
684.009	25723.69
684.357	25572.05
684.705	25554.65
685.053	25594.2
685.4	25455.45
685.748	25361.44
686.095	25345.84
686.443	25296.35
686.79	25176.58
687.138	25315.79
687.485	25201.22
687.832	25076.93
688.18	25080.54
688.527	24818.18
688.874	24791.28
689.221	24845.52
689.568	24654.11
689.915	24653.43
690.262	24565.3
690.609	24514.68
690.956	24438.98
691.303	24368.92
691.65	24260.9
691.997	24224.29
692.344	24144.75
692.69	23976.39
693.037	24035.37
693.383	23939.33
693.73	23821.37
694.077	23682.39
694.423	23566.68
694.769	23482.84
695.116	23414.14
695.462	23315.16
695.808	23290.76
696.155	23359.46
696.501	22984.55
696.847	23201.95
697.193	22879.7
697.539	22920.82
697.885	22721.06
698.231	22616.88
698.577	22579.36
698.923	22526.03
699.269	22496.65
699.614	22321.97
699.96	22095.08
700.306	22183.89
700.651	22052.6
700.997	22005.82
701.342	21865.03
701.688	21885.82
702.033	21684.02
702.379	21717.69
702.724	21617.58
703.069	21676.34
703.415	21424.37
703.76	21356.57
704.105	21441.31
704.45	21365.38
704.795	21138.5
705.14	21125.62
705.485	21135.11
705.83	20879.52
706.175	20984.38
706.52	20944.15
706.865	20732.41
707.209	20786.87
707.554	20731.28
707.899	20661.9
708.243	20543.49
708.588	20489.48
708.932	20479.08
709.277	20433.21
709.621	20274.11
709.966	20248.8
710.31	20312.3
710.654	20214.91
710.998	20264.62
711.342	20229.14
711.687	20025.08
712.031	20032.54
712.375	19970.17
712.719	20048.36
713.063	19884.75
713.407	20094.68
713.75	19977.4
714.094	19970.17
714.438	19796.16
714.782	19811.75
715.125	19790.06
715.469	19803.62
715.812	19619.44
716.156	19631.87
716.499	19647.92
716.843	19735.37
717.186	19613.57
717.53	19810.62
717.873	19720.68
718.216	19649.95
718.559	19537.86
718.902	19539.67
719.246	19641.81
719.589	19553.45
719.932	19555.49
720.275	19510.52
720.617	19518.43
720.96	19408.37
721.303	19520.69
721.646	19531.99
721.989	19385.32
722.331	19503.74
722.674	19388.04
723.016	19386.68
723.359	19279.56
723.701	19387.36
724.044	19339.68
724.386	19255.16
724.729	19317.98
725.071	19357.98
725.413	19344.65
725.755	19364.08
726.097	19375.38
726.439	19285.89
726.782	19371.54
727.124	19414.25
727.465	19353.01
727.807	19319.79
728.149	19415.61
728.491	19382.61
728.833	19421.93
729.175	19315.95
729.516	19262.16
729.858	19383.06
730.199	19504.19
730.541	19442.05
730.882	19456.51
731.224	19537.18
731.565	19432.55
731.906	19559.1
732.248	19578.31
732.589	19408.37
732.93	19494.02
733.271	19521.59
733.612	19566.56
733.953	19835.71
734.294	19626.67
734.635	19678.42
734.976	19713.9
735.317	19672.77
735.658	19833.9
735.999	19728.82
736.339	19767.46
736.68	19791.64
737.021	19886.55
737.361	19860.11
737.702	20117.06
738.042	19993.9
738.383	20069.15
738.723	20133.55
739.063	20151.18
739.404	20316.6
739.744	20368.12
740.084	20334.9
740.424	20460.32
740.764	20412.19
741.104	20614.9
741.444	20567.44
741.784	20714.1
742.124	20771.95
742.464	20785.96
742.804	20816.47
743.143	20891.5
743.483	21039.29
743.823	21075.22
744.162	21195.9
744.502	21386.4
744.841	21398.6
745.181	21659.84
745.52	21692.16
745.86	21832.72
746.199	22014.86
746.538	22044.01
746.877	22289.65
747.216	22395.64
747.556	22518.8
747.895	22645.58
748.234	22732.58
748.573	22974.38
748.911	23114.27
749.25	23318.55
749.589	23385.22
749.928	23684.42
750.267	23885.09
750.605	24023.39
750.944	24144.52
751.283	24462.25
751.621	24645.3
751.96	24742.7
752.298	24953.09
752.636	25276.24
752.975	25395.11
753.313	25563.24
753.651	25935.21
