Data from 18-4525_FLMS001491_010.txt Node
Date: Thu Apr 19 16:43:01 BST 2018
User: hsy
Spectrometer: FLMS00149
Trigger mode: 0
Integration Time (sec): 1.000000E-2
Scans to average: 10
Electric dark correction enabled: true
Nonlinearity correction enabled: false
Boxcar width: 0
XAxis mode: Wavelengths
Number of Pixels in Spectrum: 2048
>>>>>Begin Spectral Data<<<<<
341.393	-3.57
341.776	-3.57
342.16	-3.57
342.543	-66.85
342.927	-59.39
343.31	-66.62
343.693	-67.07
344.077	-75.44
344.46	-68.88
344.843	-48.09
345.226	-63.01
345.61	-53.74
345.993	-10.35
346.376	3.43
346.759	14.96
347.142	49.31
347.525	28.29
347.908	40.72
348.291	86.82
348.674	105.8
349.057	123.88
349.44	113.03
349.823	148.97
350.206	187.16
350.588	228.28
350.971	231.22
351.354	273.93
351.737	282.07
352.119	284.78
352.502	296.98
352.884	295.4
353.267	324.78
353.65	331.79
354.032	327.72
354.414	341.28
354.797	361.39
355.179	342.86
355.562	362.74
355.944	358.68
356.326	349.19
356.709	394.83
357.091	376.08
357.473	365
357.855	367.26
358.238	376.53
358.62	364.55
359.002	388.05
359.384	376.76
359.766	371.78
360.148	389.86
360.53	376.53
360.912	391.22
361.294	373.37
361.676	352.58
362.057	366.81
362.439	342.63
362.821	365.68
363.203	376.98
363.584	368.85
363.966	355.29
364.348	358.68
364.729	332.46
365.111	345.12
365.493	353.93
365.874	360.03
366.256	342.41
366.637	354.16
367.019	364.55
367.4	367.26
367.781	350.32
368.163	316.19
368.544	355.06
368.925	376.53
369.306	367.72
369.688	362.52
370.069	346.02
370.45	373.59
370.831	343.76
371.212	382.63
371.593	374.27
371.974	363.2
372.355	356.87
372.736	366.59
373.117	393.7
373.498	372.46
373.879	359.81
374.26	352.35
374.641	376.3
375.021	365.23
375.402	405.68
375.783	388.51
376.163	418.56
376.544	387.6
376.925	370.88
377.305	371.78
377.686	398
378.066	370.65
378.447	403.2
378.827	396.19
379.208	415.4
379.588	393.93
379.968	398.22
380.349	388.96
380.729	398.45
381.109	391.22
381.489	418.56
381.87	436.19
382.25	414.27
382.63	410.43
383.01	427.15
383.39	415.62
383.77	418.34
384.15	412.46
384.53	420.6
384.91	418.79
385.29	421.95
385.67	445.68
386.049	450.88
386.429	454.72
386.809	424.44
387.189	452.23
387.568	463.08
387.948	432.57
388.328	451.1
388.707	466.92
389.087	455.85
389.466	471.44
389.846	474.15
390.225	483.65
390.605	478.9
390.984	485.68
391.363	466.7
391.743	490.2
392.122	486.36
392.501	496.75
392.881	513.7
393.26	503.31
393.639	528.62
394.018	513.93
394.397	530.88
394.776	528.39
395.155	534.49
395.534	539.92
395.913	537.43
396.292	554.83
396.671	526.58
397.05	549.63
397.429	539.69
397.808	543.53
398.186	560.71
398.565	563.19
398.944	548.28
399.323	572.23
399.701	565
400.08	581.95
400.458	611.55
400.837	597.99
401.215	602.29
401.594	585.79
401.972	597.09
402.351	604.32
402.729	612.23
403.107	642.29
403.486	638.22
403.864	624.88
404.242	622.62
404.62	636.64
404.999	662.62
405.377	669.63
405.755	670.76
406.133	654.04
406.511	683.87
406.889	658.33
407.267	700.59
407.645	708.72
408.023	711.66
408.401	732.23
408.779	724.77
409.156	737.42
409.534	759.12
409.912	774.49
410.29	760.02
410.667	757.08
411.045	782.85
411.422	807.93
411.8	776.29
412.178	831.43
412.555	832.56
412.933	840.7
413.31	842.96
413.687	858.1
414.065	869.62
414.442	868.49
414.819	895.84
415.197	891.32
415.574	907.82
415.951	899.23
416.328	946.23
416.705	917.31
417.082	928.38
417.46	958.89
417.837	950.53
418.214	977.42
418.591	977.87
418.967	998.43
419.344	999.79
419.721	993.24
420.098	1026.91
420.475	1026.46
420.852	1042.27
421.228	1067.13
421.605	1045.44
421.982	1083.86
422.358	1086.79
422.735	1105.55
423.111	1088.83
423.488	1129.73
423.864	1136.06
424.241	1095.15
424.617	1162.95
424.994	1182.16
425.37	1167.47
425.746	1190.75
426.123	1190.97
426.499	1186.9
426.875	1241.82
427.251	1269.39
427.627	1252.44
428.003	1269.39
428.379	1295.15
428.756	1324.53
429.132	1317.52
429.507	1339.44
429.883	1367.92
430.259	1402.72
430.635	1401.59
431.011	1405.43
431.387	1428.48
431.763	1468.7
432.138	1439.55
432.514	1499.89
432.89	1480.23
433.265	1545.09
433.641	1540.57
434.016	1539.89
434.392	1616.72
434.767	1597.97
435.143	1643.16
435.518	1625.76
435.894	1660.79
436.269	1669.38
436.644	1739.88
437.02	1757.28
437.395	1770.39
437.77	1794.57
438.145	1804.06
438.52	1800.22
438.895	1834.57
439.271	1851.07
439.646	1882.7
440.021	1948.01
440.395	1928.58
440.77	1906.66
441.145	1959.31
441.52	1984.62
441.895	1969.93
442.27	2004.28
442.645	2001.35
443.019	2018.75
443.394	2009.48
443.769	2027.79
444.143	2043.15
444.518	2077.95
444.892	2073.21
445.267	2105.3
445.641	2121.57
446.016	2124.51
446.39	2145.52
446.764	2180.55
447.139	2196.14
447.513	2191.85
447.887	2196.59
448.262	2234.79
448.636	2233.66
449.01	2276.37
449.384	2298.51
449.758	2283.6
450.132	2320.21
450.506	2338.51
450.88	2347.78
451.254	2391.62
451.628	2417.15
452.002	2457.38
452.376	2463.93
452.75	2466.87
453.123	2491.28
453.497	2525.17
453.871	2583.48
454.244	2642.23
454.618	2638.39
454.992	2649.01
455.365	2703.7
455.739	2742.57
456.112	2755.68
456.486	2797.71
456.859	2805.84
457.232	2936.01
457.606	2969.68
457.979	2949.57
458.352	3000.42
458.725	3040.87
459.099	3039.74
459.472	3098.94
459.845	3170.81
460.218	3140.75
460.591	3226.4
460.964	3242.67
461.337	3278.83
461.71	3382.1
462.083	3411.7
462.456	3425.72
462.829	3417.81
463.201	3494.87
463.574	3453.74
463.947	3519.95
464.32	3657.57
464.692	3668.42
465.065	3636.33
465.438	3735.76
465.81	3806.04
466.183	3764.69
466.555	3859.83
466.928	3854.4
467.3	3905.48
467.672	4001.52
468.045	4066.38
468.417	4022.54
468.789	4085.58
469.161	4176.88
469.534	4205.58
469.906	4290.55
470.278	4306.14
470.65	4353.15
471.022	4473.82
471.394	4485.12
471.766	4533.93
472.138	4594.05
472.51	4650.09
472.882	4730.99
473.253	4789.52
473.625	4844.89
473.997	4964.88
474.369	5009.85
474.74	5084.2
475.112	5135.5
475.484	5213.01
475.855	5287.13
476.227	5394.02
476.598	5491.65
476.97	5563.06
477.341	5675.83
477.713	5741.59
478.084	5773
478.455	5928.25
478.827	6044.63
479.198	6158.52
479.569	6195.36
479.94	6357.62
480.311	6434
480.682	6529.81
481.053	6715.57
481.424	6845.51
481.795	6874.21
482.166	6967.09
482.537	7119.86
482.908	7254.09
483.279	7345.39
483.65	7504.93
484.021	7673.29
484.391	7759.16
484.762	7809.1
485.133	7852.94
485.503	8040.06
485.874	8215.19
486.244	8376.77
486.615	8477.11
486.985	8624
487.356	8795.07
487.726	8875.52
488.097	9035.74
488.467	9174.49
488.837	9366.8
489.207	9491.54
489.578	9647.25
489.948	9691.76
490.318	9950.06
490.688	9934.47
491.058	10184.18
491.428	10327.23
491.798	10437.51
492.168	10716.14
492.538	10779.87
492.908	10950.49
493.278	11158.17
493.648	11165.85
494.017	11317.71
494.387	11472.96
494.757	11551.6
495.126	11664.37
495.496	11797.7
495.866	11962.21
496.235	12085.37
496.605	12249.66
496.974	12337.12
497.344	12488.3
497.713	12602.87
498.082	12703.66
498.452	12891
498.821	12988.18
499.19	13074.95
499.559	13276.53
499.928	13313.36
500.298	13464.32
500.667	13535.05
501.036	13557.88
501.405	13797.42
501.774	13763.07
502.143	13940.92
502.512	14036.28
502.88	14202.61
503.249	14224.98
503.618	14417.74
503.987	14471.07
504.356	14584.52
504.724	14665.65
505.093	14815.47
505.462	14860.67
505.83	14942.02
506.199	15194.45
506.567	15300.21
506.936	15338.4
507.304	15551.72
507.672	15584.94
508.041	15708.1
508.409	15774.99
508.777	15885.5
509.145	16002.56
509.514	16017.93
509.882	16163.69
510.25	16178.6
510.618	16329.56
510.986	16383.79
511.354	16521.19
511.722	16623.56
512.09	16740.62
512.458	16753.95
512.826	17071.23
513.193	16930.44
513.561	17008.63
513.929	17189.65
514.297	17298.57
514.664	17431.9
515.032	17370.21
515.4	17561.61
515.767	17691.1
516.135	17762.06
516.502	17674.38
516.869	17997.08
517.237	18041.15
517.604	17894.71
517.972	18122.96
518.339	18255.83
518.706	18339
519.073	18352.78
519.44	18461.7
519.808	18586.22
520.175	18610.63
520.542	18809.27
520.909	18910.73
521.276	18891.07
521.643	19165.64
522.009	19177.62
522.376	19284.51
522.743	19334.22
523.11	19574.22
523.477	19683.82
523.843	19722.46
524.21	19972.62
524.577	19980.08
524.943	20143.47
525.31	20134.2
525.676	20358.38
526.043	20459.62
526.409	20505.04
526.776	20704.36
527.142	20766.05
527.508	20789.55
527.874	20891.02
528.241	21052.14
528.607	20909.1
528.973	21269.31
529.339	21190.9
529.705	21412.81
530.071	21468.4
530.437	21542.98
530.803	21607.84
531.169	21674.5
531.535	21726.48
531.901	21730.77
532.267	21841.73
532.632	21961.05
532.998	21954.27
533.364	22005.79
533.73	21953.59
534.095	22162.62
534.461	22124.66
534.826	22134.6
535.192	22191.78
535.557	22328.95
535.923	22279
536.288	22283.07
536.653	22381.83
537.019	22299.34
537.384	22359.91
537.749	22337.53
538.114	22415.27
538.479	22329.17
538.845	22244.88
539.21	22395.16
539.575	22406.01
539.94	22397.42
540.305	22538.43
540.67	22350.87
541.034	22436.51
541.399	22324.65
541.764	22366.46
542.129	22273.58
542.494	22404.2
542.858	22331.66
543.223	22328.49
543.587	22432.22
543.952	22283.75
544.316	22311.09
544.681	22180.02
545.045	22315.61
545.41	22282.17
545.774	22203.07
546.138	22222.73
546.503	22207.14
546.867	22161.49
547.231	22260.25
547.595	22218.44
547.959	22199.23
548.324	22171.44
548.688	22104.55
549.052	22120.59
549.416	22120.82
549.779	22172.57
550.143	21998.56
550.507	22215.73
550.871	22165.56
551.235	22148.16
551.599	22267.71
551.962	22132.12
552.326	22117.43
552.689	22086.92
553.053	22093.47
553.417	22023.19
553.78	22146.13
554.143	22182.51
554.507	22086.92
554.87	22004.66
555.234	22183.64
555.597	21950.88
555.96	22000.37
556.323	22138.22
556.686	22131.66
557.05	22094.6
557.413	22089.63
557.776	22075.39
558.139	22241.94
558.502	22211.21
558.865	22132.34
559.228	22316.07
559.59	22216.18
559.953	22241.49
560.316	22409.62
560.679	22396.52
561.041	22445.55
561.404	22442.39
561.767	22613.01
562.129	22531.65
562.492	22563.74
562.854	22582.73
563.217	22603.74
563.579	22656.85
563.941	22736.62
564.304	22841.48
564.666	22841.25
565.028	22901.14
565.39	22853.23
565.753	23065.2
566.115	23050.06
566.477	23097.06
566.839	23253.44
567.201	23398.07
567.563	23307.23
567.925	23501.8
568.287	23587.9
568.648	23486.66
569.01	23686.65
569.372	23835.8
569.734	23781.34
570.095	23864.27
570.457	24057.71
570.819	24035.34
571.18	24016.13
571.542	24281.21
571.903	24107.43
572.265	24268.1
572.626	24294.32
572.987	24327.76
573.349	24491.38
573.71	24501.09
574.071	24641.2
574.432	24784.02
574.794	25017.69
575.155	24843
575.516	24932.95
575.877	24876.22
576.238	24843.46
576.599	25034.19
576.96	25082.09
577.32	25165.48
577.681	25143.11
578.042	25280.51
578.403	25200.96
578.763	25219.04
579.124	25272.82
579.485	25484.57
579.845	25540.61
580.206	25357.57
580.566	25464.91
580.927	25460.16
581.287	25407.51
581.648	25449.77
582.008	25638.69
582.368	25528.41
582.728	25592.82
583.089	25524.34
583.449	25574.51
583.809	25568.41
584.169	25567.96
584.529	25490.67
584.889	25675.75
585.249	25474.17
585.609	25331.13
585.969	25533.16
586.329	25574.51
586.688	25561.63
587.048	25577
587.408	25554.17
587.768	25461.07
588.127	25502.2
588.487	25480.05
588.846	25664.68
589.206	25313.73
589.565	25338.59
589.925	25544
590.284	25431.69
590.643	25391.01
591.003	25388.08
591.362	25477.56
591.721	25396.21
592.08	25455.19
592.44	25438.92
592.799	25398.7
593.158	25471.01
593.517	25303.56
593.876	25458.36
594.235	25212.26
594.593	25435.53
594.952	25365.48
595.311	25283.22
595.67	25429.43
596.029	25373.39
596.387	25470.33
596.746	25593.49
597.104	25285.93
597.463	25299.04
597.822	25503.33
598.18	25313.95
598.538	25295.42
598.897	25438.7
599.255	25334.07
599.613	25618.35
599.972	25282.99
600.33	25411.8
600.688	25351.24
601.046	25382.2
601.404	25514.4
601.762	25451.35
602.12	25436.66
602.478	25484.34
602.836	25546.04
603.194	25291.81
603.552	25333.16
603.91	25315.08
604.268	25384.01
604.625	25528.64
604.983	25674.4
605.341	25392.14
605.698	25514.85
606.056	25650.67
606.413	25509.2
606.771	25531.8
607.128	25624.23
607.485	25499.48
607.843	25577.22
608.2	25659.25
608.557	25637.11
608.914	25707.84
609.272	25722.53
609.629	25870.55
609.986	25778.35
610.343	25823.09
610.7	26060.37
611.057	25922.07
611.414	25818.12
611.771	25984.67
612.127	26023.09
612.484	25988.51
612.841	25969.76
613.198	26165.91
613.554	25998
613.911	26181.05
614.267	26227.83
614.624	26216.75
614.98	26103.31
615.337	26334.27
615.693	26363.64
616.05	26342.4
616.406	26498.33
616.762	26461.95
617.118	26473.24
617.475	26411.55
617.831	26587.59
618.187	26590.98
618.543	26594.37
618.899	26733.58
619.255	26612.45
619.611	26705.33
619.967	26811.09
620.323	26833.01
620.678	26714.59
621.034	26767.93
621.39	26744.42
621.746	26861.71
622.101	27083.4
622.457	26723.63
622.812	26946
623.168	26955.72
623.523	26914.36
623.879	27087.01
624.234	26833.01
624.589	26814.25
624.945	26952.1
625.3	27066.22
625.655	27038.65
626.01	27008.6
626.365	26983.74
626.72	26937.41
627.075	27038.43
627.43	26894.25
627.785	26921.82
628.14	26926.11
628.495	27044.75
628.85	26947.13
629.205	26823.97
629.559	27037.98
629.914	26743.07
630.269	26967.69
630.623	26733.8
630.978	26754.59
631.332	26860.58
631.687	26915.72
632.041	26859
632.396	26900.13
632.75	26783.97
633.104	26832.56
633.459	26726.57
633.813	26698.78
634.167	26717.08
634.521	26768.38
634.875	26682.05
635.229	26538.33
635.583	26469.85
635.937	26377.2
636.291	26451.1
636.645	26429.86
636.999	26301.5
637.352	26465.11
637.706	26233.02
638.06	26349.41
638.413	26303.31
638.767	26240.26
639.121	26255.4
639.474	26179.69
639.828	26157.77
640.181	26101.95
640.534	26170.2
640.888	26089.75
641.241	25941.28
641.594	25958.23
641.947	26110.09
642.301	26155.74
642.654	26029.41
643.007	25987.16
643.36	26036.42
643.713	26045.91
644.066	26141.5
644.419	25930.21
644.771	25564.57
645.124	25417.91
645.477	25423.1
645.83	25344.23
646.182	25440.5
646.535	25393.5
646.888	25490.67
647.24	25405.02
647.593	25535.19
647.945	25438.92
648.298	25352.82
648.65	25243.67
649.002	25080.96
649.355	24941.08
649.707	24867.86
650.059	24860.86
650.411	25247.29
650.763	25497.9
651.115	25873.94
651.467	25817.67
651.819	25866.03
652.171	25759.59
652.523	25676.43
652.875	25616.32
653.227	25624
653.578	25841.62
653.93	25717.56
654.282	25684.34
654.633	25632.14
654.985	25725.02
655.337	25635.53
655.688	25731.34
656.039	25810.44
656.391	25489.77
656.742	25751.46
657.094	25887.05
657.445	25792.36
657.796	25810.21
658.147	25627.84
658.498	25795.3
658.849	25753.49
659.2	25800.72
659.551	25688.41
659.902	25978.79
660.253	25678.92
660.604	25901.73
660.955	25858.12
661.306	25959.59
661.656	25879.81
662.007	26009.3
662.358	25902.19
662.708	25836.2
663.059	25885.69
663.409	25805.47
663.76	25999.58
664.11	26058.57
664.461	26039.58
664.811	26037.78
665.161	25977.21
665.511	26015.86
665.862	26133.14
666.212	26067.61
666.562	26143.54
666.912	26071.22
667.262	25931.11
667.612	26160.71
667.962	26129.98
668.312	26069.19
668.662	26186.7
669.011	26135.63
669.361	26147.6
669.711	26068.51
670.06	26039.36
670.41	25983.09
670.76	26032.35
671.109	26136.53
671.459	26020.15
671.808	25927.04
672.157	25997.32
672.507	25955.07
672.856	25864
673.205	25969.08
673.554	25928.63
673.904	25889.31
674.253	26068.51
674.602	25865.8
674.951	25593.27
675.3	25414.74
675.649	25918.23
675.998	25926.14
676.346	25870.55
676.695	25871
677.044	25738.57
677.393	25881.4
677.741	25967.5
678.09	25787.16
678.438	25690.44
678.787	25792.13
679.135	25745.58
679.484	25614.06
679.832	25666.49
680.181	25519.15
680.529	25598.01
680.877	25438.92
681.225	25413.16
681.573	25524.57
681.922	25445.93
682.27	25294.07
682.618	25353.27
682.966	25214.75
683.314	25181.08
683.661	25146.05
684.009	25060.63
684.357	24981.08
684.705	25000.29
685.053	24979.05
685.4	24805.72
685.748	24859.05
686.095	24804.36
686.443	24667.19
686.79	24633.29
687.138	24792.84
687.485	24489.57
687.832	24428.55
688.18	24539.96
688.527	24363.7
688.874	24253.87
689.221	24229.46
689.568	24172.97
689.915	23947.89
690.262	24092.74
690.609	24029.24
690.956	23825.63
691.303	23859.3
691.65	23692.75
691.997	23664.5
692.344	23561
692.69	23325.98
693.037	23355.13
693.383	23253.67
693.73	23239.21
694.077	23069.27
694.423	23122.15
694.769	22973.9
695.116	22876.05
695.462	22770.74
695.808	22699.56
696.155	22798.99
696.501	22515.61
696.847	22580.47
697.193	22370.75
697.539	22346.8
697.885	22171.66
698.231	22011.89
698.577	22018.9
698.923	22115.17
699.269	21902.74
699.614	21925.79
699.96	21700.49
700.306	21748.62
700.651	21514.5
700.997	21435.18
701.342	21488.06
701.688	21346.37
702.033	21220.95
702.379	21202.87
702.724	21123.55
703.069	21162.88
703.415	20966.5
703.76	20964.91
704.105	20944.12
704.45	20786.39
704.795	20851.47
705.14	20668.43
705.485	20660.74
705.83	20459.84
706.175	20583.46
706.52	20460.3
706.865	20334.42
707.209	20294.42
707.554	20281.99
707.899	20291.26
708.243	20102.79
708.588	20153.86
708.932	19881.1
709.277	19924.26
709.621	19898.5
709.966	19725.4
710.31	19872.74
710.654	19604.5
710.998	19713.2
711.342	19794.55
711.687	19576.25
712.031	19588.68
712.375	19564.05
712.719	19571.28
713.063	19452.41
713.407	19617.61
713.75	19539.19
714.094	19452.64
714.438	19422.81
714.782	19393.88
715.125	19263.72
715.469	19348.23
715.812	19242.25
716.156	19172.42
716.499	19247.45
716.843	19258.07
717.186	19170.84
717.53	19281.34
717.873	19304.62
718.216	19245.64
718.559	19084.06
718.902	19028.02
719.246	19089.26
719.589	19022.82
719.932	19003.16
720.275	19075.92
720.617	19000.67
720.96	19075.7
721.303	19031.18
721.646	19078.41
721.989	19037.06
722.331	19016.49
722.674	19056.94
723.016	19019.88
723.359	18995.25
723.701	19050.16
724.044	19002.71
724.386	18916.83
724.729	18908.47
725.071	18944.4
725.413	19012.65
725.755	18960
726.097	18938.75
726.439	18847.23
726.782	18934.46
727.124	18922.48
727.465	18882.48
727.807	18881.35
728.149	18944.4
728.491	19061.69
728.833	18987.79
729.175	19069.6
729.516	19048.13
729.858	19018.75
730.199	19146.66
730.541	19133.78
730.882	19033.89
731.224	19128.35
731.565	19151.86
731.906	19047.23
732.248	19098.3
732.589	19041.12
732.93	19147.34
733.271	19152.31
733.612	19249.71
733.953	19263.04
734.294	19270.95
734.635	19221.01
734.976	19365.18
735.317	19395.24
735.658	19392.53
735.999	19399.76
736.339	19455.8
736.68	19494.45
737.021	19493.99
737.361	19440.89
737.702	19695.34
738.042	19537.61
738.383	19692.18
738.723	19814.66
739.063	19685.63
739.404	19865.73
739.744	19890.14
740.084	19866.41
740.424	19972.4
740.764	20024.37
741.104	20213.75
741.444	20175.11
741.784	20282.45
742.124	20387.3
742.464	20374.42
742.804	20595.89
743.143	20619.61
743.483	20783.68
743.823	20774.41
744.162	20900.74
744.502	21069.32
744.841	21103.89
745.181	21268.18
745.52	21227.51
745.86	21600.6
746.199	21581.17
746.538	21803.76
746.877	22053.02
747.216	22190.87
747.556	22217.09
747.895	22508.6
748.234	22435.84
748.573	22624.08
748.911	22767.81
749.25	22899.1
749.589	23168.92
749.928	23332.99
750.267	23620.66
750.605	23717.16
750.944	23934.78
751.283	24037.15
751.621	24358.95
751.96	24433.52
752.298	24798.26
752.636	24823.57
752.975	25065.37
753.313	25277.34
753.651	25704.23
753.989	25694.96
754.327	26075.97
754.666	26145.57
755.004	26458.1
