Data from 18-4330_FLMS001491_007.txt Node
Date: Thu Apr 19 16:43:36 BST 2018
User: hsy
Spectrometer: FLMS00149
Trigger mode: 0
Integration Time (sec): 1.000000E-2
Scans to average: 10
Electric dark correction enabled: true
Nonlinearity correction enabled: false
Boxcar width: 0
XAxis mode: Wavelengths
Number of Pixels in Spectrum: 2048
>>>>>Begin Spectral Data<<<<<
341.393	-13.18
341.776	-13.18
342.16	-13.18
342.543	-55.89
342.927	-79.62
343.31	-61.31
343.693	-66.51
344.077	-79.84
344.46	-70.35
344.843	-58.83
345.226	-34.19
345.61	-20.41
345.993	-25.38
346.376	-9.79
346.759	10.78
347.142	19.82
347.525	22.3
347.908	55.97
348.291	86.48
348.674	104.79
349.057	126.48
349.44	130.77
349.823	126.71
350.206	176.87
350.588	218.68
350.971	253.26
351.354	243.99
351.737	266.82
352.119	269.53
352.502	288.06
352.884	280.15
353.267	325.8
353.65	324.89
354.032	330.09
354.414	323.08
354.797	352.91
355.179	352.01
355.562	360.6
355.944	357.43
356.326	363.76
356.709	370.77
357.091	357.66
357.473	371.45
357.855	385
358.238	383.42
358.62	377.55
359.002	391.56
359.384	371.9
359.766	378.9
360.148	400.6
360.53	389.52
360.912	373.93
361.294	371.67
361.676	369.41
362.057	371.67
362.439	375.74
362.821	370.99
363.203	389.98
363.584	373.48
363.966	375.51
364.348	357.43
364.729	364.21
365.111	377.55
365.493	370.32
365.874	350.2
366.256	356.3
366.637	356.98
367.019	353.14
367.4	359.02
367.781	362.18
368.163	361.05
368.544	352.46
368.925	370.99
369.306	366.93
369.688	388.62
370.069	357.66
370.45	373.25
370.831	384.1
371.212	387.94
371.593	351.33
371.974	353.82
372.355	339.36
372.736	371.9
373.117	382.52
373.498	364.89
373.879	359.02
374.26	349.3
374.641	391.33
375.021	382.97
375.402	361.73
375.783	359.69
376.163	405.12
376.544	383.42
376.925	377.09
377.305	385.23
377.686	397.21
378.066	399.92
378.447	408.73
378.827	405.34
379.208	389.52
379.588	405.79
379.968	402.4
380.349	393.59
380.729	404.66
381.109	417.77
381.489	407.38
381.87	410.09
382.25	426.81
382.63	413.25
383.01	426.36
383.39	432.91
383.77	447.15
384.15	436.98
384.53	431.1
384.91	431.1
385.29	435.85
385.67	433.36
386.049	451.22
386.429	426.81
386.809	447.38
387.189	462.74
387.568	477.2
387.948	449.41
388.328	485.11
388.707	492.12
389.087	467.49
389.466	485.34
389.846	453.93
390.225	477.66
390.605	478.11
390.984	479.46
391.363	478.11
391.743	502.29
392.122	510.2
392.501	506.36
392.881	530.99
393.26	535.28
393.639	553.36
394.018	544.1
394.397	538.9
394.776	519.24
395.155	538.22
395.534	533.47
395.913	559.24
396.292	554.72
396.671	588.61
397.05	552.23
397.429	568.95
397.808	568.28
398.186	570.99
398.565	540.25
398.944	575.73
399.323	583.19
399.701	587.03
400.08	606.24
400.458	596.52
400.837	615.73
401.215	609.4
401.594	627.48
401.972	627.71
402.351	617.31
402.729	634.04
403.107	629.74
403.486	672
403.864	694.6
404.242	666.8
404.62	658.22
404.999	675.17
405.377	692.57
405.755	697.54
406.133	698.67
406.511	712.45
406.889	723.3
407.267	731.44
407.645	757.42
408.023	741.83
408.401	751.32
408.779	763.07
409.156	783.41
409.534	779.57
409.912	796.97
410.29	837.2
410.667	829.51
411.045	839
411.422	824.54
411.8	841.94
412.178	864.09
412.555	900.24
412.933	897.76
413.31	930.07
413.687	909.28
414.065	938.66
414.442	939.57
414.819	963.52
415.197	951.32
415.574	999.45
415.951	1012.11
416.328	1016.85
416.705	1029.96
417.082	1042.84
417.46	1044.42
417.837	1060.92
418.214	1044.87
418.591	1062.5
418.967	1051.43
419.344	1089.62
419.721	1112.22
420.098	1111.09
420.475	1137.75
420.852	1129.62
421.228	1161.25
421.605	1171.88
421.982	1184.98
422.358	1229.5
422.735	1222.95
423.111	1212.1
423.488	1235.6
423.864	1239.9
424.241	1283.74
424.617	1311.08
424.994	1287.81
425.37	1326
425.746	1316.96
426.123	1349.27
426.499	1373.23
426.875	1377.97
427.251	1411.87
427.627	1415.03
428.003	1427.24
428.379	1440.8
428.756	1507.91
429.132	1494.35
429.507	1514.92
429.883	1522.38
430.259	1538.65
430.635	1565.54
431.011	1591.3
431.387	1638.76
431.763	1664.29
432.138	1655.25
432.514	1689.6
432.89	1713.33
433.265	1725.99
433.641	1818.41
434.016	1768.02
434.392	1804.18
434.767	1890.28
435.143	1885.53
435.518	1916.94
435.894	1929.6
436.269	1948.35
436.644	1998.07
437.02	1988.8
437.395	2017.73
437.77	2060.89
438.145	2069.93
438.52	2075.36
438.895	2140.44
439.271	2154.22
439.646	2185.41
440.021	2187.22
440.395	2221.11
440.77	2212.53
441.145	2251.85
441.52	2320.55
441.895	2282.36
442.27	2310.38
442.645	2332.98
443.019	2329.81
443.394	2398.96
443.769	2440.32
444.143	2384.5
444.518	2450.94
444.892	2437.15
445.267	2441.9
445.641	2452.52
446.016	2515.12
446.39	2530.71
446.764	2531.61
447.139	2535.91
447.513	2579.97
447.887	2603.02
448.262	2615.23
448.636	2608.67
449.01	2679.63
449.384	2701.33
449.758	2721.67
450.132	2767.09
450.506	2746.3
450.88	2743.13
451.254	2807.99
451.628	2850.93
452.002	2846.18
452.376	2929.12
452.75	2939.97
453.123	2976.57
453.497	3042.56
453.871	2998.95
454.244	3103.35
454.618	3136.8
454.992	3140.19
455.365	3212.95
455.739	3263.12
456.112	3284.81
456.486	3302.67
456.859	3370.46
457.232	3439.16
457.606	3454.53
457.979	3511.7
458.352	3550.34
458.725	3584.69
459.099	3601.42
459.472	3641.64
459.845	3736.55
460.218	3760.28
460.591	3777.01
460.964	3840.73
461.337	3877.57
461.71	3984.01
462.083	4014.51
462.456	4028.52
462.829	4026.72
463.201	4160.95
463.574	4121.18
463.947	4221.97
464.32	4211.34
464.692	4319.59
465.065	4397.33
465.438	4405.92
465.81	4453.15
466.183	4473.26
466.555	4555.29
466.928	4615.85
467.3	4643.2
467.672	4741.95
468.045	4849.97
468.417	4816.3
468.789	4865.56
469.161	4934.71
469.534	5011.1
469.906	5121.15
470.278	5107.37
470.65	5171.32
471.022	5250.19
471.394	5295.61
471.766	5391.43
472.138	5428.49
472.51	5586.45
472.882	5646.79
473.253	5712.32
473.625	5748.7
473.997	5852.2
474.369	5923.84
474.74	6022.6
475.112	6096.94
475.484	6192.76
475.855	6289.48
476.227	6305.75
476.598	6463.94
476.97	6500.78
477.341	6711.84
477.713	6763.14
478.084	6812.63
478.455	6975.11
478.827	7045.85
479.198	7271.38
479.569	7245.61
479.94	7394.99
480.311	7508.21
480.682	7704.36
481.053	7884.02
481.424	7964.92
481.795	8076.55
482.166	8214.63
482.537	8306.6
482.908	8513.6
483.279	8482.64
483.65	8766.7
484.021	8861.84
484.391	8961.5
484.762	9011.22
485.133	9177.77
485.503	9255.96
485.874	9474.03
486.244	9542.73
486.615	9773.01
486.985	9845.32
487.356	10048.03
487.726	10145.43
488.097	10375.93
488.467	10368.92
488.837	10625.19
489.207	10747.22
489.578	10907.44
489.948	11080.99
490.318	11191.27
490.688	11233.53
491.058	11399.86
491.428	11636.23
491.798	11603.24
492.168	11819.05
492.538	11966.39
492.908	12002.78
493.278	12238.25
493.648	12199.61
494.017	12445.7
494.387	12537.23
494.757	12633.72
495.126	12820.61
495.496	12853.83
495.866	12965.46
496.235	13107.38
496.605	13138.57
496.974	13186.7
497.344	13377.88
497.713	13461.5
498.082	13492.68
498.452	13646.8
498.821	13687.03
499.19	13833.01
499.559	13934.7
499.928	14001.82
500.298	14095.6
500.667	14215.83
501.036	14164.53
501.405	14396.16
501.774	14276.16
502.143	14485.42
502.512	14545.76
502.88	14645.65
503.249	14635.25
503.618	14813.78
503.987	14766.09
504.356	14920.44
504.724	15048.57
505.093	15038.86
505.462	15093.54
505.83	15211.96
506.199	15269.13
506.567	15422.35
506.936	15419.64
507.304	15599.97
507.672	15628.45
508.041	15618.73
508.409	15813.75
508.777	15849.46
509.145	15987.76
509.514	16007.64
509.882	16133.06
510.25	16037.93
510.618	16276.56
510.986	16185.04
511.354	16360.86
511.722	16530.57
512.09	16495.09
512.458	16554.07
512.826	16788.87
513.193	16684.01
513.561	16779.15
513.929	17006.26
514.297	17010.33
514.664	17091.68
515.032	17192.02
515.4	17301.17
515.767	17371.22
516.135	17329.87
516.502	17241.96
516.869	17568.28
517.237	17580.26
517.604	17504.55
517.972	17714.94
518.339	17773.02
518.706	17888.27
519.073	17906.35
519.44	17956.75
519.808	18223.63
520.175	18080.36
520.542	18286.68
520.909	18383.4
521.276	18519.22
521.643	18558.54
522.009	18554.92
522.376	18701.36
522.743	18801.92
523.11	19029.49
523.477	19031.97
523.843	19125.53
524.21	19332.75
524.577	19395.13
524.943	19480.1
525.31	19461.11
525.676	19666.3
526.043	19803.48
526.409	19847.32
526.776	19976.35
527.142	20075.11
527.508	20189.46
527.874	20223.58
528.241	20327.08
528.607	20304.93
528.973	20555.55
529.339	20483.01
529.705	20677.13
530.071	20902.66
530.437	20787.63
530.803	20946.95
531.169	20961.64
531.535	20945.59
531.901	21124.35
532.267	21085.48
532.632	21212.25
532.998	21212.25
533.364	21261.74
533.73	21319.14
534.095	21477.56
534.461	21392.59
534.826	21437.56
535.192	21513.94
535.557	21607.5
535.923	21563.66
536.288	21595.07
536.653	21619.02
537.019	21534.96
537.384	21568.18
537.749	21568.85
538.114	21626.03
538.479	21477.33
538.845	21568.63
539.21	21548.06
539.575	21581.96
539.94	21525.47
540.305	21632.81
540.67	21715.97
541.034	21521.4
541.399	21641.85
541.764	21714.39
542.129	21588.97
542.494	21684.56
542.858	21506.26
543.223	21560.27
543.587	21676.87
543.952	21555.52
544.316	21626.71
544.681	21352.36
545.045	21597.78
545.41	21566.14
545.774	21429.42
546.138	21318.46
546.503	21432.13
546.867	21418.8
547.231	21485.24
547.595	21292.7
547.959	21335.19
548.324	21317.11
548.688	21256.09
549.052	21321.4
549.416	21307.39
549.779	21207.28
550.143	21167.96
550.507	21294.51
550.871	21289.09
551.235	21203.67
551.599	21352.14
551.962	21269.88
552.326	21306.49
552.689	21242.31
553.053	21112.37
553.417	21083.22
553.78	21258.35
554.143	21165.93
554.507	21218.58
554.87	21266.04
555.234	21383.77
555.597	21211.8
555.96	21242.76
556.323	21233.27
556.686	21204.34
557.05	21269.65
557.413	21245.7
557.776	21216.09
558.139	21253.83
558.502	21255.19
558.865	21277.11
559.228	21386.94
559.59	21425.58
559.953	21258.35
560.316	21575.18
560.679	21440.72
561.041	21535.86
561.404	21577.22
561.767	21601.4
562.129	21596.42
562.492	21713.03
562.854	21686.59
563.217	21616.54
563.579	21779.7
563.941	21857.66
564.304	21815.85
564.666	22166.35
565.028	22061.5
565.39	22040.71
565.753	22213.13
566.115	22166.13
566.477	22366.35
566.839	22320.7
567.201	22557.75
567.563	22472.11
567.925	22613.35
568.287	22624.65
568.648	22743.96
569.01	22735.6
569.372	22970.85
569.734	22914.36
570.095	23023.5
570.457	23190.05
570.819	23285.87
571.18	23238.87
571.542	23349.15
571.903	23394.79
572.265	23530.16
572.626	23613.09
572.987	23511.63
573.349	23823.26
573.71	23833.65
574.071	23946.64
574.432	23876.59
574.794	24195.9
575.155	24250.82
575.516	24148.45
575.877	24167.66
576.238	24246.98
576.599	24451.04
576.96	24407.2
577.32	24467.08
577.681	24576.01
578.042	24568.32
578.403	24704.36
578.763	24604.93
579.124	24767.87
579.485	24803.35
579.845	24886.05
580.206	24861.87
580.566	24862.55
580.927	24940.06
581.287	25053.51
581.648	24985.04
582.008	25094.18
582.368	25101.64
582.728	24958.6
583.089	25076.33
583.449	25048.99
583.809	25016.45
584.169	25123.56
584.529	24999.72
584.889	25270.68
585.249	25107.97
585.609	24977.13
585.969	25146.61
586.329	25005.37
586.688	25093.96
587.048	25088.76
587.408	25159.95
587.768	25081.76
588.127	25088.08
588.487	25158.14
588.846	25134.41
589.206	24920.4
589.565	24921.76
589.925	24986.39
590.284	24911.59
590.643	25044.02
591.003	25010.57
591.362	25193.62
591.721	25097.57
592.08	24923.79
592.44	25103.9
592.799	25041.76
593.158	25067.52
593.517	24923.57
593.876	25087.86
594.235	24998.59
594.593	24821.65
594.952	24901.87
595.311	24973.28
595.67	24947.52
596.029	24983
596.387	24962.44
596.746	25028.65
597.104	24903.68
597.463	24876.11
597.822	25078.82
598.18	24817.13
598.538	24850.58
598.897	24961.76
599.255	24807.86
599.613	25140.74
599.972	24834.08
600.33	25030.46
600.688	24810.35
601.046	24980.06
601.404	25056.9
601.762	24957.92
602.12	25072.94
602.478	25044.47
602.836	25043.11
603.194	24830.46
603.552	25025.49
603.91	24815.32
604.268	25016.67
604.625	24950.01
604.983	25076.11
605.341	24937.13
605.698	25115.2
606.056	25207.18
606.413	25077.46
606.771	25190.23
607.128	25104.13
607.485	24896.9
607.843	24989.78
608.2	25279.04
608.557	25195.2
608.914	25192.94
609.272	25323.78
609.629	25332.82
609.986	25444.91
610.343	25392.93
610.7	25592.25
611.057	25462.08
611.414	25429.32
611.771	25542.31
612.127	25567.62
612.484	25553.61
612.841	25668.86
613.198	25554.96
613.554	25525.81
613.911	25684.23
614.267	25780.72
614.624	25650.33
614.98	25696.88
615.337	25852.13
615.693	25926.25
616.05	25899.36
616.406	25856.88
616.762	25815.07
617.118	25930.1
617.475	25791.12
617.831	26102.97
618.187	26044.44
618.543	26059.81
618.899	26135.29
619.255	26238.56
619.611	26076.31
619.967	26271.55
620.323	26233.36
620.678	26141.61
621.034	26216.19
621.39	26106.59
621.746	26214.38
622.101	26412.12
622.457	26176.19
622.812	26333.25
623.168	26429.06
623.523	26287.37
623.879	26447.14
624.234	26194.72
624.589	26394.26
624.945	26457.54
625.3	26560.81
625.655	26352.68
626.01	26388.39
626.365	26491.21
626.72	26270.65
627.075	26251.22
627.43	26413.47
627.785	26418.44
628.14	26368.73
628.495	26405.34
628.85	26412.57
629.205	26363.3
629.559	26486.46
629.914	26307.71
630.269	26327.82
630.623	26257.77
630.978	26275.17
631.332	26384.77
631.687	26303.87
632.041	26281.05
632.396	26187.04
632.75	26162.86
633.104	26227.94
633.459	26004.22
633.813	26005.12
634.167	26051.67
634.521	26103.88
634.875	26042.41
635.229	25957.21
635.583	25843.77
635.937	25861.85
636.291	25804.9
636.645	25884.9
636.999	25698.24
637.352	25832.7
637.706	25674.73
638.06	25840.38
638.413	25728.07
638.767	25696.88
639.121	25710.44
639.474	25610.1
639.828	25636.77
640.181	25633.83
640.534	25667.5
640.888	25493.72
641.241	25450.79
641.594	25556.32
641.947	25652.59
642.301	25536.66
642.654	25522.65
643.007	25374.18
643.36	25601.29
643.713	25431.8
644.066	25620.5
644.419	25427.96
644.771	25139.16
645.124	24867.75
645.477	24849.9
645.83	24927.41
646.182	24838.82
646.535	24842.21
646.888	24896.22
647.24	24809.67
647.593	24824.59
647.945	24764.7
648.298	24709.34
648.65	24571.26
649.002	24436.8
649.355	24393.41
649.707	24255.34
650.059	24359.97
650.411	24738.94
650.763	24884.7
651.115	25156.78
651.467	25188.87
651.819	25214.63
652.171	25136.22
652.523	25139.83
652.875	25100.96
653.227	25092.6
653.578	25199.94
653.93	25219.15
654.282	25146.84
654.633	25053.28
654.985	25068.87
655.337	25112.04
655.688	25217.8
656.039	25240.85
656.391	25052.6
656.742	24950.91
657.094	25063.68
657.445	25100.29
657.796	25126.5
658.147	25161.08
658.498	25280.85
658.849	25316.78
659.2	25263.22
659.551	25198.81
659.902	25387.96
660.253	25293.5
660.604	25332.37
660.955	25204.01
661.306	25438.81
661.656	25319.72
662.007	25306.83
662.358	25478.36
662.708	25440.84
663.059	25407.62
663.409	25290.11
663.76	25521.29
664.11	25553.38
664.461	25626.6
664.811	25592.93
665.161	25423.22
665.511	25421.41
665.862	25568.3
666.212	25562.42
666.562	25597.45
666.912	25653.94
667.262	25460.28
667.612	25554.74
667.962	25615.08
668.312	25518.58
668.662	25666.6
669.011	25579.6
669.361	25558.13
669.711	25573.72
670.06	25503.67
670.41	25611.01
670.76	25472.25
671.109	25635.64
671.459	25501.18
671.808	25574.17
672.157	25580.95
672.507	25414.63
672.856	25390.45
673.205	25493.95
673.554	25535.76
673.904	25400.39
674.253	25578.24
674.602	25364.01
674.951	25138.7
675.3	24894.42
675.649	25522.42
675.998	25352.94
676.346	25369.88
676.695	25401.97
677.044	25276.33
677.393	25260.06
677.741	25276.1
678.09	25165.82
678.438	25233.84
678.787	25246.72
679.135	25101.64
679.484	25041.3
679.832	25065.94
680.181	25047.18
680.529	25092.83
680.877	24913.4
681.225	24932.16
681.573	25026.62
681.922	24923.34
682.27	24860.74
682.618	24767.19
682.966	24713.86
683.314	24800.41
683.661	24723.8
684.009	24593.18
684.357	24445.16
684.705	24484.48
685.053	24481.55
685.4	24258.95
685.748	24335.79
686.095	24424.6
686.443	24082.91
686.79	24094.21
687.138	24057.15
687.485	24077.49
687.832	24046.08
688.18	23941.9
688.527	23755.91
688.874	23755.46
689.221	23749.59
689.568	23644.51
689.915	23525.64
690.262	23485.41
690.609	23507.33
690.956	23356.83
691.303	23425.75
691.65	23080.9
691.997	23106.21
692.344	22952.77
692.69	22995.03
693.037	22890.17
693.383	22670.07
693.73	22843.17
694.077	22666.68
694.423	22550.52
694.769	22482.95
695.116	22472.56
695.462	22298.33
695.808	22182.4
696.155	22158.67
696.501	22024.66
696.847	22069.18
697.193	21880.71
697.539	21838.23
697.885	21673.71
698.231	21636.2
698.577	21542.19
698.923	21569.08
699.269	21375.41
699.614	21244.79
699.96	21224.91
700.306	21221.07
700.651	21053.84
700.997	20951.02
701.342	20936.33
701.688	20845.71
702.033	20768.87
702.379	20672.38
702.724	20504.02
703.069	20616.79
703.415	20323.01
703.76	20358.49
704.105	20322.33
704.45	20260.41
704.795	20179.74
705.14	20079.18
705.485	20136.35
705.83	19981.78
706.175	19974.09
706.52	19887.99
706.865	19890.48
707.209	19773.42
707.554	19734.78
707.899	19670.15
708.243	19628.57
708.588	19578.17
708.932	19532.52
709.277	19472.19
709.621	19403.71
709.966	19379.31
710.31	19350.38
710.654	19220.89
710.998	19317.84
711.342	19226.09
711.687	19165.75
712.031	19184.28
712.375	19037.39
712.719	19052.54
713.063	19023.84
713.407	19013.21
713.75	18959.66
714.094	18995.81
714.438	18882.14
714.782	19012.76
715.125	18786.33
715.469	19003.95
715.812	18810.51
716.156	18732.32
716.499	18692.09
716.843	18750.17
717.186	18656.61
717.53	18731.19
717.873	18835.37
718.216	18757.18
718.559	18674.69
718.902	18540.01
719.246	18556.73
719.589	18543.4
719.932	18562.38
720.275	18666.78
720.617	18604.19
720.96	18587.69
721.303	18637.41
721.646	18653.45
721.989	18558.54
722.331	18640.12
722.674	18616.62
723.016	18634.24
723.359	18527.58
723.701	18563.74
724.044	18475.83
724.386	18436.28
724.729	18572.32
725.071	18610.74
725.413	18651.42
725.755	18547.46
726.097	18522.83
726.439	18544.3
726.782	18583.62
727.124	18587.69
727.465	18588.59
727.807	18497.3
728.149	18614.81
728.491	18540.01
728.833	18659.33
729.175	18594.24
729.516	18638.31
729.858	18625.43
730.199	18752.66
730.541	18670.85
730.882	18718.99
731.224	18733.9
731.565	18653.22
731.906	18738.42
732.248	18881.24
732.589	18730.51
732.93	18743.39
733.271	18791.3
733.612	18729.61
733.953	18945.42
734.294	18869.04
734.635	18778.87
734.976	18994.68
735.317	19003.27
735.658	19099.99
735.999	19058.64
736.339	19080.78
736.68	19167.56
737.021	19153.1
737.361	19141.57
737.702	19344.28
738.042	19317.84
738.383	19262.7
738.723	19524.61
739.063	19427.67
739.404	19638.28
739.744	19609.36
740.084	19621.11
740.424	19792.4
740.764	19819.97
741.104	19910.82
741.444	19901.33
741.784	19937.03
742.124	20193.3
742.464	20180.19
742.804	20294.99
743.143	20355.33
743.483	20434.87
743.823	20460.63
744.162	20627.86
744.502	20707.18
744.841	20826.73
745.181	21013.61
745.52	21064.91
745.86	21227.85
746.199	21340.39
746.538	21514.39
746.877	21715.97
747.216	21791.67
747.556	21892.24
747.895	22176.52
748.234	22192.79
748.573	22409.74
748.911	22530.86
749.25	22676.4
749.589	22856.73
749.928	23153.22
750.267	23462.36
750.605	23508.24
750.944	23697.61
751.283	23915.46
751.621	24197.71
751.96	24300.99
752.298	24513.64
752.636	24862.78
752.975	24918.37
753.313	25044.02
753.651	25478.58
