Data from 18-4525_FLMS001491_003.txt Node
Date: Thu Apr 19 16:42:40 BST 2018
User: hsy
Spectrometer: FLMS00149
Trigger mode: 0
Integration Time (sec): 1.000000E-2
Scans to average: 10
Electric dark correction enabled: true
Nonlinearity correction enabled: false
Boxcar width: 0
XAxis mode: Wavelengths
Number of Pixels in Spectrum: 2048
>>>>>Begin Spectral Data<<<<<
341.393	-21.74
341.776	-21.74
342.16	-21.74
342.543	-63.54
342.927	-54.05
343.31	-61.96
343.693	-53.37
344.077	-47.95
344.46	-81.62
344.843	-45.01
345.226	-30.1
345.61	-49.08
345.993	-11.12
346.376	-5.24
346.759	-1.85
347.142	30.24
347.525	50.58
347.908	59.17
348.291	66.4
348.674	77.47
349.057	103.46
349.44	123.12
349.823	144.13
350.206	168.77
350.588	240.63
350.971	256.22
351.354	223.91
351.737	276.11
352.119	265.26
352.502	286.05
352.884	305.03
353.267	307.75
353.65	337.58
354.032	335.99
354.414	346.84
354.797	342.32
355.179	330.8
355.562	341.19
355.944	360.63
356.326	380.74
356.709	366.28
357.091	373.28
357.473	376.67
357.855	380.06
358.238	390.91
358.62	361.98
359.002	358.59
359.384	358.59
359.766	373.96
360.148	378.25
360.53	376.22
360.912	379.61
361.294	397.91
361.676	367.63
362.057	376.67
362.439	367.86
362.821	372.38
363.203	375.99
363.584	377.35
363.966	353.85
364.348	363.34
364.729	381.87
365.111	333.06
365.493	372.6
365.874	362.66
366.256	354.3
366.637	380.29
367.019	343.45
367.4	357.46
367.781	385.03
368.163	350.68
368.544	355.65
368.925	357.24
369.306	349.78
369.688	380.51
370.069	350.91
370.45	340.74
370.831	366.05
371.212	367.41
371.593	364.69
371.974	362.66
372.355	365.82
372.736	378.93
373.117	382.55
373.498	357.24
373.879	357.46
374.26	376.9
374.641	372.6
375.021	352.72
375.402	374.64
375.783	377.12
376.163	387.29
376.544	377.57
376.925	375.77
377.305	380.06
377.686	385.71
378.066	400.63
378.447	386.16
378.827	386.16
379.208	392.04
379.588	396.78
379.968	414.64
380.349	409.89
380.729	416.67
381.109	412.6
381.489	409.66
381.87	417.8
382.25	407.63
382.63	408.99
383.01	404.69
383.39	409.89
383.77	434.97
384.15	408.31
384.53	432.94
384.91	442.88
385.29	431.81
385.67	426.39
386.049	458.93
386.429	442.21
386.809	447.4
387.189	450.79
387.568	448.53
387.948	446.5
388.328	463.45
388.707	475.43
389.087	464.8
389.466	465.93
389.846	472.71
390.225	465.03
390.605	491.47
390.984	492.15
391.363	495.54
391.743	499.15
392.122	496.22
392.501	498.25
392.881	505.03
393.26	522.43
393.639	507.29
394.018	498.02
394.397	517.46
394.776	524.01
395.155	531.47
395.534	524.46
395.913	550.23
396.292	534.41
396.671	540.28
397.05	541.41
397.429	537.8
397.808	559.94
398.186	557.46
398.565	564.91
398.944	573.5
399.323	559.72
399.701	575.76
400.08	581.41
400.458	594.52
400.837	596.33
401.215	596.78
401.594	622.99
401.972	618.02
402.351	625.48
402.729	655.53
403.107	624.8
403.486	631.13
403.864	645.82
404.242	650.56
404.62	648.53
404.999	636.55
405.377	662.99
405.755	663.44
406.133	673.39
406.511	697.34
406.889	707.51
407.267	723.78
407.645	708.41
408.023	730.56
408.401	744.8
408.779	753.61
409.156	757.45
409.534	761.29
409.912	766.72
410.29	792.48
410.667	816.66
411.045	770.78
411.422	787.96
411.8	806.72
412.178	828.86
412.555	842.2
412.933	875.41
413.31	877.22
413.687	884.91
414.065	900.05
414.442	886.71
414.819	890.56
415.197	956.32
415.574	937.33
415.951	935.53
416.328	937.56
416.705	969.42
417.082	974.62
417.46	985.24
417.837	1005.13
418.214	983.66
418.591	986.15
418.967	991.57
419.344	1016.2
419.721	1013.49
420.098	1045.13
420.475	1038.12
420.852	1047.39
421.228	1051.46
421.605	1065.01
421.982	1091.91
422.358	1099.14
422.735	1125.58
423.111	1115.86
423.488	1149.31
423.864	1153.15
424.241	1162.86
424.617	1169.19
424.994	1207.84
425.37	1221.17
425.746	1203.54
426.123	1220.49
426.499	1244.44
426.875	1252.58
427.251	1279.7
427.627	1317.21
428.003	1312.01
428.379	1337.78
428.756	1343.65
429.132	1375.06
429.507	1375.06
429.883	1375.74
430.259	1395.63
430.635	1409.19
431.011	1420.26
431.387	1492.12
431.763	1486.25
432.138	1489.41
432.514	1528.73
432.89	1541.84
433.265	1618.22
433.641	1594.72
434.016	1635.85
434.392	1633.59
434.767	1667.26
435.143	1690.31
435.518	1716.3
435.894	1731.21
436.269	1751.32
436.644	1765.33
437.02	1773.92
437.395	1783.41
437.77	1824.09
438.145	1891.66
438.52	1880.13
438.895	1915.84
439.271	1915.39
439.646	1958.32
440.021	1989.06
440.395	1953.58
440.77	1948.61
441.145	1963.07
441.52	2028.6
441.895	2025.89
442.27	2027.25
442.645	2065.67
443.019	2096.17
443.394	2097.53
443.769	2090.98
444.143	2113.35
444.518	2152.44
444.892	2168.94
445.267	2155.83
445.641	2161.03
446.016	2185.89
446.39	2216.85
446.764	2240.12
447.139	2238.32
447.513	2287.36
447.887	2243.74
448.262	2272.21
448.636	2323.96
449.01	2370.52
449.384	2346.11
449.758	2351.76
450.132	2401.93
450.506	2398.76
450.88	2455.26
451.254	2432.44
451.628	2510.63
452.002	2509.04
452.376	2573.68
452.75	2584.75
453.123	2563.51
453.497	2587.23
453.871	2631.98
454.244	2688.25
454.618	2715.59
454.992	2763.05
455.365	2775.25
455.739	2841.24
456.112	2867
456.486	2914.46
456.859	2939.77
457.232	2977.51
457.606	2986.09
457.979	3033.1
458.352	3071.97
458.725	3134.79
459.099	3160.78
459.472	3173.66
459.845	3255.47
460.218	3267.89
460.591	3327.33
460.964	3336.59
461.337	3381.11
461.71	3446.42
462.083	3541.11
462.456	3500.2
462.829	3476.7
463.201	3588.79
463.574	3620.65
463.947	3668.79
464.32	3734.32
464.692	3772.29
465.065	3819.29
465.438	3883.25
465.81	3899.97
466.183	3885.96
466.555	3996.46
466.928	4001.43
467.3	4014.77
467.672	4115.33
468.045	4215.67
468.417	4197.14
468.789	4248.66
469.161	4303.12
469.534	4334.76
469.906	4402.55
470.278	4493.4
470.65	4524.58
471.022	4527.07
471.394	4635.77
471.766	4746.5
472.138	4748.08
472.51	4854.75
472.882	4899.26
473.253	4928.42
473.625	5013.61
473.997	5090.45
474.369	5158.69
474.74	5224.23
475.112	5300.16
475.484	5405.24
475.855	5472.13
476.227	5502.41
476.598	5678.9
476.97	5676.42
477.341	5789.18
477.713	5946.47
478.084	6004.32
478.455	6122.51
478.827	6188.5
479.198	6331.54
479.569	6374.25
479.94	6526.57
480.311	6646.34
480.682	6740.57
481.053	6908.48
481.424	6998.42
481.795	7153.22
482.166	7210.39
482.537	7334.91
482.908	7456.71
483.279	7600.89
483.65	7705.52
484.021	7858.73
484.391	7961.78
484.762	8059.86
485.133	8150.03
485.503	8338.27
485.874	8470.47
486.244	8560.64
486.615	8736
486.985	8882.44
487.356	9086.95
487.726	9170.11
488.097	9307.51
488.467	9426.6
488.837	9673.83
489.207	9749.98
489.578	9933.48
489.948	10045.12
490.318	10215.06
490.688	10263.19
491.058	10366.69
491.428	10653.01
491.798	10708.6
492.168	10890.07
492.538	11002.61
492.908	11189.04
493.278	11332.54
493.648	11466.1
494.017	11569.37
494.387	11674.23
494.757	11825.86
495.126	12023.6
495.496	12009.13
495.866	12231.95
496.235	12461.1
496.605	12521.66
496.974	12591.26
497.344	12709.91
497.713	12892.73
498.082	12935.66
498.452	13050.69
498.821	13196.9
499.19	13307.63
499.559	13354.86
499.928	13536.78
500.298	13673.5
500.667	13791.69
501.036	13821.74
501.405	14042.75
501.774	14070.55
502.143	14236.42
502.512	14338.34
502.88	14345.12
503.249	14378.11
503.618	14636.18
503.987	14615.62
504.356	14801.6
504.724	14904.2
505.093	14961.6
505.462	15032.33
505.83	15113.46
506.199	15231.42
506.567	15389.16
506.936	15471.87
507.304	15672.54
507.672	15625.54
508.041	15698.3
508.409	15943.04
508.777	16024.4
509.145	16180.78
509.514	16162.47
509.882	16308.46
510.25	16345.29
510.618	16481.11
510.986	16497.6
511.354	16691.04
511.722	16903.24
512.09	17048.1
512.458	16816.46
512.826	17155.44
513.193	17080.19
513.561	17190.47
513.929	17245.38
514.297	17415.77
514.664	17471.59
515.032	17625.93
515.4	17710
515.767	17697.35
516.135	17857.79
516.502	17792.48
516.869	18047.84
517.237	18123.77
517.604	18061.86
517.972	18390.89
518.339	18343.2
518.706	18380.27
519.073	18411.68
519.44	18473.37
519.808	18784.32
520.175	18701.61
520.542	18881.27
520.909	19013.02
521.276	19066.35
521.643	19244.2
522.009	19318.09
522.376	19371.65
522.743	19514.7
523.11	19761.02
523.477	19936.38
523.843	19846.22
524.21	20078.75
524.577	20096.15
524.943	20251.63
525.31	20295.92
525.676	20470.61
526.043	20606.65
526.409	20635.35
526.776	20678.74
527.142	20893.65
527.508	20960.08
527.874	21062.68
528.241	21211.6
528.607	21181.77
528.973	21347.42
529.339	21309.45
529.705	21574.76
530.071	21720.29
530.437	21711.93
530.803	21846.16
531.169	21865.82
531.535	21916.22
531.901	21804.13
532.267	21944.92
532.632	22082.09
532.998	21958.48
533.364	22101.07
533.73	22217.68
534.095	22279.6
534.461	22273.95
534.826	22306.26
535.192	22337.22
535.557	22383.1
535.923	22434.17
536.288	22563.43
536.653	22529.53
537.019	22468.29
537.384	22433.27
537.749	22480.27
538.114	22462.87
538.479	22384.91
538.845	22436.88
539.21	22317.79
539.575	22352.59
539.94	22367.51
540.305	22461.51
540.67	22424.45
541.034	22439.14
541.399	22505.13
541.764	22501.74
542.129	22303.55
542.494	22346.49
542.858	22397.79
543.223	22326.6
543.587	22516.88
543.952	22271.69
544.316	22358.24
544.681	22305.59
545.045	22409.76
545.41	22346.71
545.774	22236.89
546.138	22245.02
546.503	22227.4
546.867	22168.64
547.231	22305.59
547.595	22376.32
547.959	22284.57
548.324	22221.07
548.688	22245.47
549.052	22171.13
549.416	22123.22
549.779	22211.13
550.143	22157.79
550.507	22234.18
550.871	22211.58
551.235	22122.99
551.599	22234.18
551.962	22268.07
552.326	22198.02
552.689	22172.48
553.053	21967.29
553.417	21942.88
553.78	22253.61
554.143	22186.49
554.507	22168.19
554.87	22191.24
555.234	22374.74
555.597	22090.68
555.96	22177.91
556.323	22157.34
556.686	22124.57
557.05	22259.03
557.413	22178.81
557.776	22155.08
558.139	22197.34
558.502	22171.13
558.865	22266.72
559.228	22343.1
559.59	22244.12
559.953	22217
560.316	22425.36
560.679	22351.01
561.041	22418.8
561.404	22514.17
561.767	22619.02
562.129	22534.28
562.492	22692.24
562.854	22655.86
563.217	22512.81
563.579	22756.87
563.941	22765.01
564.304	22877.77
564.666	22915.29
565.028	22929.52
565.39	22943.54
565.753	23050.2
566.115	22994.61
566.477	23226.69
566.839	23244.77
567.201	23393.24
567.563	23292.45
567.925	23423.3
568.287	23363.64
568.648	23503.97
569.01	23595.27
569.372	23764.76
569.734	23723.4
570.095	23903.96
570.457	23965.66
570.819	24039.55
571.18	23987.12
571.542	24195.25
571.903	24103.28
572.265	24218.08
572.626	24263.27
572.987	24418.52
573.349	24393.44
573.71	24522.25
574.071	24583.49
574.432	24708.46
574.794	24814.22
575.155	24815.8
575.516	24707.56
575.877	24920.21
576.238	24888.79
576.599	24960.43
576.96	25016.25
577.32	24998.62
577.681	25103.48
578.042	25237.03
578.403	25150.93
578.763	25196.58
579.124	25138.96
579.485	25418.27
579.845	25472.06
580.206	25341.89
580.566	25470.47
580.927	25463.24
581.287	25371.27
581.648	25402
582.008	25557.03
582.368	25478.84
582.728	25465.73
583.089	25537.59
583.449	25584.6
583.809	25513.41
584.169	25561.77
584.529	25497.14
584.889	25781.88
585.249	25473.86
585.609	25352.96
585.969	25625.05
586.329	25500.08
586.688	25548.89
587.048	25520.42
587.408	25444.71
587.768	25545.05
588.127	25527.2
588.487	25371.95
588.846	25673.41
589.206	25438.61
589.565	25379.18
589.925	25635.89
590.284	25497.82
590.643	25470.7
591.003	25449.01
591.362	25665.5
591.721	25480.42
592.08	25510.25
592.44	25534.65
592.799	25537.14
593.158	25252.18
593.517	25314.77
593.876	25397.03
594.235	25430.93
594.593	25360.65
594.952	25376.01
595.311	25369.69
595.67	25474.99
596.029	25458.5
596.387	25471.15
596.746	25540.3
597.104	25356.81
597.463	25396.13
597.822	25529
598.18	25365.39
598.538	25390.02
598.897	25501.66
599.255	25392.06
599.613	25540.98
599.972	25395.45
600.33	25459.18
600.688	25514.77
601.046	25406.97
601.404	25674.31
601.762	25510.47
602.12	25596.12
602.478	25440.19
602.836	25471.83
603.194	25425.28
603.552	25510.47
603.91	25387.31
604.268	25472.73
604.625	25526.97
604.983	25609
605.341	25452.17
605.698	25656.46
606.056	25769
606.413	25550.02
606.771	25684.25
607.128	25721.99
607.485	25532.17
607.843	25590.47
608.2	25755.66
608.557	25748.66
608.914	25655.78
609.272	25832.72
609.629	25936.9
609.986	26002.89
610.343	25809.67
610.7	26006.51
611.057	25961.99
611.414	25983.46
611.771	26025.71
612.127	26172.6
612.484	26081.08
612.841	26208.53
613.198	26044.92
613.554	26067.52
613.911	26183.45
614.267	26232.04
614.624	26165.15
614.98	26207.4
615.337	26378.02
615.693	26450.79
616.05	26370.79
616.406	26441.07
616.762	26372.6
617.118	26327.85
617.475	26457.57
617.831	26601.07
618.187	26540.05
618.543	26588.86
618.899	26745.02
619.255	26716.09
619.611	26743.21
619.967	26777.78
620.323	26901.62
620.678	26783.43
621.034	26759.93
621.39	26789.08
621.746	26738.69
622.101	27028.63
622.457	26806.71
622.812	26855.97
623.168	27024.56
623.523	26902.98
623.879	27063.2
624.234	26937.1
624.589	26984.33
624.945	27027.27
625.3	27031.56
625.655	27065.01
626.01	27072.69
626.365	27096.65
626.72	27032.92
627.075	26941.17
627.43	26879.7
627.785	27030.66
628.14	27024.78
628.495	26976.2
628.85	27109.75
629.205	26985.69
629.559	27051.22
629.914	26907.72
630.269	26988.4
630.623	26809.2
630.978	26787.28
631.332	27026.82
631.687	27031.56
632.041	26853.49
632.396	26846.48
632.75	26829.99
633.104	26844.68
633.459	26759.03
633.813	26651.46
634.167	26660.27
634.521	26682.87
634.875	26710.44
635.229	26710.89
635.583	26477.23
635.937	26544.57
636.291	26529.43
636.645	26483.1
636.999	26392.94
637.352	26557.23
637.706	26202.43
638.06	26404.46
638.413	26370.79
638.767	26273.62
639.121	26264.8
639.474	26266.16
639.828	26169.21
640.181	26273.84
640.534	26364.69
640.888	26240.62
641.241	25991.14
641.594	26073.62
641.947	26212.38
642.301	26072.49
642.654	26188.2
643.007	26060.52
643.36	26127.86
643.713	25943.46
644.066	26072.49
644.419	25906.85
644.771	25710.47
645.124	25429.8
645.477	25475.22
645.83	25451.49
646.182	25299.63
646.535	25374.21
646.888	25439.97
647.24	25317.26
647.593	25508.21
647.945	25546.18
648.298	25373.08
648.65	25157.94
649.002	24919.53
649.355	24991.62
649.707	24853.99
650.059	24741.68
650.411	25230.03
650.763	25545.27
651.115	25971.7
651.467	25732.16
651.819	25850.13
652.171	25739.62
652.523	25695.55
652.875	25666.85
653.227	25660.07
653.578	25825.49
653.93	25780.3
654.282	25640.41
654.633	25601.09
654.985	25747.76
655.337	25698.72
655.688	25755.44
656.039	25801.77
656.391	25627.53
656.742	25702.78
657.094	25740.07
657.445	25801.77
657.796	25747.08
658.147	25833.4
658.498	25867.75
658.849	25861.42
659.2	25855.77
659.551	25770.58
659.902	25986.17
660.253	25815.1
660.604	25987.52
660.955	25800.64
661.306	25966.28
661.656	25883.8
662.007	26072.49
662.358	26076.11
662.708	26036.56
663.059	26000.4
663.409	25968.99
663.76	26028.2
664.11	26097.35
664.461	26027.75
664.811	26127.63
665.161	25997.01
665.511	26016.22
665.862	26023.68
666.212	26093.51
666.562	26159.04
666.912	26070.68
667.262	26084.92
667.612	26132.38
667.962	26064.58
668.312	26080.85
668.662	26333.28
669.011	26231.58
669.361	26101.42
669.711	26106.84
670.06	25985.04
670.41	26081.31
670.76	26014.64
671.109	26117.91
671.459	26050.8
671.808	26004.7
672.157	26084.47
672.507	25923.57
672.856	25794.76
673.205	26014.19
673.554	25940.29
673.904	25858.26
674.253	26032.95
674.602	25843.12
674.951	25486.97
675.3	25439.97
675.649	25880.41
675.998	26020.29
676.346	26013.74
676.695	25950.91
677.044	25710.02
677.393	25775.33
677.741	25816.23
678.09	25673.86
678.438	25627.98
678.787	25811.48
679.135	25695.55
679.484	25512.28
679.832	25637.02
680.181	25619.62
680.529	25564.48
680.877	25478.61
681.225	25491.49
681.573	25518.38
681.922	25413.07
682.27	25318.39
682.618	25316.81
682.966	25203.59
683.314	25243.59
683.661	25147.09
684.009	25053.76
684.357	24975.35
684.705	24983.26
685.053	24924.95
685.4	24871.85
685.748	24804.5
686.095	24788.68
686.443	24704.84
686.79	24682.92
687.138	24698.29
687.485	24606.09
687.832	24495.36
688.18	24453.1
688.527	24289.49
688.874	24307.12
689.221	24210.62
689.568	24048.82
689.915	24093.11
690.262	24151.41
690.609	23903.51
690.956	23830.74
691.303	23910.29
691.65	23716.4
691.997	23682.95
692.344	23564.08
692.69	23455.84
693.037	23487.02
693.383	23213.36
693.73	23315.05
694.077	23188.05
694.423	23121.84
694.769	23159.35
695.116	22992.8
695.462	22819.47
695.808	22801.62
696.155	22893.37
696.501	22627.61
696.847	22678.68
697.193	22447.73
697.539	22441.4
697.885	22259.94
698.231	22261.97
698.577	22146.72
698.923	22148.53
699.269	21953.05
699.614	21980.62
699.96	21699.5
700.306	21727.75
700.651	21636.9
700.997	21497.92
701.342	21431.26
701.688	21382.9
702.033	21316.91
702.379	21250.02
702.724	21146.75
703.069	21224.48
703.415	20926.87
703.76	20849.35
704.105	20859.52
704.45	20915.34
704.795	20716.48
705.14	20632.41
705.485	20689.58
705.83	20576.82
706.175	20528.46
706.52	20452.75
706.865	20347.9
707.209	20285.07
707.554	20223.15
707.899	20152.65
708.243	20150.39
708.588	20073.78
708.932	19985.65
709.277	20102.25
709.621	19905.87
709.966	19795.82
710.31	19867.46
710.654	19709.72
710.998	19787.69
711.342	19722.6
711.687	19660.01
712.031	19644.64
712.375	19637.18
712.719	19541.14
713.063	19544.75
713.407	19572.55
713.75	19485.77
714.094	19502.04
714.438	19381.14
714.782	19397.41
715.125	19259.79
715.469	19433.34
715.812	19232.67
716.156	19270.86
716.499	19239.68
716.843	19230.19
717.186	19106.8
717.53	19317.19
717.873	19255.95
718.216	19279.22
718.559	19066.35
718.902	18979.35
719.246	19107.93
719.589	19114.94
719.932	18986.8
720.275	19092.56
720.617	19080.81
720.96	19006.24
721.303	19019.57
721.646	19062.51
721.989	19017.31
722.331	19073.35
722.674	19008.5
723.016	18979.8
723.359	18959.91
723.701	18985.22
724.044	18915.62
724.386	18823.87
724.729	19008.05
725.071	18964.88
725.413	18885.56
725.755	18852.8
726.097	18856.64
726.439	18917.2
726.782	18884.21
727.124	19043.07
727.465	18908.39
727.807	18845.34
728.149	18996.52
728.491	19083.07
728.833	19024.09
729.175	18902.51
729.516	18936.41
729.858	18982.28
730.199	19059.8
730.541	19055.5
730.882	19020.7
731.224	19054.82
731.565	19052.34
731.906	19030.64
732.248	19257.3
732.589	19056.41
732.93	19051.66
733.271	19151.09
733.612	19167.36
733.953	19328.04
734.294	19197.19
734.635	19235.16
734.976	19399.22
735.317	19227.25
735.658	19354.7
735.999	19428.6
736.339	19457.53
736.68	19449.62
737.021	19550.18
737.361	19474.25
737.702	19680.57
738.042	19557.41
738.383	19703.62
738.723	19776.84
739.063	19832.88
739.404	19910.17
739.744	19907.46
740.084	19911.98
740.424	20050.5
740.764	20090.5
741.104	20115.59
741.444	20230.84
741.784	20224.28
742.124	20383.38
742.464	20528.68
742.804	20484.84
743.143	20635.35
743.483	20696.59
743.823	20803.93
744.162	20897.26
744.502	21058.16
744.841	21134.09
745.181	21178.84
745.52	21292.28
745.86	21601.2
746.199	21689.1
746.538	21733.17
746.877	21892.04
747.216	22024.46
747.556	22262.2
747.895	22378.13
748.234	22489.08
748.573	22622.19
748.911	22748.51
749.25	22961.39
749.589	23035.28
749.928	23402.05
750.267	23611.54
750.605	23694.25
750.944	23889.95
751.283	24136.5
751.621	24371.75
751.96	24472.31
752.298	24798.85
752.636	25042.69
752.975	25166.98
753.313	25388.67
753.651	25706.17
753.989	25786.4
