Data from 18-4330_FLMS001491_002.txt Node
Date: Thu Apr 19 16:43:22 BST 2018
User: hsy
Spectrometer: FLMS00149
Trigger mode: 0
Integration Time (sec): 1.000000E-2
Scans to average: 10
Electric dark correction enabled: true
Nonlinearity correction enabled: false
Boxcar width: 0
XAxis mode: Wavelengths
Number of Pixels in Spectrum: 2048
>>>>>Begin Spectral Data<<<<<
341.393	-8.38
341.776	-8.38
342.16	-8.38
342.543	-52.44
342.927	-67.13
343.31	-70.52
343.693	-75.72
344.077	-66.45
344.46	-62.16
344.843	-68.49
345.226	-38.66
345.61	-26.91
345.993	-15.38
346.376	-14.03
346.759	18.29
347.142	24.84
347.525	36.37
347.908	70.49
348.291	86.76
348.674	97.84
349.057	103.71
349.44	129.93
349.823	125.86
350.206	178.29
350.588	219.42
350.971	233.65
351.354	258.06
351.737	263.71
352.119	262.58
352.502	294.22
352.884	318.62
353.267	310.26
353.65	309.13
354.032	320.66
354.414	344.38
354.797	345.29
355.179	340.99
355.562	359.52
355.944	362.91
356.326	361.11
356.709	364.04
357.091	370.82
357.473	366.53
357.855	374.67
358.238	382.12
358.62	373.08
359.002	382.12
359.384	374.21
359.766	369.69
360.148	384.83
360.53	369.02
360.912	343.25
361.294	374.21
361.676	355.23
362.057	349.13
362.439	376.02
362.821	375.57
363.203	356.81
363.584	358.17
363.966	352.52
364.348	346.87
364.729	349.81
365.111	350.94
365.493	361.56
365.874	361.78
366.256	350.26
366.637	360.43
367.019	357.94
367.4	368.34
367.781	378.28
368.163	363.82
368.544	354.55
368.925	345.74
369.306	343.48
369.688	380.99
370.069	340.32
370.45	380.77
370.831	349.58
371.212	357.72
371.593	364.04
371.974	342.12
372.355	378.51
372.736	380.31
373.117	351.62
373.498	358.39
373.879	337.15
374.26	368.34
374.641	370.15
375.021	360.2
375.402	365.17
375.783	383.48
376.163	391.39
376.544	389.35
376.925	372.86
377.305	388
377.686	395.23
378.066	399.07
378.447	395.23
378.827	399.52
379.208	401.78
379.588	396.81
379.968	396.13
380.349	394.1
380.729	419.18
381.109	430.48
381.489	409.69
381.87	411.73
382.25	410.37
382.63	394.78
383.01	410.6
383.39	430.93
383.77	416.92
384.15	424.38
384.53	436.81
384.91	424.83
385.29	425.29
385.67	431.16
386.049	430.93
386.429	439.52
386.809	440.88
387.189	433.42
387.568	458.05
387.948	445.17
388.328	466.41
388.707	466.19
389.087	456.47
389.466	461.67
389.846	447.43
390.225	465.51
390.605	453.31
390.984	475.68
391.363	493.53
391.743	497.15
392.122	506.41
392.501	506.64
392.881	504.15
393.26	508.45
393.639	505.51
394.018	527.43
394.397	511.61
394.776	516.13
395.155	514.32
395.534	529.24
395.913	529.46
396.292	553.64
396.671	558.39
397.05	533.98
397.429	529.01
397.808	556.81
398.186	564.04
398.565	566.98
398.944	584.38
399.323	573.53
399.701	586.41
400.08	583.25
400.458	584.15
400.837	590.48
401.215	604.26
401.594	592.06
401.972	628.22
402.351	617.82
402.729	627.99
403.107	637.26
403.486	647.43
403.864	629.8
404.242	647.2
404.62	639.74
404.999	635.45
405.377	657.82
405.755	671.15
406.133	680.65
406.511	700.53
406.889	691.27
407.267	692.62
407.645	718.39
408.023	733.3
408.401	731.72
408.779	754.77
409.156	787.08
409.534	758.84
409.912	784.15
410.29	759.74
410.667	822.34
411.045	808.1
411.422	832.28
411.8	833.86
412.178	848.1
412.555	854.88
412.933	888.32
413.31	866.86
413.687	910.7
414.065	922.9
414.442	905.5
414.819	939.17
415.197	957.7
415.574	981.65
415.951	973.07
416.328	966.06
416.705	998.83
417.082	1020.07
417.46	989.11
417.837	1009
418.214	1020.3
418.591	1043.57
418.967	1027.76
419.344	1077.25
419.721	1073.4
420.098	1089.22
420.475	1110.47
420.852	1123.8
421.228	1112.72
421.605	1156.57
421.982	1141.65
422.358	1186.4
422.735	1184.14
423.111	1200.63
423.488	1223.23
423.864	1232.95
424.241	1228.2
424.617	1255.09
424.994	1253.51
425.37	1309.56
425.746	1256.68
426.123	1307.07
426.499	1342.32
426.875	1376.22
427.251	1367.63
427.627	1411.25
428.003	1396.79
428.379	1422.55
428.756	1428.2
429.132	1448.08
429.507	1485.37
429.883	1478.59
430.259	1528.08
430.635	1547.74
431.011	1519.72
431.387	1590
431.763	1600.4
432.138	1628.19
432.514	1630.9
432.89	1657.8
433.265	1699.83
433.641	1728.98
434.016	1709.32
434.392	1779.83
434.767	1825.02
435.143	1802.42
435.518	1844.23
435.894	1868.41
436.269	1919.48
436.644	1945.25
437.02	1949.77
437.395	1957.45
437.77	2006.94
438.145	2043.32
438.52	2068.41
438.895	2092.81
439.271	2086.48
439.646	2154.73
440.021	2171.23
440.395	2149.76
440.77	2143.66
441.145	2205.8
441.52	2276.99
441.895	2230.21
442.27	2268.17
442.645	2299.36
443.019	2313.15
443.394	2338.68
443.769	2341.17
444.143	2346.36
444.518	2410.54
444.892	2404.89
445.267	2358.12
445.641	2428.62
446.016	2460.94
446.39	2484.21
446.764	2455.97
447.139	2490.09
447.513	2532.35
447.887	2549.3
448.262	2568.51
448.636	2570.09
449.01	2590.65
449.384	2636.75
449.758	2656.64
450.132	2687.37
450.506	2709.75
450.88	2713.59
451.254	2722.17
451.628	2755.85
452.002	2800.36
452.376	2825.67
452.75	2872.45
453.123	2879.68
453.497	2937.54
453.871	2962.85
454.244	3000.81
454.618	3050.98
454.992	3108.6
455.365	3128.94
455.739	3192.67
456.112	3220.24
456.486	3245.1
456.859	3279.9
457.232	3330.52
457.606	3351.54
457.979	3401.48
458.352	3416.62
458.725	3495.04
459.099	3526.9
459.472	3577.97
459.845	3681.92
460.218	3679.66
460.591	3735.25
460.964	3700.91
461.337	3817.29
461.71	3861.58
462.083	3934.12
462.456	3943.61
462.829	3968.47
463.201	4055.47
463.574	4063.61
463.947	4126.43
464.32	4171.85
464.692	4251.4
465.065	4236.94
465.438	4288.46
465.81	4382.24
466.183	4421.34
466.555	4461.34
466.928	4533.65
467.3	4499.75
467.672	4576.81
468.045	4701.33
468.417	4725.96
468.789	4755.34
469.161	4806.87
469.534	4909.24
469.906	5005.05
470.278	4975.9
470.65	5057.03
471.022	5142
471.394	5159.17
471.766	5254.54
472.138	5311.48
472.51	5466.51
472.882	5450.24
473.253	5565.94
473.625	5602.32
473.997	5717.35
474.369	5780.85
474.74	5889.1
475.112	5925.03
475.484	5976.33
475.855	6151.24
476.227	6178.13
476.598	6269.2
476.97	6362.08
477.341	6529.53
477.713	6615.86
478.084	6655.18
478.455	6798.23
478.827	6914.83
479.198	6998.9
479.569	7072.34
479.94	7299.91
480.311	7374.93
480.682	7491.09
481.053	7654.25
481.424	7794.81
481.795	7868.25
482.166	8047.46
482.537	8109.6
482.908	8269.15
483.279	8341.46
483.65	8485.64
484.021	8651.74
484.391	8782.81
484.762	8843.37
485.133	8858.06
485.503	9060.09
485.874	9268.22
486.244	9326.75
486.615	9525.61
486.985	9601.09
487.356	9797.24
487.726	9985.26
488.097	10151.81
488.467	10140.96
488.837	10323.33
489.207	10512.93
489.578	10657.56
489.948	10751.34
490.318	10843.32
490.688	10902.75
491.058	11156.53
491.428	11275.17
491.798	11328.73
492.168	11618.66
492.538	11653.46
492.908	11783.18
493.278	12021.82
493.648	12000.12
494.017	12177.52
494.387	12262.04
494.757	12386.78
495.126	12470.17
495.496	12549.49
495.866	12687.34
496.235	12768.92
496.605	12898.63
496.974	13062.02
497.344	13146.08
497.713	13212.07
498.082	13283.93
498.452	13393.76
498.821	13439.63
499.19	13528.22
499.559	13589.69
499.928	13732.96
500.298	13808.44
500.667	13916.68
501.036	13967.53
501.405	14016.57
501.774	14072.16
502.143	14185.83
502.512	14280.74
502.88	14380.62
503.249	14442.09
503.618	14464.01
503.987	14493.84
504.356	14686.38
504.724	14657.23
505.093	14778.13
505.462	14791.01
505.83	14819.48
506.199	14942.19
506.567	15088.63
506.936	15131.34
507.304	15268.28
507.672	15310.77
508.041	15292.01
508.409	15477.77
508.777	15573.36
509.145	15748.5
509.514	15603.19
509.882	15746.69
510.25	15767.03
510.618	15955.72
510.986	15880.25
511.354	16017.42
511.722	16153.69
512.09	16230.97
512.458	16274.81
512.826	16363.85
513.193	16411.53
513.561	16471.42
513.929	16378.54
514.297	16591.41
514.664	16671.19
515.032	16737.4
515.4	16878.64
515.767	16859.66
516.135	17018.75
516.502	16870.95
516.869	17218.74
517.237	17153.66
517.604	17025.53
517.972	17318.85
518.339	17348.91
518.706	17448.34
519.073	17427.32
519.44	17512.52
519.808	17734.89
520.175	17693.31
520.542	17865.28
520.909	17869.12
521.276	17937.59
521.643	18100.98
522.009	18181.2
522.376	18176.46
522.743	18403.8
523.11	18476.11
523.477	18611.02
523.843	18677.23
524.21	18816.67
524.577	18916.78
524.943	18904.8
525.31	19040.84
525.676	19214.62
526.043	19211.68
526.409	19291
526.776	19568.74
527.142	19545.91
527.508	19641.73
527.874	19739.81
528.241	19806.92
528.607	19720.15
528.973	19982.06
529.339	19975.51
529.705	20103.41
530.071	20147.7
530.437	20246.69
530.803	20311.09
531.169	20403.52
531.535	20366
531.901	20422.27
532.267	20431.09
532.632	20546.79
532.998	20566.68
533.364	20660.01
533.73	20582.27
534.095	20539.33
534.461	20720.8
534.826	20786.78
535.192	20804.41
535.557	20857.97
535.923	20778.65
536.288	20740.23
536.653	20990.17
537.019	20827.23
537.384	20890.06
537.749	20893.67
538.114	20913.79
538.479	20898.65
538.845	20970.73
539.21	20817.29
539.575	20931.19
539.94	20843.51
540.305	20908.14
540.67	20951.07
541.034	20855.03
541.399	20926.44
541.764	20895.71
542.129	20841.92
542.494	20894.8
542.858	20823.85
543.223	20732.1
543.587	20838.31
543.952	20900.45
544.316	20758.08
544.681	20677.41
545.045	20743.4
545.41	20775.03
545.774	20690.52
546.138	20536.4
546.503	20693.91
546.867	20609.16
547.231	20734.36
547.595	20611.2
547.959	20530.52
548.324	20563.29
548.688	20443.06
549.052	20566.22
549.416	20459.11
549.779	20450.97
550.143	20500.01
550.507	20493.68
550.871	20482.39
551.235	20470.18
551.599	20477.41
551.962	20373.69
552.326	20533.68
552.689	20368.49
553.053	20267.02
553.417	20267.93
553.78	20458.88
554.143	20345.44
554.507	20371.88
554.87	20424.53
555.234	20449.84
555.597	20167.37
555.96	20284.42
556.323	20364.2
556.686	20339.56
557.05	20396.06
557.413	20356.51
557.776	20312.67
558.139	20308.6
558.502	20309.06
558.865	20297.76
559.228	20480.58
559.59	20445.32
559.953	20434.7
560.316	20558.99
560.679	20504.98
561.041	20489.62
561.404	20576.85
561.767	20693
562.129	20627.69
562.492	20753.56
562.854	20771.19
563.217	20735.49
563.579	20785.88
563.941	20905.42
564.304	20883.05
564.666	21113.33
565.028	21060.45
565.39	21057.74
565.753	21102.71
566.115	21126.21
566.477	21196.04
566.839	21179.32
567.201	21444.85
567.563	21286.66
567.925	21501.12
568.287	21513.09
568.648	21597.38
569.01	21671.73
569.372	21860.65
569.734	21869.92
570.095	22008.45
570.457	22065.62
570.819	22071.04
571.18	22167.09
571.542	22197.37
571.903	22298.38
572.265	22323.47
572.626	22422.45
572.987	22417.7
573.349	22475.33
573.71	22543.57
574.071	22685.94
574.432	22792.38
574.794	22940.85
575.155	22932.94
575.516	22856.33
575.877	22906.73
576.238	22968.65
576.599	23126.16
576.96	23132.03
577.32	23105.59
577.681	23147.63
578.042	23294.97
578.403	23287.06
578.763	23304.46
579.124	23269.2
579.485	23491.8
579.845	23408.41
580.206	23500.61
580.566	23420.61
580.927	23466.71
581.287	23639.82
581.648	23471.23
582.008	23637.78
582.368	23538.35
582.728	23629.42
583.089	23511.23
583.449	23591.23
583.809	23685.24
584.169	23574.28
584.529	23613.15
584.889	23738.57
585.249	23482.53
585.609	23453.83
585.969	23659.93
586.329	23598.01
586.688	23667.39
587.048	23605.47
587.408	23620.83
587.768	23558.46
588.127	23642.53
588.487	23543.32
588.846	23760.94
589.206	23495.64
589.565	23492.93
589.925	23612.02
590.284	23629.65
590.643	23643.43
591.003	23628.97
591.362	23696.31
591.721	23656.31
592.08	23633.26
592.44	23690.21
592.799	23548.52
593.158	23645.69
593.517	23560.04
593.876	23516.43
594.235	23389.2
594.593	23520.72
594.952	23531.12
595.311	23550.55
595.67	23576.09
596.029	23604.11
596.387	23676.2
596.746	23769.98
597.104	23626.71
597.463	23549.65
597.822	23602.08
598.18	23520.72
598.538	23588.29
598.897	23690.21
599.255	23578.57
599.613	23818.57
599.972	23580.38
600.33	23623.32
600.688	23548.29
601.046	23699.7
601.404	23741.06
601.762	23610.89
602.12	23722.3
602.478	23681.4
602.836	23650.44
603.194	23547.62
603.552	23640.49
603.91	23649.53
604.268	23703.09
604.625	23667.39
604.983	23772.24
605.341	23625.81
605.698	23700.61
606.056	23850.21
606.413	23781.06
606.771	23819.25
607.128	23825.12
607.485	23779.7
607.843	23778.12
608.2	23742.41
608.557	23968.4
608.914	23913.26
609.272	24073.48
609.629	24016.53
609.986	24078.22
610.343	24025.79
610.7	24218.11
611.057	24133.59
611.414	24182.4
611.771	24188.95
612.127	24211.55
612.484	24250.65
612.841	24261.49
613.198	24185.79
613.554	24031.44
613.911	24510.98
614.267	24351.89
614.624	24396.18
614.98	24394.37
615.337	24561.37
615.693	24463.75
616.05	24515.73
616.406	24613.58
616.762	24495.39
617.118	24643.41
617.475	24571.09
617.831	24658.09
618.187	24561.6
618.543	24742.61
618.899	24799.79
619.255	24809.73
619.611	24714.82
619.967	24903.29
620.323	24918.88
620.678	24811.08
621.034	24818.99
621.39	24701.03
621.746	24815.38
622.101	25028.93
622.457	24805.44
622.812	24998.42
623.168	25002.27
623.523	25093.11
623.879	25078.65
624.234	24971.98
624.589	25053.56
624.945	25064.64
625.3	25090.63
625.655	25159.78
626.01	25264.18
626.365	25116.16
626.72	25050.63
627.075	25058.99
627.43	24989.16
627.785	24969.05
628.14	25079.1
628.495	25070.74
628.85	25164.07
629.205	24995.26
629.559	25075.03
629.914	25033.45
630.269	24969.05
630.623	24934.7
630.978	24885.89
631.332	24945.32
631.687	24906
632.041	24964.53
632.396	24922.72
632.75	24929.73
633.104	24868.94
633.459	24761.14
633.813	24825.55
634.167	24748.26
634.521	24824.19
634.875	24814.93
635.229	24796.85
635.583	24626.23
635.937	24616.74
636.291	24642.95
636.645	24675.5
636.999	24474.82
637.352	24691.77
637.706	24492.22
638.06	24590.3
638.413	24473.01
638.767	24383.53
639.121	24463.07
639.474	24313.02
639.828	24359.8
640.181	24356.18
640.534	24429.63
640.888	24375.39
641.241	24299.91
641.594	24172.01
641.947	24288.39
642.301	24254.72
642.654	24224.89
643.007	24123.65
643.36	24189.41
643.713	24119.58
644.066	24255.17
644.419	24057.43
644.771	23906.93
645.124	23657.89
645.477	23650.89
645.83	23590.78
646.182	23614.96
646.535	23657.67
646.888	23666.26
647.24	23619.93
647.593	23814.5
647.945	23651.34
648.298	23522.31
648.65	23488.18
649.002	23283.89
649.355	23236.66
649.707	23152.37
650.059	23171.58
650.411	23640.72
650.763	23731.34
651.115	24208.16
651.467	24050.65
651.819	23992.8
652.171	23993.25
652.523	23935.18
652.875	23967.27
653.227	23967.27
653.578	24017.43
653.93	23930.88
654.282	23965.68
654.633	24054.27
654.985	23952.58
655.337	23939.02
655.688	23981.5
656.039	24151.89
656.391	23900.15
656.742	23962.97
657.094	23951.67
657.445	24156.86
657.796	24169.75
658.147	23986.47
658.498	24058.34
658.849	24174.27
659.2	24140.59
659.551	24060.82
659.902	24235.73
660.253	24048.62
660.604	24180.59
660.955	24191.89
661.306	24298.78
661.656	24185.56
662.007	24257.88
662.358	24261.95
662.708	24083.65
663.059	24283.87
663.409	24268.5
663.76	24277.99
664.11	24253.59
664.461	24370.64
664.811	24358.89
665.161	24360.25
665.511	24333.36
665.862	24363.87
666.212	24484.99
666.562	24463.75
666.912	24439.8
667.262	24309.4
667.612	24297.43
667.962	24411.55
668.312	24311.44
668.662	24462.85
669.011	24495.16
669.361	24399.12
669.711	24345.79
670.06	24358.22
670.41	24364.09
670.76	24325.67
671.109	24394.37
671.459	24374.71
671.808	24280.7
672.157	24401.38
672.507	24197.99
672.856	24204.77
673.205	24299.01
673.554	24418.1
673.904	24260.36
674.253	24360.93
674.602	24230.08
674.951	23978.11
675.3	23857.21
675.649	24226.24
675.998	24087.49
676.346	24143.76
676.695	24296.97
677.044	24095.4
677.393	24070.09
677.741	24184.43
678.09	24044.55
678.438	23993.48
678.787	24061.05
679.135	23926.14
679.484	23824.9
679.832	23881.84
680.181	23908.28
680.529	23727.05
680.877	23716.42
681.225	23832.35
681.573	23902.86
681.922	23768.17
682.27	23619.93
682.618	23739.47
682.966	23638.23
683.314	23570.89
683.661	23553.49
684.009	23486.6
684.357	23442.53
684.705	23222.88
685.053	23454.06
685.4	23238.02
685.748	23201.64
686.095	23182.65
686.443	23114.18
686.79	22977.69
687.138	23092.94
687.485	22934.52
687.832	22850.46
688.18	22748.77
688.527	22772.49
688.874	22678.94
689.221	22592.16
689.568	22455.89
689.915	22455.67
690.262	22478.04
690.609	22450.02
690.956	22175.67
691.303	22200.98
691.65	22086.64
691.997	22195.79
692.344	21948.79
692.69	21903.36
693.037	21946.08
693.383	21613.2
693.73	21768.45
694.077	21638.51
694.423	21511.74
694.769	21440.78
695.116	21396.03
695.462	21289.82
695.808	21322.82
696.155	21164.63
696.501	21104.97
696.847	21082.82
697.193	20823.39
697.539	20869.72
697.885	20662.95
698.231	20633.34
698.577	20558.99
698.923	20486.45
699.269	20358.09
699.614	20423.4
699.96	20249.17
700.306	20272
700.651	20071.77
700.997	19999.46
701.342	19867.03
701.688	19885.56
702.033	19861.16
702.379	19775.06
702.724	19679.47
703.069	19586.59
703.415	19460.49
703.76	19482.64
704.105	19488.06
704.45	19455.52
704.795	19305.01
705.14	19122.65
705.485	19331.68
705.83	18978.47
706.175	19105.02
706.52	19015.08
706.865	18956.55
707.209	18867.51
707.554	18830.45
707.899	18912.48
708.243	18747.74
708.588	18645.82
708.932	18564.24
709.277	18583.68
709.621	18500.06
709.966	18402.21
710.31	18434.53
710.654	18304.59
710.998	18335.1
711.342	18338.49
711.687	18289
712.031	18224.37
712.375	18122.22
712.719	18078.15
713.063	18063.92
713.407	18277.92
713.75	18150.7
714.094	18033.41
714.438	18029.34
714.782	18057.82
715.125	17930.81
715.469	18043.35
715.812	17924.71
716.156	17913.64
716.499	17885.17
716.843	18006.07
717.186	17808.33
717.53	17924.49
717.873	17977.59
718.216	17860.76
718.559	17866.63
718.902	17689.46
719.246	17846.75
719.589	17727.2
719.932	17734.66
720.275	17714.77
720.617	17729.01
720.96	17717.94
721.303	17780.76
721.646	17877.03
721.989	17710.93
722.331	17803.36
722.674	17790.93
723.016	17769.24
723.359	17764.94
723.701	17644.95
724.044	17665.28
724.386	17650.82
724.729	17822.12
725.071	17791.83
725.413	17731.27
725.755	17632.29
726.097	17701.44
726.439	17637.94
726.782	17717.26
727.124	17714.77
727.465	17783.7
727.807	17723.14
728.149	17751.16
728.491	17705.96
728.833	17725.85
729.175	17814.21
729.516	17700.76
729.858	17749.35
730.199	17799.29
730.541	17873.19
730.882	17744.38
731.224	17922.45
731.565	17948.67
731.906	17888.78
732.248	17998.38
732.589	17846.97
732.93	17967.65
733.271	17908.44
733.612	17896.69
733.953	18137.81
734.294	18085.61
734.635	18070.92
734.976	18074.54
735.317	18251.03
735.658	18179.39
735.999	18070.7
736.339	18199.96
736.68	18332.16
737.021	18328.54
737.361	18292.61
737.702	18480.18
738.042	18446.51
738.383	18606.28
738.723	18603.79
739.063	18563.34
739.404	18638.59
739.744	18773.5
740.084	18681.75
740.424	18891.24
740.764	18903.67
741.104	19062.76
741.444	19058.92
741.784	19036.1
742.124	19274.06
742.464	19252.59
742.804	19318.57
743.143	19387.72
743.483	19492.81
743.823	19701.39
744.162	19643.54
744.502	19823.65
744.841	19858.22
745.181	20171.66
745.52	20088.72
745.86	20335.04
746.199	20455.04
746.538	20536.4
746.877	20817.52
747.216	20832.88
747.556	20933.45
747.895	21199.65
748.234	21328.46
748.573	21478.07
748.911	21603.71
749.25	21815.23
749.589	21919.86
749.928	22164.37
750.267	22346.74
750.605	22420.64
750.944	22662.89
751.283	22887.75
751.621	23187.85
751.96	23252.93
752.298	23540.84
752.636	23856.08
752.975	23952.35
753.313	24074.16
753.651	24494.03
