Data from 18-5621_FLMS001491_001.txt Node
Date: Thu Apr 19 15:15:12 BST 2018
User: hsy
Spectrometer: FLMS00149
Trigger mode: 0
Integration Time (sec): 1.000000E-2
Scans to average: 10
Electric dark correction enabled: true
Nonlinearity correction enabled: false
Boxcar width: 0
XAxis mode: Wavelengths
Number of Pixels in Spectrum: 2048
>>>>>Begin Spectral Data<<<<<
341.393	-30.18
341.776	-30.18
342.16	-30.18
342.543	-78.09
342.927	-69.28
343.31	-74.7
343.693	-74.48
344.077	-68.37
344.46	-61.14
344.843	-37.19
345.226	-37.87
345.61	-41.48
345.993	-15.95
346.376	-9.62
346.759	-7.13
347.142	26.31
347.525	34.45
347.908	66.09
348.291	78.29
348.674	108.34
349.057	114.45
349.44	138.63
349.823	150.15
350.206	174.56
350.588	235.12
350.971	244.84
351.354	262.24
351.737	268.34
352.119	262.46
352.502	290.49
352.884	298.62
353.267	316.02
353.65	331.39
354.032	332.29
354.414	343.37
354.797	343.14
355.179	350.15
355.562	360.32
355.944	362.12
356.326	356.93
356.709	358.28
357.091	354.44
357.473	359.19
357.855	361.67
358.238	363.03
358.62	385.85
359.002	381.56
359.384	382.46
359.766	402.12
360.148	387.89
360.53	375
360.912	383.37
361.294	389.47
361.676	355.34
362.057	372.97
362.439	376.59
362.821	372.52
363.203	365.96
363.584	373.42
363.966	367.09
364.348	358.73
364.729	366.42
365.111	365.74
365.493	365.96
365.874	365.51
366.256	354.89
366.637	360.54
367.019	371.84
367.4	368.68
367.781	365.96
368.163	365.06
368.544	381.78
368.925	364.38
369.306	355.8
369.688	390.6
370.069	378.85
370.45	374.55
370.831	387.43
371.212	370.48
371.593	385.63
371.974	360.09
372.355	370.03
372.736	382.69
373.117	382.46
373.498	389.02
373.879	370.48
374.26	362.35
374.641	377.72
375.021	369.58
375.402	417.49
375.783	385.17
376.163	395.79
376.544	389.47
376.925	408.9
377.305	382.01
377.686	396.02
378.066	386.98
378.447	392.63
378.827	403.25
379.208	388.56
379.588	395.12
379.968	417.26
380.349	401.9
380.729	412.07
381.109	412.74
381.489	410.94
381.87	406.19
382.25	406.19
382.63	420.43
383.01	427.43
383.39	413.87
383.77	420.65
384.15	429.01
384.53	436.02
384.91	426.98
385.29	429.01
385.67	432.63
386.049	441.22
386.429	462.91
386.809	452.52
387.189	445.06
387.568	462.01
387.948	468.79
388.328	438.73
388.707	459.3
389.087	457.04
389.466	474.89
389.846	455
390.225	480.31
390.605	485.51
390.984	505.17
391.363	474.89
391.743	478.5
392.122	501.33
392.501	492.29
392.881	504.72
393.26	507.43
393.639	516.92
394.018	525.73
394.397	506.75
394.776	533.64
395.155	524.6
395.534	518.5
395.913	557.15
396.292	543.59
396.671	521.89
397.05	548.11
397.429	568.9
397.808	566.19
398.186	546.98
398.565	560.08
398.944	550.14
399.323	545.4
399.701	568.9
400.08	559.18
400.458	570.48
400.837	566.86
401.215	581.1
401.594	615.22
401.972	612.06
402.351	610.25
402.729	606.64
403.107	624.94
403.486	628.33
403.864	633.98
404.242	620.87
404.62	629.91
404.999	645.51
405.377	647.09
405.755	643.02
406.133	644.38
406.511	664.04
406.889	670.36
407.267	673.98
407.645	677.6
408.023	684.37
408.401	680.53
408.779	696.13
409.156	710.59
409.534	706.52
409.912	758.72
410.29	758.72
410.667	750.36
411.045	752.85
411.422	752.17
411.8	754.66
412.178	774.77
412.555	808.89
412.933	786.97
413.31	819.51
413.687	835.11
414.065	833.75
414.442	850.7
414.819	834.43
415.197	840.75
415.574	851.6
415.951	885.73
416.328	860.87
416.705	883.24
417.082	886.18
417.46	886.18
417.837	906.29
418.214	909.45
418.591	904.48
418.967	914.65
419.344	921.43
419.721	927.98
420.098	955.1
420.475	953.75
420.852	944.25
421.228	963.24
421.605	977.93
421.982	997.36
422.358	1002.56
422.735	1013.18
423.111	991.71
423.488	1025.61
423.864	1019.06
424.241	1044.59
424.617	1074.42
424.994	1030.35
425.37	1069.22
425.746	1083.23
426.123	1098.15
426.499	1087.98
426.875	1099.73
427.251	1101.09
427.627	1123.23
428.003	1188.09
428.379	1169.79
428.756	1170.69
429.132	1209.78
429.507	1217.47
429.883	1207.75
430.259	1229.9
430.635	1267.64
431.011	1255.43
431.387	1270.12
431.763	1304.7
432.138	1294.3
432.514	1334.53
432.89	1297.92
433.265	1370.68
433.641	1380.4
434.016	1362.77
434.392	1401.42
434.767	1432.83
435.143	1411.59
435.518	1432.83
435.894	1483.22
436.269	1482.55
436.644	1528.87
437.02	1522.09
437.395	1516.22
437.77	1565.71
438.145	1556.89
438.52	1578.81
438.895	1617.01
439.271	1575.65
439.646	1583.11
440.021	1643.67
440.395	1639.15
440.77	1629.43
441.145	1653.16
441.52	1671.24
441.895	1689.09
442.27	1717.57
442.645	1704.23
443.019	1739.04
443.394	1710.56
443.769	1743.33
444.143	1737.91
444.518	1771.58
444.892	1762.76
445.267	1788.75
445.641	1781.75
446.016	1790.33
446.39	1777.45
446.764	1826.04
447.139	1815.64
447.513	1849.99
447.887	1842.31
448.262	1863.78
448.636	1835.53
449.01	1904.23
449.384	1933.83
449.758	1895.87
450.132	1914.85
450.506	1979.71
450.88	1989.43
451.254	1960.27
451.628	1981.52
452.002	2024
452.376	2040.27
452.75	2071.68
453.123	2060.84
453.497	2101.29
453.871	2141.06
454.244	2166.6
454.618	2181.06
454.992	2204.56
455.365	2201.4
455.739	2301.51
456.112	2286.37
456.486	2296.08
456.859	2316.2
457.232	2366.36
457.606	2365.46
457.979	2453.82
458.352	2457.89
458.725	2499.02
459.099	2518.68
459.472	2557.77
459.845	2592.8
460.218	2571.33
460.591	2636.64
460.964	2650.42
461.337	2712.34
461.71	2712.57
462.083	2776.07
462.456	2792.12
462.829	2783.75
463.201	2852.45
463.574	2840.93
463.947	2886.8
464.32	2967.48
464.692	2973.58
465.065	2999.79
465.438	3033.47
465.81	3083.86
466.183	3082.5
466.555	3129.06
466.928	3177.42
467.3	3202.27
467.672	3222.39
468.045	3295.83
468.417	3270.97
468.789	3306.23
469.161	3347.81
469.534	3394.59
469.906	3471.87
470.278	3477.3
470.65	3543.51
471.022	3615.82
471.394	3607.46
471.766	3675.71
472.138	3705.54
472.51	3730.17
472.882	3844.07
473.253	3926.1
473.625	3938.3
473.997	4002.48
474.369	4065.75
474.74	4073.21
475.112	4160.22
475.484	4234.34
475.855	4273.43
476.227	4341
476.598	4466.65
476.97	4451.06
477.341	4552.97
477.713	4614.67
478.084	4671.16
478.455	4846.98
478.827	4834.77
479.198	4933.3
479.569	4971.95
479.94	5105.95
480.311	5231.6
480.682	5261.43
481.053	5378.94
481.424	5463.23
481.795	5574.19
482.166	5632.04
482.537	5691.47
482.908	5829.1
483.279	5917.91
483.65	5997.91
484.021	6114.97
484.391	6141.18
484.762	6246.49
485.133	6346.37
485.503	6475.18
485.874	6584.33
486.244	6711.11
486.615	6834.27
486.985	6910.88
487.356	6995.85
487.726	7099.57
488.097	7343.86
488.467	7337.53
488.837	7460.24
489.207	7591.54
489.578	7688.48
489.948	7855.49
490.318	7969.83
490.688	8056.61
491.058	8209.83
491.428	8346.55
491.798	8423.15
492.168	8568.01
492.538	8652.75
492.908	8776.59
493.278	8924.84
493.648	9001.67
494.017	9140.65
494.387	9188.78
494.757	9264.94
495.126	9471.49
495.496	9501.09
495.866	9661.09
496.235	9691.37
496.605	9871.25
496.974	9951.25
497.344	10069.21
497.713	10159.38
498.082	10272.82
498.452	10361.63
498.821	10501.97
499.19	10551.91
499.559	10599.59
499.928	10728.18
500.298	10784.9
500.667	10949.87
501.036	10974.95
501.405	11068.28
501.774	11171.56
502.143	11259.01
502.512	11377.65
502.88	11509.4
503.249	11501.04
503.618	11575.16
503.987	11723.18
504.356	11874.14
504.724	11871.65
505.093	11945.32
505.462	11999.11
505.83	12016.05
506.199	12199.1
506.567	12423.5
506.936	12384.18
507.304	12521.35
507.672	12643.38
508.041	12665.53
508.409	12743.27
508.777	12800.44
509.145	12918.4
509.514	13017.38
509.882	13048.34
510.25	13192.07
510.618	13271.61
510.986	13286.08
511.354	13363.82
511.722	13415.57
512.09	13575.11
512.458	13607.88
512.826	13727.87
513.193	13781.43
513.561	13848.77
513.929	13898.49
514.297	14078.82
514.664	14192.95
515.032	14232.94
515.4	14307.29
515.767	14402.43
516.135	14481.07
516.502	14434.3
516.869	14641.07
517.237	14623.9
517.604	14638.81
517.972	14942.98
518.339	14981.4
518.706	15051.91
519.073	15056.2
519.44	15177.78
519.808	15399.02
520.175	15370.54
520.542	15547.03
520.909	15660.03
521.276	15597.43
521.643	15852.56
522.009	15988.38
522.376	16074.93
522.743	16133.01
523.11	16295.49
523.477	16362.61
523.843	16534.35
524.21	16622.71
524.577	16850.5
524.943	16811.63
525.31	16883.04
525.676	17049.14
526.043	17156.48
526.409	17311.96
526.776	17518.06
527.142	17549.02
527.508	17643.93
527.874	17829.46
528.241	17901.55
528.607	17946.97
528.973	18147.87
529.339	18169.79
529.705	18290.01
530.071	18311.03
530.437	18476.45
530.803	18579.05
531.169	18744.46
531.535	18688.42
531.901	18786.27
532.267	18872.15
532.632	19025.59
532.998	19162.53
533.364	19161.85
533.73	19230.33
534.095	19255.86
534.461	19414.96
534.826	19463.09
535.192	19514.16
535.557	19656.53
535.923	19690.65
536.288	19717.77
536.653	19675.06
537.019	19688.17
537.384	19854.04
537.749	19913.47
538.114	19869.18
538.479	19926.81
538.845	19963.42
539.21	19980.36
539.575	20059.01
539.94	20041.61
540.305	20139.68
540.67	20137.65
541.034	20142.39
541.399	20114.15
541.764	20171.55
542.129	20283.86
542.494	20299
542.858	20349.17
543.223	20366.57
543.587	20473.68
543.952	20371.99
544.316	20422.16
544.681	20344.65
545.045	20461.03
545.41	20603.85
545.774	20559.56
546.138	20462.84
546.503	20614.47
546.867	20567.24
547.231	20596.85
547.595	20696.96
547.959	20828.7
548.324	20740.34
548.688	20788.03
549.052	20785.77
549.416	20770.17
549.779	20785.32
550.143	20847.69
550.507	20889.27
550.871	20981.02
551.235	20896.5
551.599	21116.83
551.962	21075.25
552.326	21014.01
552.689	21163.84
553.053	20950.28
553.417	21155.93
553.78	21146.66
554.143	21232.31
554.507	21298.07
554.87	21138.3
555.234	21327.45
555.597	21281.8
555.96	21412.42
556.323	21447.22
556.686	21502.36
557.05	21594.33
557.413	21585.29
557.776	21548.68
558.139	21742.13
558.502	21725.63
558.865	21860.54
559.228	21939.63
559.59	21893.76
559.953	22020.31
560.316	22223.92
560.679	22107.31
561.041	22304.6
561.404	22431.83
561.767	22593.63
562.129	22467.53
562.492	22660.75
562.854	22676.11
563.217	22744.36
563.579	22729.67
563.941	22926.05
564.304	22990.45
564.666	23193.84
565.028	23246.95
565.39	23311.58
565.753	23527.62
566.115	23531.01
566.477	23752.69
566.839	23800.38
567.201	23945.46
567.563	23865.91
567.925	24098
568.287	24220.25
568.648	24304.54
569.01	24473.81
569.372	24683.07
569.734	24657.3
570.095	24733.01
570.457	25028.59
570.819	25061.59
571.18	25122.15
571.542	25417.28
571.903	25522.37
572.265	25686.66
572.626	25766.88
572.987	25775.47
573.349	25952.86
573.71	26083.93
574.071	26217.71
574.432	26312.85
574.794	26502
575.155	26542
575.516	26603.24
575.877	26651.15
576.238	26795.1
576.599	26906.96
576.96	26944.48
577.32	27171.14
577.681	27298.82
578.042	27494.52
578.403	27441.64
578.763	27512.6
579.124	27544.91
579.485	27749.65
579.845	27924.34
580.206	27885.24
580.566	27887.28
580.927	28004.56
581.287	28106.7
581.648	28159.81
582.008	28270.09
582.368	28267.83
582.728	28248.17
583.089	28238
583.449	28379.47
583.809	28343.99
584.169	28462.85
584.529	28402.29
584.889	28651.32
585.249	28437.54
585.609	28444.32
585.969	28634.6
586.329	28480.25
586.688	28611.55
587.048	28669.18
587.408	28596.86
587.768	28669.4
588.127	28719.12
588.487	28552.57
588.846	28946.68
589.206	28508.05
589.565	28709.63
589.925	28805.67
590.284	28839.11
590.643	28859
591.003	28814.03
591.362	29004.31
591.721	28837.98
592.08	28963.41
592.44	29008.15
592.799	28932.45
593.158	29037.75
593.517	28938.32
593.876	29100.12
594.235	29058.77
594.593	29118.2
594.952	29118.88
595.311	29127.69
595.67	29022.39
596.029	29352.55
596.387	29407.01
596.746	29390.51
597.104	29286.79
597.463	29232.32
597.822	29407.46
598.18	29254.47
598.538	29270.29
598.897	29353
599.255	29230.97
599.613	29637.29
599.972	29356.62
600.33	29389.16
600.688	29355.03
601.046	29483.17
601.404	29649.49
601.762	29552.99
602.12	29531.53
602.478	29533.11
602.836	29664.4
603.194	29399.55
603.552	29624.4
603.91	29515.48
604.268	29751.86
604.625	29592.09
604.983	29732.2
605.341	29545.54
605.698	29773.33
606.056	30031.85
606.413	29850.84
606.771	29972.64
607.128	29978.29
607.485	29828.69
607.843	29860.33
608.2	29947.56
608.557	30048.12
608.914	30006.77
609.272	30242.24
609.629	30257.61
609.986	30324.5
610.343	30108.23
610.7	30425.97
611.057	30273.43
611.414	30195.24
611.771	30568.33
612.127	30596.36
612.484	30491.05
612.841	30606.3
613.198	30509.13
613.554	30494.89
613.911	30653.08
614.267	30667.32
614.624	30591.16
614.98	30656.02
615.337	30840.64
615.693	30877.03
616.05	30903.47
616.406	31069.56
616.762	30988.44
617.118	30917.03
617.475	30930.81
617.831	30984.37
618.187	31173.52
618.543	31064.14
618.899	31348.65
619.255	31263.01
619.611	31133.97
619.967	31362.89
620.323	31358.82
620.678	31265.94
621.034	31306.17
621.39	31347.07
621.746	31298.71
622.101	31719.72
622.457	31423.68
622.812	31550.46
623.168	31640.85
623.523	31503
623.879	31788.19
624.234	31390.01
624.589	31512.94
624.945	31518.59
625.3	31529.44
625.655	31578.25
626.01	31558.59
626.365	31451.25
626.72	31557.46
627.075	31599.49
627.43	31582.55
627.785	31511.13
628.14	31533.06
628.495	31501.87
628.85	31435.2
629.205	31391.59
629.559	31568.99
629.914	31477.01
630.269	31415.77
630.623	31322.44
630.978	31272.04
631.332	31425.26
631.687	31472.94
632.041	31384.81
632.396	31378.93
632.75	31251.71
633.104	31234.08
633.459	31137.36
633.813	31004.93
634.167	31124.03
634.521	31113.63
634.875	31041.99
635.229	31121.54
635.583	30929.46
635.937	30949.57
636.291	30968.78
636.645	30918.83
636.999	30747.54
637.352	30926.74
637.706	30652.4
638.06	30908.21
638.413	30713.87
638.767	30549.8
639.121	30724.94
639.474	30604.72
639.828	30596.81
640.181	30614.44
640.534	30552.06
640.888	30529.01
641.241	30305.74
641.594	30396.81
641.947	30405.18
642.301	30331.05
642.654	30310.94
643.007	30226.2
643.36	30288.12
643.713	30108.23
644.066	30381.9
644.419	30210.83
644.771	29830.95
645.124	29521.81
645.477	29663.05
645.83	29552.32
646.182	29542.15
646.535	29454.92
646.888	29541.92
647.24	29618.3
647.593	29658.75
647.945	29607
648.298	29479.1
648.65	29276.39
649.002	29076.62
649.355	28941.71
649.707	28884.09
650.059	28895.84
650.411	29331.08
650.763	29653.33
651.115	30027.56
651.467	29870.05
651.819	29985.75
652.171	29856.26
652.523	29889.03
652.875	29903.27
653.227	29788.92
653.578	29991.63
653.93	29882.48
654.282	29750.73
654.633	29841.35
654.985	29927.9
655.337	29928.58
655.688	29868.01
656.039	29880.67
656.391	29765.87
656.742	29846.55
657.094	29940.33
657.445	29960.22
657.796	29952.53
658.147	29785.08
658.498	29861.69
658.849	30060.1
659.2	29863.27
659.551	29876.38
659.902	29991.4
660.253	30003.6
660.604	30039.99
660.955	29865.75
661.306	30079.99
661.656	29991.4
662.007	29992.53
662.358	30140.78
662.708	30115.92
663.059	30017.84
663.409	29883.38
663.76	30125.86
664.11	30122.92
664.461	30196.82
664.811	30151.4
665.161	30202.47
665.511	30194.11
665.862	30070.72
666.212	30220.1
666.562	30158.63
666.912	30188.91
667.262	30146.2
667.612	30169.93
667.962	30201.79
668.312	30202.47
668.662	30338.96
669.011	30240.89
669.361	30157.95
669.711	30290.83
670.06	30040.89
670.41	30093.77
670.76	30085.86
671.109	30128.57
671.459	30060.1
671.808	30090.61
672.157	30188.68
672.507	29941.01
672.856	29893.32
673.205	29933.55
673.554	30032.76
673.904	29897.84
674.253	30243.37
674.602	29893.55
674.951	29630.51
675.3	29472.54
675.649	29998.86
675.998	29959.99
676.346	30099.42
676.695	30011.06
677.044	29851.52
677.393	29832.08
677.741	30021
678.09	29778.98
678.438	29784.17
678.787	29911.4
679.135	29860.56
679.484	29572.65
679.832	29647
680.181	29523.39
680.529	29503.5
680.877	29512.09
681.225	29395.71
681.573	29667.34
681.922	29580.79
682.27	29432.77
682.618	29430.74
682.966	29185.77
683.314	29144.42
683.661	29272.32
684.009	29063.06
684.357	29068.49
684.705	28956.4
685.053	28944.42
685.4	28705.11
685.748	28656.07
686.095	28681.15
686.443	28522.29
686.79	28450.42
687.138	28681.6
687.485	28555.51
687.832	28382.86
688.18	28384.21
688.527	28227.15
688.874	28177.44
689.221	28070.32
689.568	27958.46
689.915	27897.9
690.262	27807.28
690.609	27780.84
690.956	27595.08
691.303	27614.74
691.65	27508.98
691.997	27238.03
692.344	27197.8
692.69	27108.54
693.037	27182.43
693.383	26889.79
693.73	26918.71
694.077	26695.44
694.423	26684.37
694.769	26745.38
695.116	26597.82
695.462	26466.3
695.808	26301.55
696.155	26385.85
696.501	26081.67
696.847	26165.74
697.193	25854.33
697.539	25939.3
697.885	25749.7
698.231	25613.21
698.577	25679.65
698.923	25544.96
699.269	25387.91
699.614	25324.86
699.96	25108.59
700.306	25059.1
700.651	25001.7
700.997	24916.51
701.342	24902.72
701.688	24793.12
702.033	24666.57
702.379	24614.14
702.724	24567.81
703.069	24525.1
703.415	24205.79
703.76	24270.87
704.105	24192.68
704.45	24111.56
704.795	24013.25
705.14	23857.78
705.485	23753.6
705.83	23693.49
706.175	23758.57
706.52	23633.15
706.865	23595.41
707.209	23537.79
707.554	23466.6
707.899	23465.7
708.243	23295.53
708.588	23213.73
708.932	23121.98
709.277	23077.91
709.621	23020.28
709.966	22992.04
710.31	22923.34
710.654	22756.79
710.998	22796.34
711.342	22758.6
711.687	22615.55
712.031	22691.48
712.375	22594.98
712.719	22609
713.063	22561.09
713.407	22598.37
713.75	22527.42
714.094	22468.21
714.438	22419.17
714.782	22339.85
715.125	22296.01
715.469	22451.26
715.812	22267.76
716.156	22166.75
716.499	22192.51
716.843	22206.97
717.186	22091.5
717.53	22261.21
717.873	22245.16
718.216	22165.17
718.559	22049.01
718.902	21945.28
719.246	22104.83
719.589	21920.2
719.932	21851.95
720.275	21926.75
720.617	21985.96
720.96	21988.22
721.303	21985.96
721.646	21918.62
721.989	21926.75
722.331	21876.36
722.674	21873.65
723.016	21870.94
723.359	22000.42
723.701	21951.84
724.044	21904.61
724.386	21778.96
724.729	21939.41
725.071	22005.62
725.413	21983.25
725.755	21921.1
726.097	21863.93
726.439	21778.06
726.782	21783.48
727.124	21884.95
727.465	21935.34
727.807	21757.94
728.149	21815.57
728.491	21770.37
728.833	21889.01
729.175	21922.01
729.516	21824.84
729.858	21838.17
730.199	21915.45
730.541	21866.64
730.882	21885.63
731.224	21883.59
731.565	21948
731.906	21837.94
732.248	21909.13
732.589	21907.77
732.93	21848.79
733.271	21884.27
733.612	21973.76
733.953	22076.13
734.294	22012.18
734.635	21995.45
734.976	22172.85
735.317	22108.44
735.658	22184.37
735.999	22151.61
736.339	22229.8
736.68	22369.23
737.021	22314.09
737.361	22256.24
737.702	22291.94
738.042	22334.43
738.383	22503.69
738.723	22563.57
739.063	22466.63
739.404	22739.84
739.744	22628.2
740.084	22517.25
740.424	22683.57
740.764	22736
741.104	22967.86
741.444	22884.69
741.784	22951.59
742.124	23098.47
742.464	23108.87
742.804	23289.66
743.143	23251.24
743.483	23385.92
743.823	23438.13
744.162	23469.99
744.502	23740.49
744.841	23660.49
745.181	23861.84
745.52	23896.19
745.86	24111.56
746.199	24074.27
746.538	24266.13
746.877	24347.93
747.216	24543.86
747.556	24540.24
747.895	24784.53
748.234	24901.14
748.573	24987.24
748.911	25067.24
749.25	25332.09
749.589	25407.57
749.928	25594.23
750.267	25895.69
750.605	25906.99
750.944	26008.68
751.283	26242.57
751.621	26467.88
751.96	26420.2
752.298	26740.86
752.636	26816.79
752.975	26904.25
753.313	26967.3
753.651	27387.63
753.989	27305.14
754.327	27653.84
754.666	27575.64
755.004	27883.66
