Data from 18-5621_FLMS001491_005.txt Node
Date: Thu Apr 19 15:15:25 BST 2018
User: hsy
Spectrometer: FLMS00149
Trigger mode: 0
Integration Time (sec): 1.000000E-2
Scans to average: 10
Electric dark correction enabled: true
Nonlinearity correction enabled: false
Boxcar width: 0
XAxis mode: Wavelengths
Number of Pixels in Spectrum: 2048
>>>>>Begin Spectral Data<<<<<
341.393	-6.12
341.776	-6.12
342.16	-6.12
342.543	-58.77
342.927	-82.27
343.31	-59.45
343.693	-85.21
344.077	-63.06
344.46	-67.58
344.843	-30.52
345.226	-55.61
345.61	-30.75
345.993	-16.28
346.376	4.96
346.759	-5.44
347.142	16.03
347.525	45.63
347.908	53.77
348.291	79.31
348.674	98.97
349.057	115.24
349.44	110.27
349.823	141
350.206	161.79
350.588	206.76
350.971	235.46
351.354	261
351.737	266.19
352.119	271.62
352.502	282.46
352.884	300.77
353.267	301.22
353.65	335.8
354.032	325.4
354.414	306.42
354.797	350.49
355.179	345.51
355.562	365.17
355.944	337.38
356.326	373.54
356.709	369.47
357.091	367.21
357.473	393.42
357.855	371.95
358.238	356.81
358.62	377.6
359.002	385.96
359.384	378.06
359.766	380.09
360.148	373.31
360.53	368.56
360.912	359.75
361.294	366.08
361.676	374.21
362.057	364.95
362.439	367.43
362.821	376.47
363.203	364.72
363.584	362.01
363.966	384.38
364.348	380.77
364.729	358.17
365.111	369.69
365.493	356.81
365.874	356.81
366.256	355.23
366.637	348.23
367.019	377.6
367.4	363.14
367.781	345.51
368.163	370.6
368.544	346.42
368.925	361.33
369.306	364.95
369.688	348.23
370.069	355.23
370.45	344.84
370.831	369.92
371.212	374.89
371.593	344.38
371.974	368.11
372.355	368.34
372.736	379.18
373.117	379.64
373.498	355.23
373.879	370.37
374.26	384.83
374.641	359.52
375.021	375.34
375.402	393.87
375.783	399.07
376.163	395.68
376.544	372.86
376.925	395.68
377.305	395.68
377.686	403.59
378.066	397.49
378.447	429.35
378.827	413.99
379.208	417.38
379.588	395.91
379.968	421.44
380.349	396.13
380.729	411.73
381.109	442.23
381.489	421.67
381.87	414.21
382.25	412.63
382.63	423.93
383.01	427.55
383.39	420.54
383.77	420.09
384.15	416.25
384.53	441.78
384.91	433.42
385.29	413.08
385.67	439.97
386.049	444.04
386.429	451.73
386.809	454.66
387.189	467.54
387.568	447.66
387.948	449.01
388.328	450.6
388.707	440.43
389.087	458.5
389.466	477.94
389.846	470.93
390.225	498.5
390.605	488.56
390.984	482.01
391.363	480.43
391.743	496.24
392.122	519.75
392.501	496.02
392.881	497.83
393.26	520.65
393.639	514.55
394.018	517.71
394.397	501.67
394.776	515.23
395.155	523.81
395.534	516.81
395.913	536.69
396.292	529.69
396.671	545.96
397.05	540.76
397.429	547.54
397.808	532.85
398.186	552.29
398.565	552.29
398.944	551.84
399.323	565.85
399.701	569.69
400.08	573.76
400.458	571.27
400.837	586.64
401.215	577.15
401.594	584.6
401.972	600.87
402.351	571.95
402.729	602.68
403.107	623.7
403.486	615.56
403.864	600.65
404.242	607.88
404.62	628.9
404.999	640.87
405.377	645.17
405.755	613.76
406.133	660.99
406.511	648.1
406.889	665.73
407.267	680.87
407.645	675
408.023	686.97
408.401	675.67
408.779	689.46
409.156	698.72
409.534	716.8
409.912	709.57
410.29	711.38
410.667	731.72
411.045	757.71
411.422	744.83
411.8	748.89
412.178	766.07
412.555	766.75
412.933	769.23
413.31	816.01
413.687	808.1
414.065	809
414.442	816.69
414.819	823.47
415.197	840.42
415.574	832.28
415.951	845.16
416.328	862.56
416.705	858.27
417.082	866.63
417.46	885.61
417.837	895.1
418.214	882.22
418.591	891.49
418.967	893.3
419.344	894.43
419.721	899.17
420.098	919.51
420.475	920.19
420.852	929.23
421.228	950.7
421.605	940.98
421.982	966.74
422.358	979.62
422.735	989.34
423.111	1007.19
423.488	999.73
423.864	998.38
424.241	1025.72
424.617	1030.24
424.994	1032.28
425.37	1058.04
425.746	1051.94
426.123	1064.36
426.499	1059.39
426.875	1105.72
427.251	1113.4
427.627	1126.06
428.003	1136.45
428.379	1118.83
428.756	1165.38
429.132	1183.68
429.507	1202.44
429.883	1202.44
430.259	1210.58
430.635	1225.49
431.011	1247.64
431.387	1233.85
431.763	1283.57
432.138	1279.73
432.514	1281.08
432.89	1310.69
433.265	1342.1
433.641	1340.06
434.016	1337.13
434.392	1364.24
434.767	1404.02
435.143	1386.39
435.518	1418.71
435.894	1450.34
436.269	1471.81
436.644	1459.16
437.02	1471.36
437.395	1513.62
437.77	1497.57
438.145	1533.73
438.52	1503.68
438.895	1545.03
439.271	1549.1
439.646	1584.58
440.021	1591.81
440.395	1595.2
440.77	1608.53
441.145	1623.22
441.52	1642.2
441.895	1636.1
442.27	1667.74
442.645	1636.78
443.019	1653.73
443.394	1672.48
443.769	1698.02
444.143	1679.94
444.518	1706.38
444.892	1712.94
445.267	1729.66
445.641	1726.49
446.016	1757
446.39	1754.29
446.764	1765.59
447.139	1766.04
447.513	1807.17
447.887	1811.24
448.262	1834.06
448.636	1822.08
449.01	1874.06
449.384	1882.42
449.758	1862.31
450.132	1935.98
450.506	1895.98
450.88	1906.6
451.254	1914.74
451.628	1966.04
452.002	1939.82
452.376	2005.13
452.75	2006.03
453.123	2014.62
453.497	2072.02
453.871	2070.44
454.244	2111.12
454.618	2136.43
454.992	2139.14
455.365	2151.12
455.739	2230.21
456.112	2196.31
456.486	2271.11
456.859	2267.72
457.232	2356.76
457.606	2342.3
457.979	2342.3
458.352	2393.37
458.725	2457.1
459.099	2463.88
459.472	2481.95
459.845	2519.92
460.218	2545.46
460.591	2562.4
460.964	2574.38
461.337	2601.95
461.71	2668.16
462.083	2707.26
462.456	2719.46
462.829	2727.15
463.201	2816.86
463.574	2780.03
463.947	2813.47
464.32	2840.14
464.692	2877.65
465.065	2908.16
465.438	2958.33
465.81	3001.94
466.183	2999.46
466.555	3029.28
466.928	3078.1
467.3	3080.36
467.672	3136.85
468.045	3222.73
468.417	3190.41
468.789	3195.61
469.161	3281.26
469.534	3300.46
469.906	3352.44
470.278	3387.69
470.65	3411.65
471.022	3506.79
471.394	3524.86
471.766	3591.08
472.138	3598.76
472.51	3696.61
472.882	3700.45
473.253	3758.98
473.625	3791.52
473.997	3881.69
474.369	3913.78
474.74	3936.83
475.112	4001.69
475.484	4066.09
475.855	4151.06
476.227	4178.18
476.598	4270.16
476.97	4368.46
477.341	4440.55
477.713	4505.18
478.084	4544.27
478.455	4675.12
478.827	4664.04
479.198	4800.76
479.569	4854.55
479.94	4973.19
480.311	5009.57
480.682	5118.27
481.053	5252.96
481.424	5303.35
481.795	5407.98
482.166	5438.71
482.537	5560.97
482.908	5673.51
483.279	5738.14
483.65	5825.14
484.021	5951.69
484.391	6029.66
484.762	6115.98
485.133	6175.87
485.503	6248.41
485.874	6401.4
486.244	6522.07
486.615	6629.64
486.985	6714.39
487.356	6803.87
487.726	6894.49
488.097	7087.03
488.467	7081.61
488.837	7362.05
489.207	7413.35
489.578	7550.75
489.948	7633.01
490.318	7713
490.688	7830.97
491.058	8021.92
491.428	8112.31
491.798	8204.97
492.168	8413.32
492.538	8426.2
492.908	8545.3
493.278	8687.89
493.648	8645.41
494.017	8878.4
494.387	9021.9
494.757	9103.48
495.126	9210.59
495.496	9225.96
495.866	9426.86
496.235	9509.79
496.605	9607.87
496.974	9727.64
497.344	9857.58
497.713	9957.46
498.082	10011.93
498.452	10121.08
498.821	10220.51
499.19	10239.72
499.559	10435.87
499.928	10544.79
500.298	10580.27
500.667	10734.62
501.036	10746.14
501.405	10847.16
501.774	10908.85
502.143	11040.37
502.512	11085.57
502.88	11238.56
503.249	11233.81
503.618	11436.97
503.987	11473.58
504.356	11496.41
504.724	11623.41
505.093	11742.95
505.462	11805.33
505.83	11858.21
506.199	11971.42
506.567	12205.54
506.936	12233.11
507.304	12273.79
507.672	12418.19
508.041	12520.79
508.409	12568.69
508.777	12632.2
509.145	12841.68
509.514	12872.42
509.882	12914.9
510.25	12888.01
510.618	13034.22
510.986	13058.63
511.354	13188.11
511.722	13367.77
512.09	13494.09
512.458	13410.93
512.826	13533.19
513.193	13622
513.561	13747.87
513.929	13857.7
514.297	13835.55
514.664	13997.81
515.032	14075.55
515.4	14195.54
515.767	14186.28
516.135	14301.53
516.502	14296.56
516.869	14459.27
517.237	14537.68
517.604	14575.2
517.972	14720.5
518.339	14758.02
518.706	14856.77
519.073	15002.3
519.44	15009.99
519.808	15194.39
520.175	15222.18
520.542	15429.41
520.909	15484.1
521.276	15481.84
521.643	15690.87
522.009	15687.48
522.376	15909.62
522.743	15959.11
523.11	16056.74
523.477	16211.99
523.843	16271.42
524.21	16411.98
524.577	16620.57
524.943	16595.93
525.31	16704.18
525.676	16965.42
526.043	17035.24
526.409	17064.4
526.776	17273.88
527.142	17310.27
527.508	17465.74
527.874	17586.64
528.241	17696.7
528.607	17717.71
528.973	17855.56
529.339	17863.47
529.705	18045.61
530.071	18182.33
530.437	18246.29
530.803	18282.44
531.169	18453.96
531.535	18472.04
531.901	18573.28
532.267	18666.84
532.632	18868.87
532.998	18768.53
533.364	18920.17
533.73	18938.92
534.095	19136.43
534.461	19142.31
534.826	19209.88
535.192	19204.9
535.557	19402.64
535.923	19361.51
536.288	19432.92
536.653	19515.86
537.019	19528.29
537.384	19576.65
537.749	19576.87
538.114	19696.42
538.479	19548.62
538.845	19726.7
539.21	19643.54
539.575	19813.25
539.94	19807.83
540.305	19918.78
540.67	19776.42
541.034	19969.86
541.399	19923.53
541.764	20024.09
542.129	19962.17
542.494	20011.66
542.858	20072.68
543.223	20060.48
543.587	20154.26
543.952	20249.85
544.316	20122.39
544.681	20116.07
545.045	20285.33
545.41	20306.57
545.774	20285.33
546.138	20251.88
546.503	20313.35
546.867	20337.08
547.231	20336.4
547.595	20468.6
547.959	20372.78
548.324	20429.05
548.688	20487.13
549.052	20464.98
549.416	20482.61
549.779	20403.29
550.143	20467.02
550.507	20686.67
550.871	20613.68
551.235	20607.81
551.599	20826.1
551.962	20774.81
552.326	20797.86
552.689	20874.47
553.053	20734.36
553.417	20770.06
553.78	21024.97
554.143	20966.89
554.507	20958.3
554.87	21036.27
555.234	21165.31
555.597	20993.78
555.96	21168.47
556.323	21200.11
556.686	21038.3
557.05	21359.65
557.413	21367.56
557.776	21442.13
558.139	21381.57
558.502	21509.93
558.865	21399.2
559.228	21651.85
559.59	21743.14
559.953	21736.82
560.316	22028.33
560.679	22023.59
561.041	22051.84
561.404	22234.88
561.767	22327.76
562.129	22219.97
562.492	22416.12
562.854	22416.35
563.217	22461.09
563.579	22535.44
563.941	22633.97
564.304	22794.19
564.666	22959.83
565.028	23004.8
565.39	23032.15
565.753	23203.9
566.115	23233.73
566.477	23400.27
566.839	23459.93
567.201	23735.63
567.563	23727.5
567.925	23805.69
568.287	23985.57
568.648	24185.11
569.01	24309.63
569.372	24456.97
569.734	24476.86
570.095	24685.21
570.457	24863.74
570.819	24953.23
571.18	24946.67
571.542	25148.48
571.903	25265.76
572.265	25452.65
572.626	25439.99
572.987	25621.46
573.349	25834.79
573.71	25930.83
574.071	25979.42
574.432	26151.16
574.794	26316.13
575.155	26384.38
575.516	26424.83
575.877	26587.08
576.238	26616.91
576.599	26817.36
576.96	26847.87
577.32	26992.95
577.681	26944.81
578.042	27139.84
578.403	27285.82
578.763	27211.25
579.124	27393.16
579.485	27552.48
579.845	27636.77
580.206	27728.07
580.566	27723.78
580.927	27754.06
581.287	27807.16
581.648	27785.7
582.008	27995.41
582.368	27983.66
582.728	28222.52
583.089	28152.69
583.449	28081.96
583.809	28250.09
584.169	28255.51
584.529	28106.37
584.889	28376.41
585.249	28319.47
585.609	28128.74
585.969	28340.26
586.329	28319.92
586.688	28405.11
587.048	28392.91
587.408	28358.34
587.768	28363.53
588.127	28394.95
588.487	28331.22
588.846	28536.64
589.206	28324.44
589.565	28427.04
589.925	28562.17
590.284	28509.97
590.643	28542.51
591.003	28584.32
591.362	28690.3
591.721	28836.97
592.08	28707.93
592.44	28719.91
592.799	28839
593.158	28679.01
593.517	28693.02
593.876	28927.36
594.235	28762.85
594.593	28754.48
594.952	28835.84
595.311	28721.26
595.67	28743.86
596.029	28935.72
596.387	28998.32
596.746	28997.87
597.104	28780.47
597.463	28867.25
597.822	29032.44
598.18	28955.61
598.538	28884.65
598.897	29083.74
599.255	28994.25
599.613	29265.66
599.972	28907.25
600.33	29055.04
600.688	28979.56
601.046	29117.19
601.404	29351.53
601.762	29180.69
602.12	29303.17
602.478	29203.51
602.836	29344.3
603.194	29061.14
603.552	29133.23
603.91	29180.46
604.268	29207.58
604.625	29136.62
604.983	29285.09
605.341	29063.85
605.698	29447.8
606.056	29356.05
606.413	29300.91
606.771	29572.54
607.128	29436.05
607.485	29365.77
607.843	29384.98
608.2	29548.59
608.557	29674.01
608.914	29575.25
609.272	29724.18
609.629	29903.61
609.986	29810.73
610.343	29685.53
610.7	30026.09
611.057	29978.86
611.414	30043.04
611.771	29992.87
612.127	30041.46
612.484	30074.22
612.841	30109.93
613.198	30006.65
613.554	30104.05
613.911	30269.25
614.267	30153.77
614.624	30225.41
614.98	30350.6
615.337	30469.24
615.693	30388.57
616.05	30346.08
616.406	30532.29
616.762	30367.32
617.118	30449.35
617.475	30426.53
617.831	30568.9
618.187	30630.14
618.543	30614.1
618.899	30786.3
619.255	30687.77
619.611	30719.63
619.967	30898.16
620.323	30958.95
620.678	30748.78
621.034	30849.12
621.39	30799.85
621.746	30770.7
622.101	31080.75
622.457	30735
622.812	30979.28
623.168	31114.87
623.523	30897.48
623.879	31153.29
624.234	30886.86
624.589	30892.51
624.945	30968.66
625.3	31050.69
625.655	31039.4
626.01	30966.63
626.365	31074.2
626.72	31119.85
627.075	30903.58
627.43	30927.53
627.785	31004.37
628.14	31028.1
628.495	31096.12
628.85	31101.09
629.205	30931.83
629.559	31018.83
629.914	30880.98
630.269	31021.09
630.623	30744.04
630.978	30680.31
631.332	31004.37
631.687	30864.03
632.041	30838.05
632.396	30857.25
632.75	30824.94
633.104	30820.42
633.459	30534.55
633.813	30653.19
634.167	30526.41
634.521	30627.2
634.875	30497.72
635.229	30500.88
635.583	30323.26
635.937	30437.6
636.291	30299.53
636.645	30346.53
636.999	30201
637.352	30262.47
637.706	30143.6
638.06	30171.85
638.413	30063.15
638.767	30045.07
639.121	30121.45
639.474	30088.23
639.828	30061.79
640.181	30075.13
640.534	30051.17
640.888	29899.99
641.241	29856.15
641.594	29852.53
641.947	29929.59
642.301	29669.04
642.654	29788.81
643.007	29741.12
643.36	29708.13
643.713	29726.44
644.066	29809.82
644.419	29618.64
644.771	29219.56
645.124	29091.42
645.477	29008.26
645.83	28955.16
646.182	29073.35
646.535	28958.09
646.888	28937.08
647.24	28980.47
647.593	29159.67
647.945	28988.6
648.298	28857.76
648.65	28735.73
649.002	28580.93
649.355	28493.25
649.707	28325.12
650.059	28220.49
650.411	28738.89
650.763	28941.37
651.115	29422.94
651.467	29393.79
651.819	29356.73
652.171	29228.37
652.523	29165.77
652.875	29271.53
653.227	29108.37
653.578	29369.38
653.93	29290.29
654.282	29146.11
654.633	29130.75
654.985	29297.75
655.337	29255.49
655.688	29212.1
656.039	29341.59
656.391	29211.65
656.742	29087.36
657.094	29218.65
657.445	29313.57
657.796	29304.98
658.147	29210.97
658.498	29376.39
658.849	29451.87
659.2	29470.17
659.551	29301.59
659.902	29465.43
660.253	29301.81
660.604	29509.72
660.955	29309.05
661.306	29438.31
661.656	29355.15
662.007	29395.82
662.358	29357.18
662.708	29486.67
663.059	29383.39
663.409	29325.54
663.76	29320.57
664.11	29522.6
664.461	29515.37
664.811	29571.86
665.161	29580.23
665.511	29331.19
665.862	29496.39
666.212	29547.91
666.562	29608.47
666.912	29540
667.262	29423.84
667.612	29512.66
667.962	29532.32
668.312	29397.63
668.662	29679.88
669.011	29611.64
669.361	29515.82
669.711	29590.85
670.06	29572.09
670.41	29365.77
670.76	29530.96
671.109	29501.36
671.459	29428.36
671.808	29313.34
672.157	29392.43
672.507	29254.58
672.856	29271.98
673.205	29290.06
673.554	29330.97
673.904	29193.79
674.253	29441.47
674.602	29224.53
674.951	28913.12
675.3	28761.94
675.649	29292.1
675.998	29232.44
676.346	29160.12
676.695	29236.73
677.044	29048.26
677.393	29177.75
677.741	29187.02
678.09	29109.95
678.438	28873.35
678.787	29150.86
679.135	28974.59
679.484	28791.09
679.832	28991.99
680.181	28842.17
680.529	28898.21
680.877	28727.37
681.225	28699.57
681.573	28905.21
681.922	28702.28
682.27	28573.25
682.618	28582.51
682.966	28439.92
683.314	28557.43
683.661	28322.41
684.009	28298.68
684.357	28316.53
684.705	28154.27
685.053	28319.47
685.4	28032.47
685.748	28034.5
686.095	28005.58
686.443	27828.18
686.79	27733.49
687.138	27839.48
687.485	27851.91
687.832	27655.98
688.18	27728.3
688.527	27595.64
688.874	27385.93
689.221	27344.8
689.568	27327.63
689.915	27158.59
690.262	27179.16
690.609	27148.65
690.956	26996.11
691.303	27052.38
691.65	26709.79
691.997	26713.63
692.344	26533.75
692.69	26548.21
693.037	26496.92
693.383	26216.47
693.73	26225.74
694.077	26034.33
694.423	26165.4
694.769	26152.97
695.116	25880.44
695.462	25837.95
695.808	25780.78
696.155	25801.57
696.501	25568.58
696.847	25567.68
697.193	25294.01
697.539	25303.95
697.885	25095.37
698.231	25014.24
698.577	24976.05
698.923	24913.68
699.269	24617.87
699.614	24668.94
699.96	24503.3
700.306	24580.13
700.651	24387.14
700.997	24336.75
701.342	24277.77
701.688	24175.62
702.033	24033.48
702.379	24044.78
702.724	23884.1
703.069	23823.09
703.415	23671.68
703.76	23621.06
704.105	23482.98
704.45	23542.87
704.795	23340.62
705.14	23301.52
705.485	23272.37
705.83	23133.16
706.175	23201.18
706.52	23182.88
706.865	23032.37
707.209	22906.05
707.554	22793.28
707.899	22891.14
708.243	22661.08
708.588	22636.68
708.932	22533.86
709.277	22602.56
709.621	22523.91
709.966	22402.56
710.31	22315.56
710.654	22212.28
710.998	22136.35
711.342	22232.85
711.687	22163.02
712.031	22142.45
712.375	22048.22
712.719	21979.07
713.063	21968.67
713.407	21992.85
713.75	21904.72
714.094	21886.19
714.438	21870.82
714.782	21832.41
715.125	21727.1
715.469	21829.02
715.812	21543.15
716.156	21630.6
716.499	21650.49
716.843	21662.69
717.186	21499.99
717.53	21589.02
717.873	21690.94
718.216	21591.73
718.559	21547.67
718.902	21352.87
719.246	21427.45
719.589	21411.4
719.932	21415.47
720.275	21277.39
720.617	21504.51
720.96	21232.42
721.303	21389.25
721.646	21376.15
721.989	21183.38
722.331	21240.78
722.674	21215.02
723.016	21332.76
723.359	21242.14
723.701	21335.02
724.044	21205.98
724.386	21128.92
724.729	21311.74
725.071	21210.5
725.413	21204.4
725.755	21172.54
726.097	21095.93
726.439	21182.48
726.782	21239.65
727.124	21206.21
727.465	21194.91
727.807	21186.55
728.149	21166.21
728.491	21212.31
728.833	21285.3
729.175	21211.86
729.516	21172.31
729.858	21223.83
730.199	21252.76
730.541	21284.4
730.882	21267.9
731.224	21334.11
731.565	21264.51
731.906	21265.42
732.248	21264.06
732.589	21177.06
732.93	21266.55
733.271	21312.65
733.612	21398.75
733.953	21359.42
734.294	21357.62
734.635	21357.84
734.976	21552.41
735.317	21407.33
735.658	21451.63
735.999	21293.44
736.339	21455.69
736.68	21589.7
737.021	21571.85
737.361	21497.95
737.702	21746.76
738.042	21719.87
738.383	21667.21
738.723	21812.52
739.063	21751.96
739.404	21953.31
739.744	22065.62
740.084	21865.17
740.424	22135
740.764	22122.79
741.104	22279.63
741.444	22232.17
741.784	22241.21
742.124	22359.62
742.464	22328.66
742.804	22418.61
743.143	22508.32
743.483	22690.24
743.823	22656.34
744.162	22788.09
744.502	22864.7
744.841	22877.58
745.181	23096.33
745.52	23033.5
745.86	23200.28
746.199	23279.83
746.538	23387.62
746.877	23615.86
747.216	23634.84
747.556	23713.26
747.895	23917.32
748.234	23895.4
748.573	23990.09
748.911	24250.42
749.25	24292.45
749.589	24433.47
749.928	24733.8
750.267	24831.42
750.605	24898.54
750.944	25156.61
751.283	25248.36
751.621	25482.03
751.96	25485.64
752.298	25805.41
752.636	25947.1
752.975	26033.2
753.313	26263.93
753.651	26541.43
753.989	26463.47
754.327	26689.91
754.666	26816.46
