Data from 18-5621_FLMS001491_009.txt Node
Date: Thu Apr 19 15:15:38 BST 2018
User: hsy
Spectrometer: FLMS00149
Trigger mode: 0
Integration Time (sec): 1.000000E-2
Scans to average: 10
Electric dark correction enabled: true
Nonlinearity correction enabled: false
Boxcar width: 0
XAxis mode: Wavelengths
Number of Pixels in Spectrum: 2048
>>>>>Begin Spectral Data<<<<<
341.393	-21.47
341.776	-21.47
342.16	-21.47
342.543	-41.35
342.927	-79.77
343.31	-73.22
343.693	-58.98
344.077	-87.46
344.46	-46.78
344.843	-43.16
345.226	-45.87
345.61	-38.87
345.993	-14.46
346.376	-22.37
346.759	8.14
347.142	26.21
347.525	56.72
347.908	51.3
348.291	79.09
348.674	110.96
349.057	98.75
349.44	127.23
349.823	127.23
350.206	180.56
350.588	214.91
350.971	231.63
351.354	256.26
351.737	239.09
352.119	281.35
352.502	284.96
352.884	302.36
353.267	309.82
353.65	308.92
354.032	332.19
354.414	347.11
354.797	341.46
355.179	349.14
355.562	355.02
355.944	365.41
356.326	355.24
356.709	358.18
357.091	380.78
357.473	374.91
357.855	340.33
358.238	366.77
358.62	387.11
359.002	364.96
359.384	379.88
359.766	379.65
360.148	381.01
360.53	380.33
360.912	346.66
361.294	387.11
361.676	359.09
362.057	366.77
362.439	378.52
362.821	365.19
363.203	351.4
363.584	349.82
363.966	338.52
364.348	341.91
364.729	368.8
365.111	369.93
365.493	337.39
365.874	340.78
366.256	364.74
366.637	345.08
367.019	349.6
367.4	342.14
367.781	345.98
368.163	360.22
368.544	346.66
368.925	365.87
369.306	373.1
369.688	361.57
370.069	357.28
370.45	344.4
370.831	367.22
371.212	374.23
371.593	361.8
371.974	352.08
372.355	360.44
372.736	340.56
373.117	372.65
373.498	365.19
373.879	339.2
374.26	330.61
374.641	338.07
375.021	378.07
375.402	371.97
375.783	372.19
376.163	378.07
376.544	374.68
376.925	353.66
377.305	376.26
377.686	362.02
378.066	406.99
378.447	382.59
378.827	402.7
379.208	369.26
379.588	390.5
379.968	403.61
380.349	373.78
380.729	368.8
381.109	396.6
381.489	381.91
381.87	394.57
382.25	389.82
382.63	395.24
383.01	411.51
383.39	401.57
383.77	410.84
384.15	416.26
384.53	392.98
384.91	407.45
385.29	441.8
385.67	426.43
386.049	423.72
386.429	418.29
386.809	426.88
387.189	424.62
387.568	426.66
387.948	430.72
388.328	449.03
388.707	421.46
389.087	420.55
389.466	458.74
389.846	449.93
390.225	457.62
390.605	468.01
390.984	474.11
391.363	459.65
391.743	477.05
392.122	470.5
392.501	471.4
392.881	469.37
393.26	481.8
393.639	479.08
394.018	480.67
394.397	498.29
394.776	509.14
395.155	476.15
395.534	492.87
395.913	492.19
396.292	498.07
396.671	521.79
397.05	500.33
397.429	501.68
397.808	499.42
398.186	510.04
398.565	543.49
398.944	527.44
399.323	553.21
399.701	509.82
400.08	523.15
400.458	523.6
400.837	520.89
401.215	562.92
401.594	537.61
401.972	545.75
402.351	556.14
402.729	581.68
403.107	551.85
403.486	561.12
403.864	584.62
404.242	594.33
404.62	570.38
404.999	603.6
405.377	606.76
405.755	600.89
406.133	610.15
406.511	614.67
406.889	604.73
407.267	619.42
407.645	639.53
408.023	648.12
408.401	635.01
408.779	661.23
409.156	673.43
409.534	689.47
409.912	674.11
410.29	685.41
410.667	699.42
411.045	703.71
411.422	680.21
411.8	702.13
412.178	684.28
412.555	738.29
412.933	729.92
413.31	720.66
413.687	744.39
414.065	764.27
414.442	748.45
414.819	784.16
415.197	788.23
415.574	769.25
415.951	773.54
416.328	787.55
416.705	803.14
417.082	792.97
417.46	812.41
417.837	818.96
418.214	803.59
418.591	830.26
418.967	802.46
419.344	847.89
419.721	860.09
420.098	845.85
420.475	836.81
420.852	837.94
421.228	882.24
421.605	842.92
421.982	893.99
422.358	894.21
422.735	888.11
423.111	905.96
423.488	914.1
423.864	907.77
424.241	911.16
424.617	950.48
424.994	933.08
425.37	933.53
425.746	974.21
426.123	998.17
426.499	977.6
426.875	960.43
427.251	1006.98
427.627	1013.98
428.003	1043.36
428.379	1053.76
428.756	1041.78
429.132	1063.7
429.507	1044.49
429.883	1056.7
430.259	1088.11
430.635	1106.86
431.011	1079.52
431.387	1129.91
431.763	1151.38
432.138	1152.96
432.514	1162.91
432.89	1179.18
433.265	1217.82
433.641	1208.56
434.016	1234.77
434.392	1220.08
434.767	1265.05
435.143	1259.18
435.518	1249.23
435.894	1275.45
436.269	1318.38
436.644	1333.3
437.02	1342.79
437.395	1328.1
437.77	1333.3
438.145	1379.62
438.52	1372.85
438.895	1379.17
439.271	1406.52
439.646	1410.58
440.021	1433.63
440.395	1430.92
440.77	1413.07
441.145	1453.97
441.52	1477.48
441.895	1470.02
442.27	1484.03
442.645	1493.07
443.019	1491.26
443.394	1471.83
443.769	1551.15
444.143	1512.05
444.518	1536.91
444.892	1540.52
445.267	1564.03
445.641	1570.58
446.016	1564.03
446.39	1602.67
446.764	1597.47
447.139	1564.7
447.513	1589.11
447.887	1619.39
448.262	1656.91
448.636	1632.73
449.01	1675.44
449.384	1670.24
449.758	1671.14
450.132	1709.56
450.506	1721.54
450.88	1731.03
451.254	1724.47
451.628	1753.85
452.002	1758.15
452.376	1795.43
452.75	1787.75
453.123	1804.25
453.497	1839.27
453.871	1856.22
454.244	1893.06
454.618	1924.47
454.992	1926.28
455.365	1932.6
455.739	1954.07
456.112	1988.2
456.486	1986.61
456.859	2018.93
457.232	2050.34
457.606	2068.65
457.979	2126.72
458.352	2131.47
458.725	2144.12
459.099	2204.69
459.472	2217.12
459.845	2216.89
460.218	2254.63
460.591	2275.42
460.964	2293.5
461.337	2314.74
461.71	2336.89
462.083	2431.12
462.456	2418.02
462.829	2438.35
463.201	2449.43
463.574	2455.53
463.947	2512.93
464.32	2503.21
464.692	2558.58
465.065	2567.16
465.438	2604.23
465.81	2676.09
466.183	2640.83
466.555	2708.18
466.928	2719.25
467.3	2717.22
467.672	2770.55
468.045	2861.62
468.417	2864.11
468.789	2846.7
469.161	2901.62
469.534	2901.84
469.906	2950.66
470.278	3006.93
470.65	3033.59
471.022	3078.79
471.394	3103.2
471.766	3167.6
472.138	3191.1
472.51	3233.14
472.882	3331.21
473.253	3295.05
473.625	3346.8
473.997	3430.19
474.369	3447.37
474.74	3507.93
475.112	3543.41
475.484	3586.57
475.855	3683.74
476.227	3683.29
476.598	3800.35
476.97	3852.55
477.341	3923.06
477.713	3991.31
478.084	4024.98
478.455	4074.24
478.827	4150.85
479.198	4224.52
479.569	4260
479.94	4355.59
480.311	4412.09
480.682	4448.24
481.053	4574.57
481.424	4701.12
481.795	4751.97
482.166	4801.91
482.537	4872.87
482.908	4973.88
483.279	5069.25
483.65	5137.27
484.021	5234.44
484.391	5297.94
484.762	5416.13
485.133	5424.49
485.503	5534.32
485.874	5677.59
486.244	5683.47
486.615	5775.22
486.985	5931.82
487.356	6020.63
487.726	6068.77
488.097	6231.47
488.467	6296.11
488.837	6370
489.207	6538.59
489.578	6619.03
489.948	6716.89
490.318	6843.44
490.688	6839.37
491.058	6969.53
491.428	7146.03
491.798	7175.18
492.168	7365.23
492.538	7436.41
492.908	7512.8
493.278	7671.21
493.648	7722.51
494.017	7829.4
494.387	7960.24
494.757	8023.97
495.126	8112.78
495.496	8175.83
495.866	8268.26
496.235	8422.15
496.605	8566.55
496.974	8634.35
497.344	8706.66
497.713	8795.7
498.082	8879.31
498.452	9040.21
498.821	9121.57
499.19	9095.13
499.559	9206.09
499.928	9322.92
500.298	9436.59
500.667	9561.33
501.036	9491.05
501.405	9648.79
501.774	9734.21
502.143	9812.17
502.512	9880.87
502.88	10046.97
503.249	10002.22
503.618	10177.59
503.987	10225.27
504.356	10271.37
504.724	10298.49
505.093	10436.56
505.462	10526.73
505.83	10564.47
506.199	10749.32
506.567	10849.21
506.936	10797.68
507.304	11028.86
507.672	11069.77
508.041	11083.1
508.409	11246.26
508.777	11314.28
509.145	11342.75
509.514	11341.17
509.882	11498.45
510.25	11535.97
510.618	11726.7
510.986	11640.6
511.354	11780.03
511.722	11845.11
512.09	11946.8
512.458	11930.99
512.826	12179.57
513.193	12136.63
513.561	12243.52
513.929	12280.81
514.297	12441.93
514.664	12468.82
515.032	12545.43
515.4	12634.24
515.767	12735.26
516.135	12734.13
516.502	12694.58
516.869	12958.08
517.237	12920.79
517.604	12935.93
517.972	13127.79
518.339	13185.19
518.706	13248.69
519.073	13270.61
519.44	13387.9
519.808	13559.19
520.175	13527.33
520.542	13664.5
520.909	13823.14
521.276	13763.48
521.643	13934.55
522.009	14036.02
522.376	14047.09
522.743	14217.93
523.11	14358.49
523.477	14497.7
523.843	14485.04
524.21	14617.02
524.577	14693.85
524.943	14767.3
525.31	14825.15
525.676	14997.35
526.043	15104.69
526.409	15110.79
526.776	15270.78
527.142	15378.8
527.508	15421.52
527.874	15620.61
528.241	15565.92
528.607	15622.87
528.973	15827.61
529.339	15822.86
529.705	15993.25
530.071	16061.72
530.437	16168.16
530.803	16277.76
531.169	16362.51
531.535	16378.55
531.901	16376.74
532.267	16447.25
532.632	16610.41
532.998	16652.22
533.364	16631.88
533.73	16737.19
534.095	16911.19
534.461	16913.23
534.826	16917.75
535.192	16931.98
535.557	17157.06
535.923	17061.92
536.288	17140.57
536.653	17211.75
537.019	17205.2
537.384	17234.35
537.749	17347.79
538.114	17304.18
538.479	17319.54
538.845	17374.01
539.21	17416.94
539.575	17404.74
539.94	17455.13
540.305	17475.7
540.67	17447.9
541.034	17548.47
541.399	17515.92
541.764	17604.96
542.129	17563.15
542.494	17571.06
542.858	17723.83
543.223	17643.15
543.587	17670.5
543.952	17656.26
544.316	17816.93
544.681	17663.49
545.045	17807.22
545.41	17847.67
545.774	17785.52
546.138	17818.97
546.503	17836.82
546.867	17833.43
547.231	17988.23
547.595	18014.89
547.959	17936.25
548.324	18047.21
548.688	17929.47
549.052	17967.89
549.416	17930.6
549.779	17925.86
550.143	17980.09
550.507	18127.21
550.871	18088.34
551.235	17958.62
551.599	18184.61
551.962	18157.26
552.326	18170.82
552.689	18274.77
553.053	18099.19
553.417	18162.01
553.78	18346.41
554.143	18288.11
554.507	18346.41
554.87	18345.51
555.234	18518.84
555.597	18294.89
555.96	18450.59
556.323	18514.32
556.686	18502.34
557.05	18574.65
557.413	18664.14
557.776	18604.03
558.139	18721.99
558.502	18790.24
558.865	18714.54
559.228	18936
559.59	18935.77
559.953	18942.78
560.316	19161.08
560.679	19123.11
561.041	19237.01
561.404	19269.55
561.767	19415.53
562.129	19363.78
562.492	19507.96
562.854	19551.8
563.217	19455.76
563.579	19663.89
563.941	19773.49
564.304	19852.36
564.666	20014.16
565.028	20053.71
565.39	20079.47
565.753	20249.19
566.115	20348.62
566.477	20420.93
566.839	20454.6
567.201	20821.15
567.563	20618.44
567.925	20914.48
568.287	20957.87
568.648	21056.17
569.01	21276.5
569.372	21437.85
569.734	21403.96
570.095	21507.68
570.457	21761.69
570.819	21842.14
571.18	21777.96
571.542	22014.11
571.903	22095.69
572.265	22217.27
572.626	22396.47
572.987	22490.93
573.349	22493.42
573.71	22759.4
574.071	22898.38
574.432	22886.63
574.794	23162.33
575.155	23213.85
575.516	23125.04
575.877	23314.19
576.238	23286.62
576.599	23448.42
576.96	23505.6
577.32	23564.8
577.681	23798.7
578.042	23872.37
578.403	23818.13
578.763	23947.39
579.124	23944.46
579.485	24202.3
579.845	24306.93
580.206	24188.97
580.566	24280.72
580.927	24215.41
581.287	24318.68
581.648	24424.89
582.008	24426.48
582.368	24565
582.728	24543.08
583.089	24536.08
583.449	24621.27
583.809	24742.17
584.169	24626.92
584.529	24680.48
584.889	24950.3
585.249	24787.6
585.609	24680.26
585.969	24751.44
586.329	24708.95
586.688	24927.48
587.048	24766.35
587.408	24850.19
587.768	24774.04
588.127	24875.96
588.487	24867.14
588.846	25011.32
589.206	24825.79
589.565	24846.58
589.925	24914.83
590.284	24965.9
590.643	24921.83
591.003	24886.58
591.362	25196.63
591.721	24981.49
592.08	25134.93
592.44	25098.78
592.799	25089.96
593.158	25123.86
593.517	24895.62
593.876	25079.34
594.235	25056.74
594.593	25100.13
594.952	25089.28
595.311	25119.34
595.67	25149.62
596.029	25226
596.387	25259
596.746	25291.76
597.104	25180.58
597.463	25139.23
597.822	25448.37
598.18	25305.32
598.538	25235.49
598.897	25357.98
599.255	25265.78
599.613	25540.35
599.972	25291.99
600.33	25388.26
600.688	25314.81
601.046	25294.7
601.404	25518.88
601.762	25492.66
602.12	25525.66
602.478	25661.25
602.836	25523.62
603.194	25485.43
603.552	25591.19
603.91	25423.06
604.268	25507.35
604.625	25433.91
604.983	25666.22
605.341	25480.23
605.698	25728.14
606.056	25773.56
606.413	25691.3
606.771	25817.85
607.128	25793.22
607.485	25652.21
607.843	25715.26
608.2	25730.62
608.557	25843.61
608.914	25854.91
609.272	25994.57
609.629	25955.48
609.986	26081.8
610.343	25997.73
610.7	26114.57
611.057	26098.07
611.414	25929.94
611.771	26252.87
612.127	26203.6
612.484	26180.78
612.841	26287.9
613.198	26055.59
613.554	26172.65
613.911	26363.15
614.267	26278.41
614.624	26318.4
614.98	26483.82
615.337	26565.63
615.693	26520.21
616.05	26583.26
616.406	26721.56
616.762	26589.81
617.118	26458.29
617.475	26520.43
617.831	26630.49
618.187	26658.06
618.543	26743.03
618.899	26828
619.255	26778.28
619.611	26888.56
619.967	26951.16
620.323	26929.24
620.678	26756.81
621.034	26941.66
621.39	26860.08
621.746	26752.74
622.101	27274.54
622.457	26946.64
622.812	27025.5
623.168	27050.59
623.523	27094.88
623.879	27112.73
624.234	26956.81
624.589	27094.65
624.945	27103.02
625.3	27094.2
625.655	27134.43
626.01	27147.08
626.365	27170.81
626.72	27107.76
627.075	27021.89
627.43	27055.33
627.785	26986.41
628.14	27031.83
628.495	27130.59
628.85	27119.96
629.205	27010.14
629.559	27072.06
629.914	27008.1
630.269	26880.65
630.623	26900.54
630.978	26772.63
631.332	26934.66
631.687	27022.79
632.041	26747.77
632.396	26818.28
632.75	26817.37
633.104	26826.19
633.459	26640.88
633.813	26655.12
634.167	26585.97
634.521	26664.84
634.875	26762.91
635.229	26653.76
635.583	26477.5
635.937	26549.58
636.291	26463.03
636.645	26545.29
636.999	26418.51
637.352	26444.5
637.706	26260.55
638.06	26454.45
638.413	26308.01
638.767	26176.26
639.121	26328.8
639.474	26253.77
639.828	26079.54
640.181	26124.06
640.534	26069.82
640.888	25976.27
641.241	25924.29
641.594	25886.55
641.947	26038.19
642.301	25910.05
642.654	25845.2
643.007	25918.64
643.36	25967.23
643.713	25717.52
644.066	25919.54
644.419	25727.01
644.771	25532.21
645.124	25153.91
645.477	25296.28
645.83	25254.93
646.182	25308.49
646.535	25217.42
646.888	25332.44
647.24	25229.39
647.593	25324.31
647.945	25327.92
648.298	25058.55
648.65	25022.17
649.002	24844.77
649.355	24749.18
649.707	24582.18
650.059	24667.83
650.411	24963.41
650.763	25118.89
651.115	25720
651.467	25462.83
651.819	25434.13
652.171	25532.89
652.523	25488.37
652.875	25577.86
653.227	25386.68
653.578	25623.28
653.93	25592.32
654.282	25452.44
654.633	25451.99
654.985	25483.85
655.337	25505.77
655.688	25461.25
656.039	25543.06
656.391	25228.72
656.742	25388.48
657.094	25409.05
657.445	25461.93
657.796	25572.21
658.147	25474.36
658.498	25450.18
658.849	25557.07
659.2	25514.58
659.551	25377.41
659.902	25776.72
660.253	25554.58
660.604	25715.26
660.955	25513.91
661.306	25678.87
661.656	25585.99
662.007	25644.52
662.358	25612.66
662.708	25631.19
663.059	25622.15
663.409	25612.43
663.76	25818.3
664.11	25841.35
664.461	25855.82
664.811	25842.48
665.161	25847.23
665.511	25677.52
665.862	25704.18
666.212	25834.57
666.562	25847.91
666.912	25729.72
667.262	25651.98
667.612	25665.99
667.962	25916.61
668.312	25833.9
668.662	25927
669.011	25752.32
669.361	25779.89
669.711	25862.14
670.06	25845.2
670.41	25766.78
670.76	25772.88
671.109	25865.53
671.459	25712.09
671.808	25818.3
672.157	25893.1
672.507	25583.96
672.856	25622.6
673.205	25640.46
673.554	25704.41
673.904	25473
674.253	25804.29
674.602	25600.68
674.951	25368.15
675.3	25140.58
675.649	25642.72
675.998	25720.91
676.346	25577.63
676.695	25660.34
677.044	25482.72
677.393	25436.62
677.741	25500.8
678.09	25433.68
678.438	25258.09
678.787	25370.86
679.135	25426.9
679.484	25257.19
679.832	25256.06
680.181	25101.26
680.529	25247.92
680.877	25167.47
681.225	25063.75
681.573	25236.17
681.922	25046.57
682.27	25003.64
682.618	24985.33
682.966	24867.59
683.314	25017.87
683.661	24894.26
684.009	24773.81
684.357	24656.75
684.705	24739.91
685.053	24671.22
685.4	24587.6
685.748	24535.4
686.095	24464.22
686.443	24266.48
686.79	24299.7
687.138	24190.78
687.485	24370.21
687.832	24201.4
688.18	24126.82
688.527	23991.46
688.874	23976.09
689.221	23980.61
689.568	23842.99
689.915	23799.37
690.262	23699.94
690.609	23708.98
690.956	23601.64
691.303	23494.52
691.65	23321.87
691.997	23345.15
692.344	23219.28
692.69	23130.47
693.037	23247.98
693.383	23075.1
693.73	23041.88
694.077	22804.82
694.423	22787.65
694.769	22729.57
695.116	22580.65
695.462	22563.02
695.808	22448.22
696.155	22480.99
696.501	22249.36
696.847	22251.62
697.193	22126.42
697.539	22152.86
697.885	21872.19
698.231	21867
698.577	21916.26
698.923	21760.33
699.269	21534.35
699.614	21520.79
699.96	21464.52
700.306	21417.29
700.651	21373.22
700.997	21182.49
701.342	21233.11
701.688	21123.51
702.033	21071.76
702.379	21063.63
702.724	20880.58
703.069	20780.7
703.415	20681.94
703.76	20561.72
704.105	20571.89
704.45	20513.58
704.795	20505.68
705.14	20310.88
705.485	20305.45
705.83	20267.72
706.175	20297.77
706.52	20098
706.865	20116.31
707.209	20006.03
707.554	19959.25
707.899	19881.74
708.243	19760.84
708.588	19905.24
708.932	19657.34
709.277	19706.6
709.621	19674.74
709.966	19516.1
710.31	19555.64
710.654	19376.89
710.998	19382.54
711.342	19381.19
711.687	19370.11
712.031	19321.53
712.375	19138.71
712.719	19084.7
713.063	19075.66
713.407	19203.11
713.75	19037.47
714.094	19078.59
714.438	18909.11
714.782	19039.5
715.125	18849.9
715.469	19137.35
715.812	18828.88
716.156	18787.3
716.499	18862.78
716.843	18836.79
717.186	18761.31
717.53	18803.12
717.873	18762.22
718.216	18764.03
718.559	18744.37
718.902	18611.26
719.246	18627.98
719.589	18613.07
719.932	18592.96
720.275	18674.31
720.617	18627.98
720.96	18514.32
721.303	18650.36
721.646	18586.18
721.989	18490.81
722.331	18563.13
722.674	18506.41
723.016	18489.23
723.359	18473.86
723.701	18642.67
724.044	18509.8
724.386	18444.71
724.729	18484.49
725.071	18551.15
725.413	18502.34
725.755	18510.47
726.097	18380.31
726.439	18415.56
726.782	18388.44
727.124	18519.29
727.465	18418.95
727.807	18375.11
728.149	18449.46
728.491	18393.87
728.833	18447.2
729.175	18461.44
729.516	18390.7
729.858	18463.47
730.199	18541.43
730.541	18495.33
730.882	18510.7
731.224	18414.43
731.565	18400.87
731.906	18511.15
732.248	18524.94
732.589	18493.53
732.93	18548.66
733.271	18524.26
733.612	18563.35
733.953	18609.91
734.294	18642.9
734.635	18619.17
734.976	18767.42
735.317	18671.15
735.658	18671.15
735.999	18734.87
736.339	18735.33
736.68	18790.47
737.021	18747.3
737.361	18733.29
737.702	18926.28
738.042	18953.17
738.383	19049.44
738.723	19052.83
739.063	19124.24
739.404	19147.75
739.744	19095.09
740.084	19146.39
740.424	19216.44
740.764	19267.29
741.104	19415.99
741.444	19315.65
741.784	19390.22
742.124	19528.07
742.464	19615.76
742.804	19675.41
743.143	19766.03
743.483	19851.91
743.823	19794.96
744.162	19935.07
744.502	20100.71
744.841	20089.42
745.181	20296.87
745.52	20277.43
745.86	20554.94
746.199	20478.78
746.538	20606.01
746.877	20769.17
747.216	20940.01
747.556	20933.91
747.895	21200.57
748.234	21213.23
748.573	21332.32
748.911	21505.88
749.25	21659.32
749.589	21762.37
749.928	21927.79
750.267	22205.29
750.605	22191.96
750.944	22458.17
751.283	22483.48
751.621	22788.33
751.96	22740.64
752.298	23024.48
752.636	23210.24
752.975	23239.84
753.313	23377.24
753.651	23758.47
753.989	23848.64
754.327	24018.58
754.666	24042.76
755.004	24397.1
755.342	24556.19
