Data from 18-5621_FLMS001491_006.txt Node
Date: Thu Apr 19 15:15:28 BST 2018
User: hsy
Spectrometer: FLMS00149
Trigger mode: 0
Integration Time (sec): 1.000000E-2
Scans to average: 10
Electric dark correction enabled: true
Nonlinearity correction enabled: false
Boxcar width: 0
XAxis mode: Wavelengths
Number of Pixels in Spectrum: 2048
>>>>>Begin Spectral Data<<<<<
341.393	-25.31
341.776	-25.31
342.16	-25.31
342.543	-70.96
342.927	-73.9
343.31	-79.09
343.693	-68.47
344.077	-71.86
344.46	-68.25
344.843	-52.2
345.226	-31.41
345.61	-26.89
345.993	-10.4
346.376	-3.84
346.759	19.66
347.142	15.37
347.525	61.47
347.908	52.43
348.291	60.11
348.674	100.34
349.057	103.05
349.44	109.15
349.823	137.85
350.206	158.41
350.588	209.94
350.971	258.52
351.354	281.57
351.737	258.52
352.119	281.8
352.502	289.94
352.884	299.2
353.267	297.85
353.65	329.71
354.032	306.21
354.414	333.78
354.797	346.21
355.179	352.99
355.562	342.59
355.944	350.05
356.326	364.96
356.709	365.64
357.091	360.22
357.473	359.76
357.855	386.66
358.238	366.09
358.62	383.49
359.002	384.17
359.384	381.46
359.766	381.23
360.148	397.5
360.53	374.91
360.912	376.26
361.294	369.71
361.676	370.84
362.057	401.8
362.439	374.45
362.821	364.51
363.203	382.59
363.584	364.96
363.966	364.51
364.348	364.96
364.729	345.53
365.111	356.6
365.493	367.22
365.874	367.22
366.256	350.05
366.637	390.5
367.019	364.96
367.4	343.27
367.781	357.05
368.163	362.48
368.544	336.49
368.925	370.39
369.306	344.85
369.688	367.22
370.069	369.71
370.45	363.15
370.831	369.93
371.212	363.83
371.593	369.48
371.974	365.19
372.355	378.75
372.736	385.07
373.117	374.68
373.498	382.14
373.879	351.18
374.26	366.09
374.641	363.61
375.021	363.15
375.402	365.64
375.783	394.57
376.163	397.73
376.544	388.46
376.925	381.01
377.305	389.37
377.686	410.84
378.066	381.46
378.447	393.44
378.827	413.32
379.208	406.77
379.588	394.57
379.968	398.63
380.349	423.72
380.729	418.97
381.109	423.72
381.489	399.99
381.87	416.03
382.25	421.23
382.63	429.37
383.01	412.19
383.39	421.01
383.77	428.01
384.15	440.44
384.53	435.92
384.91	452.64
385.29	437.05
385.67	442.25
386.049	453.55
386.429	428.46
386.809	467.78
387.189	422.81
387.568	480.89
387.948	472.08
388.328	454.45
388.707	457.62
389.087	468.24
389.466	482.47
389.846	464.39
390.225	480.21
390.605	478.86
390.984	462.36
391.363	482.02
391.743	502.81
392.122	498.52
392.501	486.54
392.881	506.65
393.26	514.56
393.639	502.36
394.018	483.15
394.397	523.83
394.776	513.88
395.155	531.74
395.534	524.73
395.913	540.1
396.292	519.99
396.671	522.02
397.05	530.83
397.429	533.09
397.808	539.19
398.186	547.78
398.565	569.25
398.944	560.44
399.323	554.79
399.701	575.35
400.08	545.07
400.458	574.9
400.837	589.81
401.215	587.33
401.594	559.76
401.972	616.48
402.351	580.32
402.729	597.72
403.107	612.64
403.486	609.02
403.864	590.27
404.242	607.89
404.62	630.04
404.999	619.64
405.377	620.77
405.755	629.14
406.133	632.3
406.511	614
406.889	650.38
407.267	685.63
407.645	678.17
408.023	668.23
408.401	671.17
408.779	701.22
409.156	698.74
409.534	685.86
409.912	716.59
410.29	710.49
410.667	695.8
411.045	735.35
411.422	753.65
411.8	752.75
412.178	762.24
412.555	753.2
412.933	792.52
413.31	778.74
413.687	794.33
414.065	783.26
414.442	810.83
414.819	823.48
415.197	849.7
415.574	844.72
415.951	836.14
416.328	852.18
416.705	856.93
417.082	860.99
417.46	875.68
417.837	869.81
418.214	860.99
418.591	887.66
418.967	903.93
419.344	913.65
419.721	920.43
420.098	917.49
420.475	937.15
420.852	938.73
421.228	934.21
421.605	965.17
421.982	961.33
422.358	978.73
422.735	974.44
423.111	991.39
423.488	1008.34
423.864	988
424.241	1016.92
424.617	1009.46
424.994	1015.11
425.37	1058.05
425.746	1041.78
426.123	1047.88
426.499	1082.01
426.875	1075
427.251	1088.56
427.627	1108.9
428.003	1102.57
428.379	1103.25
428.756	1118.61
429.132	1167.2
429.507	1167.88
429.883	1172.4
430.259	1196.35
430.635	1217.37
431.011	1205.17
431.387	1211.04
431.763	1254.43
432.138	1264.15
432.514	1286.07
432.89	1291.04
433.265	1322.45
433.641	1344.6
434.016	1323.58
434.392	1346.18
434.767	1351.83
435.143	1360.19
435.518	1410.13
435.894	1432.05
436.269	1421.43
436.644	1472.28
437.02	1449.23
437.395	1453.52
437.77	1488.32
438.145	1518.15
438.52	1500.3
438.895	1508.43
439.271	1559.96
439.646	1549.56
440.021	1570.58
440.395	1587.08
440.77	1590.47
441.145	1615.78
441.52	1610.81
441.895	1645.83
442.27	1621.65
442.645	1623.69
443.019	1657.36
443.394	1642.44
443.769	1683.8
444.143	1663.01
444.518	1709.56
444.892	1699.62
445.267	1724.25
445.641	1715.66
446.016	1743.01
446.39	1751.14
446.764	1738.94
447.139	1746.17
447.513	1759.28
447.887	1794.3
448.262	1798.14
448.636	1798.82
449.01	1830.23
449.384	1828.65
449.758	1846.96
450.132	1875.43
450.506	1883.79
450.88	1874.53
451.254	1903.45
451.628	1904.13
452.002	1952.49
452.376	1974.41
452.75	2003.34
453.123	1990.46
453.497	2034.52
453.871	2044.92
454.244	2078.59
454.618	2101.87
454.992	2121.75
455.365	2130.57
455.739	2185.71
456.112	2170.56
456.486	2221.41
456.859	2241.97
457.232	2289.88
457.606	2317.45
457.979	2311.13
458.352	2379.15
458.725	2421.63
459.099	2412.14
459.472	2406.72
459.845	2464.12
460.218	2503.66
460.591	2559.03
460.964	2566.94
461.337	2612.36
461.71	2627.73
462.083	2656.65
462.456	2675.64
462.829	2673.38
463.201	2717.22
463.574	2728.97
463.947	2771.23
464.32	2832.02
464.692	2813.94
465.065	2872.92
465.438	2904.33
465.81	2950.2
466.183	2983.88
466.555	2984.1
466.928	3043.31
467.3	3020.71
467.672	3078.34
468.045	3130.31
468.417	3149.07
468.789	3149.75
469.161	3215.96
469.534	3276.98
469.906	3346.8
470.278	3345.22
470.65	3396.07
471.022	3399.68
471.394	3490.08
471.766	3521.26
472.138	3577.99
472.51	3617.53
472.882	3693.46
473.253	3710.64
473.625	3718.32
473.997	3826.57
474.369	3842.84
474.74	3893
475.112	3969.61
475.484	4014.13
475.855	4048.93
476.227	4142.49
476.598	4238.53
476.97	4267.46
477.341	4392.88
477.713	4442.82
478.084	4504.29
478.455	4610.5
478.827	4644.17
479.198	4752.87
479.569	4748.58
479.94	4925.52
480.311	4915.8
480.682	5063.37
481.053	5185.85
481.424	5286.41
481.795	5330.93
482.166	5387.2
482.537	5466.75
482.908	5575.22
483.279	5649.79
483.65	5743.13
484.021	5918.04
484.391	5972.05
484.762	6094.08
485.133	6122.1
485.503	6178.82
485.874	6338.82
486.244	6380.4
486.615	6555.08
486.985	6579.04
487.356	6760.05
487.726	6834.4
488.097	7022.41
488.467	7053.6
488.837	7170.21
489.207	7277.1
489.578	7419.01
489.948	7561.38
490.318	7666.01
490.688	7707.82
491.058	7927.25
491.428	7992.56
491.798	8105.78
492.168	8241.82
492.538	8314.81
492.908	8491.3
493.278	8571.3
493.648	8607.46
494.017	8795.47
494.387	8854.68
494.757	8981.23
495.126	9060.78
495.496	9136.93
495.866	9260.77
496.235	9386.42
496.605	9519.52
496.974	9578.96
497.344	9678.62
497.713	9811.04
498.082	9896.01
498.452	9980.53
498.821	10097.81
499.19	10107.53
499.559	10179.85
499.928	10342.1
500.298	10383
500.667	10535.77
501.036	10616.22
501.405	10723.79
501.774	10798.59
502.143	10840.39
502.512	10965.59
502.88	11061.4
503.249	11127.39
503.618	11160.61
503.987	11218.01
504.356	11371.23
504.724	11461.17
505.093	11516.53
505.462	11596.31
505.83	11722.63
506.199	11771.22
506.567	11980.25
506.936	11904.09
507.304	12104.54
507.672	12152.45
508.041	12176.18
508.409	12276.97
508.777	12448.71
509.145	12585.21
509.514	12449.84
509.882	12636.73
510.25	12725.54
510.618	12829.95
510.986	12767.8
511.354	12940.22
511.722	13073.33
512.09	13119.88
512.458	13214.34
512.826	13264.74
513.193	13324.17
513.561	13361
513.929	13419.53
514.297	13593.99
514.664	13716.48
515.032	13818.62
515.4	13766.64
515.767	13976.58
516.135	14064.71
516.502	13953.31
516.869	14087.09
517.237	14294.77
517.604	14182
517.972	14485.04
518.339	14501.54
518.706	14510.8
519.073	14607.53
519.44	14652.72
519.808	14799.38
520.175	14706.96
520.542	15002.77
520.909	15085.03
521.276	15140.84
521.643	15264.46
522.009	15432.59
522.376	15524.11
522.743	15612.02
523.11	15738.34
523.477	15859.47
523.843	15991.22
524.21	16139.91
524.577	16211.1
524.943	16305.33
525.31	16320.93
525.676	16475.95
526.043	16681.82
526.409	16615.38
526.776	16854.92
527.142	16908.03
527.508	16991.87
527.874	17237.29
528.241	17341.92
528.607	17317.74
528.973	17492.42
529.339	17453.55
529.705	17572.42
530.071	17768.12
530.437	17816.03
530.803	17944.84
531.169	17959.98
531.535	18023.93
531.901	18051.05
532.267	18118.62
532.632	18324.49
532.998	18306.86
533.364	18408.33
533.73	18450.59
534.095	18521.55
534.461	18617.59
534.826	18691.71
535.192	18724.25
535.557	18924.25
535.923	18954.53
536.288	18863.68
536.653	18973.96
537.019	18917.69
537.384	18971.7
537.749	19022.55
538.114	19079.72
538.479	19148.88
538.845	19253.73
539.21	19151.81
539.575	19227.52
539.94	19191.36
540.305	19421.86
540.67	19357.23
541.034	19340.96
541.399	19404.24
541.764	19356.78
542.129	19510.45
542.494	19589.99
542.858	19518.36
543.223	19611.46
543.587	19706.37
543.952	19661.18
544.316	19726.71
544.681	19662.31
545.045	19779.59
545.41	19820.95
545.774	19713.61
546.138	19754.28
546.503	19761.29
546.867	19819.37
547.231	19945.92
547.595	19881.06
547.959	19886.03
548.324	19936.88
548.688	19964.22
549.052	20027.95
549.416	19860.72
549.779	20066.82
550.143	19941.62
550.507	20159.47
550.871	20062.52
551.235	20041.73
551.599	20243.76
551.962	20244.89
552.326	20240.37
552.689	20270.43
553.053	20207.38
553.417	20340.93
553.78	20472
554.143	20424.77
554.507	20498.9
554.87	20569.4
555.234	20696.4
555.597	20526.47
555.96	20623.41
556.323	20705.44
556.686	20701.38
557.05	20788.15
557.413	20785.22
557.776	20779.11
558.139	20926
558.502	21026.79
558.865	21041.93
559.228	21055.49
559.59	21113.8
559.953	21067.69
560.316	21323.06
560.679	21343.62
561.041	21617.06
561.404	21614.57
561.767	21631.52
562.129	21667.23
562.492	21850.5
562.854	21855.47
563.217	21951.97
563.579	21903.6
563.941	22102.7
564.304	22210.94
564.666	22373.2
565.028	22323.71
565.39	22470.6
565.753	22692.28
566.115	22653.87
566.477	22830.81
566.839	22829
567.201	23080.3
567.563	23028.77
567.925	23329.1
568.287	23271.25
568.648	23313.96
569.01	23511.02
569.372	23765.25
569.734	23790.56
570.095	23816.32
570.457	24025.58
570.819	24168.18
571.18	24059.48
571.542	24333.6
571.903	24352.35
572.265	24515.06
572.626	24647.94
572.987	24656.07
573.349	24810.42
573.71	25043.41
574.071	25068.04
574.432	25283.4
574.794	25464.42
575.155	25444.98
575.516	25422.16
575.877	25607.69
576.238	25554.36
576.599	25753
576.96	25884.74
577.32	25948.7
577.681	25892.88
578.042	26170.39
578.403	26125.87
578.763	26301
579.124	26319.76
579.485	26515.24
579.845	26552.3
580.206	26564.27
580.566	26528.79
580.927	26538.96
581.287	26773.31
581.648	26720.65
582.008	26831.16
582.368	26809.01
582.728	27002.91
583.089	26835
583.449	26947.99
583.809	27027.09
584.169	27080.87
584.529	26989.57
584.889	27100.3
585.249	27057.59
585.609	26963.58
585.969	27199.28
586.329	27077.71
586.688	27303.24
587.048	27176.91
587.408	27128.1
587.768	27157.7
588.127	27065.5
588.487	27182.11
588.846	27401.99
589.206	27146.18
589.565	27178.72
589.925	27419.17
590.284	27297.36
590.643	27320.19
591.003	27387.98
591.362	27431.82
591.721	27435.44
592.08	27423.46
592.44	27585.26
592.799	27497.58
593.158	27442.67
593.517	27325.61
593.876	27587.07
594.235	27518.6
594.593	27427.3
594.952	27397.92
595.311	27425.04
595.67	27536.45
596.029	27566.05
596.387	27671.36
596.746	27693.51
597.104	27519.95
597.463	27656
597.822	27834.75
598.18	27597.24
598.538	27581.65
598.897	27804.47
599.255	27634.75
599.613	27816.22
599.972	27855.76
600.33	27764.47
600.688	27714.3
601.046	27834.97
601.404	28084.01
601.762	27923.33
602.12	28067.06
602.478	27960.85
602.836	28056.44
603.194	27824.35
603.552	28038.36
603.91	27806.73
604.268	28026.38
604.625	27930.79
604.983	28179.15
605.341	27941.41
605.698	28149.54
606.056	28262.31
606.413	28156.32
606.771	28294.4
607.128	28165.14
607.485	28124.46
607.843	28108.87
608.2	28312.48
608.557	28278.8
608.914	28321.52
609.272	28535.29
609.629	28596.08
609.986	28677.89
610.343	28505.69
610.7	28779.13
611.057	28622.98
611.414	28702.75
611.771	28765.57
612.127	28797.43
612.484	28864.33
612.841	28808.73
613.198	28729.19
613.554	28780.71
613.911	28978.22
614.267	29001.95
614.624	28899.35
614.98	29079.46
615.337	29207.14
615.693	29160.59
616.05	29213.7
616.406	29189.97
616.762	29277.2
617.118	29210.53
617.475	29243.98
617.831	29277.2
618.187	29384.31
618.543	29389.06
618.899	29591.31
619.255	29567.13
619.611	29551.77
619.967	29597.87
620.323	29711.99
620.678	29551.09
621.034	29544.53
621.39	29503.86
621.746	29486.23
622.101	29916.73
622.457	29608.94
622.812	29759.22
623.168	29798.09
623.523	29720.8
623.879	29794.02
624.234	29557.19
624.589	29840.57
624.945	29718.99
625.3	29823.62
625.655	29827.46
626.01	29782.95
626.365	29795.83
626.72	29758.31
627.075	29835.83
627.43	29792.21
627.785	29741.36
628.14	29810.97
628.495	29777.97
628.85	29911.53
629.205	29707.02
629.559	29854.36
629.914	29602.16
630.269	29693
630.623	29579.34
630.978	29536.62
631.332	29706.11
631.687	29625.44
632.041	29582.05
632.396	29492.11
632.75	29423.41
633.104	29538.88
633.459	29333.01
633.813	29419.57
634.167	29306.57
634.521	29304.99
634.875	29398.55
635.229	29274.71
635.583	29157.88
635.937	29230.42
636.291	29195.39
636.645	29211.21
636.999	29046.47
637.352	29024.32
637.706	28930.99
638.06	29028.39
638.413	29110.42
638.767	28833.14
639.121	28980.03
639.474	28749.07
639.828	28822.07
640.181	28716.31
640.534	28773.93
640.888	28806.25
641.241	28632.47
641.594	28596.99
641.947	28664.56
642.301	28606.71
642.654	28606.93
643.007	28553.15
643.36	28570.32
643.713	28532.58
644.066	28522.41
644.419	28339.59
644.771	27971.69
645.124	27729.67
645.477	27857.8
645.83	27752.49
646.182	27804.69
646.535	27900.06
646.888	27902.54
647.24	27791.13
647.593	27981.86
647.945	27740.06
648.298	27718.59
648.65	27615.55
649.002	27332.39
649.355	27261.43
649.707	27213.52
650.059	27121.55
650.411	27634.98
650.763	27733.28
651.115	28236.77
651.467	28120.62
651.819	28155.19
652.171	28070.45
652.523	28116.77
652.875	28125.36
653.227	27952.26
653.578	28194.06
653.93	28291.69
654.282	27955.65
654.633	28030.45
654.985	27982.09
655.337	28039.94
655.688	28087.62
656.039	28215.08
656.391	27927.18
656.742	27999.72
657.094	28053.27
657.445	27909.1
657.796	28071.35
658.147	28016.21
658.498	28211.69
658.849	28246.71
659.2	28132.37
659.551	27966.5
659.902	28311.12
660.253	28139.15
660.604	28268.64
660.955	28009.43
661.306	28173.72
661.656	28140.28
662.007	28218.69
662.358	28132.59
662.708	28343.21
663.059	28245.36
663.409	28121.97
663.76	28237.22
664.11	28340.72
664.461	28374.17
664.811	28298.46
665.161	28273.15
665.511	28271.57
665.862	28251.01
666.212	28315.87
666.562	28406.48
666.912	28326.03
667.262	28211.01
667.612	28239.03
667.962	28377.56
668.312	28265.7
668.662	28453.72
669.011	28291.91
669.361	28354.96
669.711	28293.49
670.06	28284.91
670.41	28183.67
670.76	28113.16
671.109	28318.58
671.459	28353.38
671.808	28331.01
672.157	28356.32
672.507	28107.51
672.856	28097.57
673.205	28140.28
673.554	28206.72
673.904	28150.9
674.253	28395.41
674.602	27996.1
674.951	27832.04
675.3	27517.69
675.649	28022.31
675.998	28128.53
676.346	28072.03
676.695	28162.65
677.044	27994.52
677.393	27995.87
677.741	28013.5
678.09	27856.44
678.438	27846.5
678.787	27837.69
679.135	27754.07
679.484	27566.28
679.832	27731.02
680.181	27698.25
680.529	27722.43
680.877	27568.54
681.225	27467.53
681.573	27664.81
681.922	27481.99
682.27	27431.6
682.618	27455.32
682.966	27488.99
683.314	27329.9
683.661	27329.9
684.009	27219.4
684.357	27213.97
684.705	27082
685.053	27167.87
685.4	26894.66
685.748	26887.2
686.095	26843.36
686.443	26710.26
686.79	26774.21
687.138	26820.99
687.485	26759.97
687.832	26655.8
688.18	26614.67
688.527	26489.47
688.874	26476.37
689.221	26387.33
689.568	26235.47
689.915	26164.51
690.262	26138.3
690.609	26169.48
690.956	25870.05
691.303	25970.16
691.65	25853.11
691.997	25725.65
692.344	25601.81
692.69	25443.85
693.037	25525.88
693.383	25143.75
693.73	25351.65
694.077	25112.11
694.423	25081.37
694.769	25009.29
695.116	24875.28
695.462	24850.42
695.808	24719.12
696.155	24791.44
696.501	24497.89
696.847	24680.03
697.193	24301.73
697.539	24454.5
697.885	24142.19
698.231	24074.4
698.577	24101.29
698.923	24094.28
699.269	23798.7
699.614	23733.84
699.96	23690.22
700.306	23570.23
700.651	23503.11
700.997	23443.68
701.342	23345.37
701.688	23332.04
702.033	23166.4
702.379	23111.48
702.724	23012.28
703.069	23094.08
703.415	22692.74
703.76	22754.43
704.105	22797.14
704.45	22650.03
704.795	22630.59
705.14	22569.8
705.485	22544.94
705.83	22293.2
706.175	22377.04
706.52	22237.16
706.865	22118.74
707.209	22130.04
707.554	22134.56
707.899	22093.2
708.243	22000.1
708.588	21876.26
708.932	21739.77
709.277	21704.51
709.621	21716.72
709.966	21492.99
710.31	21609.15
710.654	21452.09
710.998	21449.15
711.342	21512.43
711.687	21335.48
712.031	21295.94
712.375	21170.06
712.719	21213.45
713.063	21229.05
713.407	21335.26
713.75	21084.87
714.094	21189.5
714.438	21132.1
714.782	21063.63
715.125	20912.44
715.469	21033.35
715.812	21007.58
716.156	20914.48
716.499	20898.43
716.843	20918.32
717.186	20840.13
717.53	20932.78
717.873	20972.56
718.216	20819.57
718.559	20764.2
718.902	20594.26
719.246	20737.53
719.589	20632.23
719.932	20592.23
720.275	20574.83
720.617	20658.44
720.96	20549.29
721.303	20617.09
721.646	20562.85
721.989	20523.08
722.331	20576.63
722.674	20484.43
723.016	20500.93
723.359	20507.94
723.701	20490.08
724.044	20408.73
724.386	20377.54
724.729	20528.5
725.071	20478.11
725.413	20489.86
725.755	20486.47
726.097	20412.12
726.439	20373.25
726.782	20410.08
727.124	20527.82
727.465	20439.91
727.807	20350.65
728.149	20403.98
728.491	20390.42
728.833	20375.28
729.175	20354.49
729.516	20290.09
729.858	20376.19
730.199	20485.56
730.541	20314.49
730.882	20279.69
731.224	20436.3
731.565	20346.58
731.906	20437.2
732.248	20417.09
732.589	20275.85
732.93	20478.78
733.271	20425.23
733.612	20419.8
733.953	20582.96
734.294	20538.67
734.635	20589.74
734.976	20576.86
735.317	20569.63
735.658	20570.31
735.999	20540.7
736.339	20610.31
736.68	20683.52
737.021	20786.8
737.361	20707.25
737.702	20972.1
738.042	20856.85
738.383	20848.04
738.723	20793.13
739.063	20883.97
739.404	21045.55
739.744	20974.59
740.084	21087.58
740.424	21216.17
740.764	21137.52
741.104	21355.6
741.444	21154.02
741.784	21310.17
742.124	21416.84
742.464	21455.03
742.804	21530.96
743.143	21546.1
743.483	21758.52
743.823	21632.43
744.162	21817.51
744.502	21865.41
744.841	21949.48
745.181	22160.1
745.52	22167.55
745.86	22297.04
746.199	22422.91
746.538	22451.84
746.877	22752.85
747.216	22774.77
747.556	22906.29
747.895	23109.67
748.234	23153.97
748.573	23269.44
748.911	23257.92
749.25	23400.06
749.589	23556.67
749.928	23876.89
750.267	23896.09
750.605	24175.64
750.944	24231.91
751.283	24315.07
751.621	24670.31
751.96	24629.63
752.298	24848.39
752.636	25015.84
752.975	25157.08
753.313	25275.27
753.651	25578.76
753.989	25665.77
754.327	25842.26
754.666	25884.29
755.004	26221.46
