Data from 18-5621_FLMS001491_008.txt Node
Date: Thu Apr 19 15:15:35 BST 2018
User: hsy
Spectrometer: FLMS00149
Trigger mode: 0
Integration Time (sec): 1.000000E-2
Scans to average: 10
Electric dark correction enabled: true
Nonlinearity correction enabled: false
Boxcar width: 0
XAxis mode: Wavelengths
Number of Pixels in Spectrum: 2048
>>>>>Begin Spectral Data<<<<<
341.393	-14.97
341.776	-14.97
342.16	-14.97
342.543	-88.42
342.927	-49.32
343.31	-78.47
343.693	-67.63
344.077	-40.73
344.46	-54.07
344.843	-39.83
345.226	-24.91
345.61	-45.71
345.993	-31.24
346.376	14.86
346.759	4.92
347.142	34.07
347.525	31.58
347.908	45.14
348.291	55.76
348.674	86.27
349.057	110
349.44	128.53
349.823	131.92
350.206	162.2
350.588	211.92
350.971	262.54
351.354	250.11
351.737	268.19
352.119	277.22
352.502	291.24
352.884	274.96
353.267	323.55
353.65	341.4
354.032	367.39
354.414	332.82
354.797	365.36
355.179	346.38
355.562	376.88
355.944	375.3
356.326	361.74
356.709	370.78
357.091	378.92
357.473	383.66
357.855	373.04
358.238	367.62
358.62	374.17
359.002	378.24
359.384	399.26
359.766	382.31
360.148	362.87
360.53	382.31
360.912	380.72
361.294	401.51
361.676	374.17
362.057	378.46
362.439	356.09
362.821	363.32
363.203	398.35
363.584	379.59
363.966	386.37
364.348	394.28
364.729	351.8
365.111	360.61
365.493	381.18
365.874	376.43
366.256	366.71
366.637	355.87
367.019	380.72
367.4	366.04
367.781	363.1
368.163	372.14
368.544	385.24
368.925	358.8
369.306	380.05
369.688	361.06
370.069	349.99
370.45	377.56
370.831	396.32
371.212	376.66
371.593	387.5
371.974	364.91
372.355	387.05
372.736	369.43
373.117	375.53
373.498	364.91
373.879	396.09
374.26	367.84
374.641	393.61
375.021	364.91
375.402	389.99
375.783	392.25
376.163	401.06
376.544	394.28
376.925	392.7
377.305	391.35
377.686	399.93
378.066	399.03
378.447	398.58
378.827	404
379.208	412.81
379.588	419.59
379.968	420.5
380.349	439.71
380.729	422.31
381.109	407.39
381.489	436.09
381.87	434.51
382.25	416.88
382.63	425.92
383.01	426.15
383.39	451.68
383.77	439.03
384.15	446.71
384.53	454.39
384.91	455.98
385.29	458.91
385.67	435.64
386.049	474.51
386.429	475.19
386.809	484.68
387.189	472.02
387.568	470.89
387.948	474.96
388.328	503.89
388.707	494.85
389.087	479.7
389.466	498.69
389.846	491.91
390.225	495.98
390.605	502.3
390.984	501.17
391.363	530.1
391.743	512.25
392.122	523.55
392.501	516.54
392.881	521.29
393.26	545.01
393.639	541.62
394.018	542.3
394.397	541.62
394.776	528.97
395.155	546.82
395.534	559.48
395.913	566.71
396.292	545.47
396.671	576.2
397.05	577.33
397.429	554.51
397.808	603.77
398.186	595.63
398.565	580.04
398.944	602.19
399.323	566.71
399.701	605.58
400.08	610.77
400.458	605.58
400.837	606.71
401.215	601.28
401.594	630.44
401.972	629.98
402.351	637.21
402.729	632.7
403.107	642.41
403.486	658.23
403.864	673.82
404.242	624.11
404.62	667.27
404.999	678.12
405.377	668.85
405.755	681.73
406.133	670.43
406.511	688.74
406.889	718.57
407.267	692.81
407.645	719.7
408.023	728.51
408.401	740.04
408.779	752.24
409.156	744.33
409.534	774.84
409.912	787.04
410.29	760.6
410.667	800.83
411.045	801.96
411.422	822.97
411.8	831.11
412.178	847.15
412.555	841.5
412.933	832.24
413.31	857.77
413.687	873.37
414.065	875.17
414.442	886.02
414.819	899.13
415.197	902.07
415.574	898
415.951	902.07
416.328	915.85
416.705	926.92
417.082	958.79
417.46	946.13
417.837	959.24
418.214	972.35
418.591	968.28
418.967	986.13
419.344	987.71
419.721	1003.08
420.098	1003.98
420.475	1015.74
420.852	1004.89
421.228	1030.42
421.605	1039.92
421.982	1056.19
422.358	1073.59
422.735	1089.63
423.111	1054.61
423.488	1087.37
423.864	1068.39
424.241	1129.86
424.617	1123.98
424.994	1112.91
425.37	1132.12
425.746	1131.89
426.123	1174.15
426.499	1174.83
426.875	1171.21
427.251	1203.53
427.627	1213.7
428.003	1249.85
428.379	1235.62
428.756	1271.1
429.132	1287.37
429.507	1282.62
429.883	1301.15
430.259	1332.34
430.635	1348.16
431.011	1340.25
431.387	1354.94
431.763	1371.66
432.138	1371.43
432.514	1400.13
432.89	1428.38
433.265	1505.44
433.641	1493.92
434.016	1478.77
434.392	1524.88
434.767	1541.15
435.143	1511.54
435.518	1564.87
435.894	1588.38
436.269	1573.91
436.644	1599.68
437.02	1640.8
437.395	1624.99
437.77	1640.35
438.145	1702.5
438.52	1705.21
438.895	1701.37
439.271	1721.03
439.646	1746.11
440.021	1744.3
440.395	1789.5
440.77	1748.82
441.145	1781.59
441.52	1839.44
441.895	1804.19
442.27	1821.36
442.645	1802.61
443.019	1864.75
443.394	1858.43
443.769	1881.48
444.143	1846.22
444.518	1884.87
444.892	1905.2
445.267	1857.3
445.641	1901.14
446.016	1956.73
446.39	1942.49
446.764	1951.53
447.139	1970.29
447.513	1986.11
447.887	1979.55
448.262	1996.95
448.636	2031.53
449.01	2060.23
449.384	2071.75
449.758	2051.41
450.132	2098.87
450.506	2122.15
450.88	2118.31
451.254	2107.68
451.628	2155.14
452.002	2191.98
452.376	2200.79
452.75	2217.29
453.123	2229.04
453.497	2295.02
453.871	2286.66
454.244	2344.06
454.618	2391.29
454.992	2414.8
455.365	2415.02
455.739	2465.42
456.112	2499.99
456.486	2518.07
456.859	2536.83
457.232	2574.79
457.606	2594.68
457.979	2606.2
458.352	2677.39
458.725	2690.95
459.099	2712.87
459.472	2758.74
459.845	2790.6
460.218	2797.84
460.591	2828.12
460.964	2812.07
461.337	2921.22
461.71	2965.74
462.083	3004.16
462.456	2996.47
462.829	3013.88
463.201	3078.28
463.574	3051.84
463.947	3113.76
464.32	3165.06
464.692	3219.97
465.065	3250.25
465.438	3289.35
465.81	3304.72
466.183	3358.05
466.555	3363.24
466.928	3445.5
467.3	3415.67
467.672	3472.62
468.045	3583.13
468.417	3568.44
468.789	3596.69
469.161	3657.25
469.534	3703.57
469.906	3750.35
470.278	3763.69
470.65	3833.97
471.022	3904.02
471.394	3915.55
471.766	3988.09
472.138	4003.68
472.51	4128.87
472.882	4178.14
473.253	4172.26
473.625	4240.51
473.997	4378.13
474.369	4364.12
474.74	4411.58
475.112	4487.06
475.484	4546.72
475.855	4601.18
476.227	4661.97
476.598	4814.96
476.97	4872.13
477.341	4953.71
477.713	5007.95
478.084	5014.73
478.455	5188.51
478.827	5237.77
479.198	5420.14
479.569	5364.1
479.94	5543.53
480.311	5598.44
480.682	5742.84
481.053	5848.83
481.424	5965.21
481.795	5961.59
482.166	6064.87
482.537	6179.22
482.908	6334.69
483.279	6348.03
483.65	6515.25
484.021	6601.8
484.391	6732.2
484.762	6745.98
485.133	6911.85
485.503	6978.74
485.874	7172.41
486.244	7254.89
486.615	7358.85
486.985	7498.05
487.356	7658.27
487.726	7669.8
488.097	7873.63
488.467	7944.14
488.837	8121.09
489.207	8259.16
489.578	8422.32
489.948	8460.06
490.318	8638.59
490.688	8638.36
491.058	8844
491.428	8919.48
491.798	9018.46
492.168	9239.25
492.538	9329.64
492.908	9481.28
493.278	9601.72
493.648	9641.27
494.017	9781.83
494.387	9901.83
494.757	10057.31
495.126	10078.32
495.496	10239.22
495.866	10364.64
496.235	10533.23
496.605	10603.96
496.974	10678.98
497.344	10821.58
497.713	10916.49
498.082	10996.94
498.452	11057.73
498.821	11258.18
499.19	11223.15
499.559	11369.14
499.928	11488.23
500.298	11568
500.667	11748.79
501.036	11658.62
501.405	11865.62
501.774	11882.12
502.143	12073.98
502.512	12091.15
502.88	12245.95
503.249	12229.45
503.618	12347.64
503.987	12522.33
504.356	12594.87
504.724	12612.27
505.093	12714.19
505.462	12837.35
505.83	12838.48
506.199	12985.82
506.567	13162.54
506.936	13195.75
507.304	13290.44
507.672	13364.34
508.041	13444.79
508.409	13678.45
508.777	13685.23
509.145	13819.02
509.514	13772.69
509.882	13929.29
510.25	13979.46
510.618	14040.93
510.986	14172.9
511.354	14253.35
511.722	14348.49
512.09	14483.18
512.458	14457.87
512.826	14581.26
513.193	14663.96
513.561	14814.92
513.929	14773.79
514.297	14979.21
514.664	14931.98
515.032	15169.71
515.4	15282.48
515.767	15380.33
516.135	15447.9
516.502	15339.2
516.869	15580.32
517.237	15688.34
517.604	15635.69
517.972	15840.2
518.339	15911.62
518.706	16010.37
519.073	16099.18
519.44	16139.41
519.808	16186.18
520.175	16333.98
520.542	16510.24
520.909	16589.56
521.276	16717.47
521.643	16869.33
522.009	16902.32
522.376	17122.66
522.743	17098.48
523.11	17324.01
523.477	17531.91
523.843	17570.78
524.21	17777.1
524.577	17896.42
524.943	17988.17
525.31	18084.67
525.676	18226.58
526.043	18405.56
526.409	18454.37
526.776	18666.35
527.142	18721.49
527.508	18840.8
527.874	18867.02
528.241	19005.09
528.607	19100.91
528.973	19262.26
529.339	19213.45
529.705	19438.53
530.071	19572.54
530.437	19644.62
530.803	19803.49
531.169	19798.97
531.535	19885.52
531.901	19955.8
532.267	20182.46
532.632	20260.65
532.998	20220.88
533.364	20356.92
533.73	20464.04
534.095	20707.65
534.461	20550.14
534.826	20744.48
535.192	20731.83
535.557	20907.64
535.923	20956.45
536.288	21016.34
536.653	21118.94
537.019	21078.71
537.384	21144.92
537.749	21156.22
538.114	21255.88
538.479	21197.8
538.845	21321.42
539.21	21321.19
539.575	21451.36
539.94	21426.95
540.305	21527.51
540.67	21553.5
541.034	21524.35
541.399	21606.83
541.764	21608.64
542.129	21739.26
542.494	21720.05
542.858	21814.06
543.223	21786.49
543.587	21865.81
543.952	21751.46
544.316	21829.43
544.681	21847.96
545.045	21915.75
545.41	22130.44
545.774	21962.3
546.138	22034.84
546.503	22078.69
546.867	22127.72
547.231	22082.98
547.595	22189.42
547.959	22206.82
548.324	22277.78
548.688	22179.93
549.052	22185.57
549.416	22322.52
549.779	22233.26
550.143	22314.84
550.507	22433.7
550.871	22471.22
551.235	22338.34
551.599	22689.52
551.962	22611.33
552.326	22609.74
552.689	22620.82
553.053	22467.6
553.417	22663.98
553.78	22748.95
554.143	22896.06
554.507	22819.23
554.87	22975.38
555.234	23028.94
555.597	22922.96
555.96	23040.47
556.323	22997.98
556.686	23096.06
557.05	23252.89
557.413	23263.29
557.776	23274.13
558.139	23437.75
558.502	23456.73
558.865	23355.26
559.228	23630.28
559.59	23616.27
559.953	23684.07
560.316	23891.29
560.679	23917.28
561.041	24026.2
561.404	24188.46
561.767	24292.19
562.129	24286.08
562.492	24540.77
562.854	24473.65
563.217	24393.2
563.579	24501.9
563.941	24846.52
564.304	24913.64
564.666	25015.56
565.028	25141.66
565.39	25263.23
565.753	25434.08
566.115	25487.86
566.477	25655.54
566.839	25705.93
567.201	26026.6
567.563	25991.8
567.925	26208.97
568.287	26232.02
568.648	26335.3
569.01	26484.9
569.372	26775.74
569.734	26744.55
570.095	26948.16
570.457	27111.55
570.819	27076.29
571.18	27249.17
571.542	27586.34
571.903	27505.43
572.265	27743.39
572.626	27828.36
572.987	27886.89
573.349	28184.06
573.71	28402.59
574.071	28479.87
574.432	28626.76
574.794	28878.73
575.155	28926.87
575.516	28954.44
575.877	29127.54
576.238	29136.8
576.599	29375.67
576.96	29375.89
577.32	29505.38
577.681	29596.45
578.042	29891.81
578.403	29875.99
578.763	29838.93
579.124	29996.22
579.485	30271.24
579.845	30284.8
580.206	30256.78
580.566	30362.53
580.927	30271.01
581.287	30633.94
581.648	30551.46
582.008	30772.69
582.368	30724.56
582.728	30749.42
583.089	30730.21
583.449	30906.93
583.809	30896.76
584.169	31100.59
584.529	30877.1
584.889	31170.2
585.249	31153.93
585.609	30903.99
585.969	31179.69
586.329	31013.14
586.688	31226.69
587.048	31214.72
587.408	31156.19
587.768	31093.36
588.127	31191.89
588.487	31170.42
588.846	31382.17
589.206	31175.62
589.565	31254.04
589.925	31427.59
590.284	31279.12
590.643	31279.8
591.003	31334.94
591.362	31525.89
591.721	31395.95
592.08	31391.66
592.44	31452.45
592.799	31521.6
593.158	31375.16
593.517	31384.88
593.876	31558.66
594.235	31591.43
594.593	31381.04
594.952	31582.39
595.311	31409.74
595.67	31576.74
596.029	31728.83
596.387	31819.67
596.746	31801.82
597.104	31674.82
597.463	31665.33
597.822	31770.86
598.18	31785.55
598.538	31702.84
598.897	31925.21
599.255	31684.31
599.613	32038.2
599.972	31854.93
600.33	31833.23
600.688	31930.63
601.046	31961.59
601.404	32190.28
601.762	32109.16
602.12	32190.28
602.478	32122.04
602.836	32251.3
603.194	32035.49
603.552	32151.19
603.91	32039.55
604.268	32264.63
604.625	32137.18
604.983	32298.3
605.341	31973.79
605.698	32331.75
606.056	32306.21
606.413	32275.03
606.771	32489.03
607.128	32416.94
607.485	32225.76
607.843	32174.46
608.2	32366.55
608.557	32476.15
608.914	32462.59
609.272	32533.55
609.629	32618.52
609.986	32701.23
610.343	32665.53
610.7	32876.37
611.057	32837.95
611.414	32743.94
611.771	33043.14
612.127	33050.6
612.484	33009.92
612.841	33124.04
613.198	32937.83
613.554	32856.03
613.911	33220.76
614.267	33177.83
614.624	33119.3
614.98	33221.44
615.337	33307.77
615.693	33354.32
616.05	33331.5
616.406	33521.55
616.762	33452.17
617.118	33430.02
617.475	33461.89
617.831	33583.02
618.187	33578.95
618.543	33738.27
618.899	33808.32
619.255	33619.85
619.611	33771.03
619.967	33912.72
620.323	34025.26
620.678	33792.28
621.034	33905.49
621.39	33820.98
621.746	33779.62
622.101	34175.09
622.457	33934.42
622.812	34013.06
623.168	34143.68
623.523	34097.35
623.879	34217.8
624.234	33997.47
624.589	34058.26
624.945	34139.84
625.3	34146.62
625.655	34151.36
626.01	34038.82
626.365	34121.98
626.72	33971.93
627.075	33957.47
627.43	34011.7
627.785	34048.54
628.14	33965.83
628.495	33934.19
628.85	34204.47
629.205	34000.63
629.559	34127.18
629.914	33895.55
630.269	34006.06
630.623	33902.33
630.978	33760.41
631.332	34023
631.687	33921.99
632.041	33927.64
632.396	33921.31
632.75	33720.64
633.104	33824.36
633.459	33569
633.813	33623.92
634.167	33650.58
634.521	33655.33
634.875	33559.06
635.229	33330.82
635.583	33362.68
635.937	33451.72
636.291	33361.78
636.645	33389.12
636.999	33218.73
637.352	33425.28
637.706	33059.41
638.06	33242.69
638.413	33051.28
638.767	33001.79
639.121	33077.94
639.474	32929.25
639.828	32952.98
640.181	32905.97
640.534	33006.08
640.888	32895.35
641.241	32657.62
641.594	32714.34
641.947	32895.35
642.301	32713.89
642.654	32744.39
643.007	32555.92
643.36	32606.09
643.713	32632.31
644.066	32841.11
644.419	32539.65
644.771	32219.66
645.124	31948.48
645.477	31881.59
645.83	31786.9
646.182	31934.47
646.535	31773.12
646.888	31867.58
647.24	31791.42
647.593	31821.71
647.945	31864.87
648.298	31752.55
648.65	31650.64
649.002	31359.57
649.355	31322.96
649.707	31141.5
650.059	31266.47
650.411	31666.46
650.763	31932.89
651.115	32483.61
651.467	32306.21
651.819	32253.78
652.171	32284.07
652.523	32171.53
652.875	32191.87
653.227	32069.38
653.578	32407.68
653.93	32244.29
654.282	31991.19
654.633	32036.62
654.985	32256.27
655.337	32182.15
655.688	32185.09
656.039	32280.45
656.391	31980.57
656.742	32123.62
657.094	32052.43
657.445	32214.24
657.796	32265.08
658.147	32189.15
658.498	32284.97
658.849	32324.74
659.2	32268.47
659.551	32202.71
659.902	32483.61
660.253	32244.29
660.604	32397.06
660.955	32237.06
661.306	32461.91
661.656	32299.89
662.007	32341.47
662.358	32293.11
662.708	32487.68
663.059	32327.68
663.409	32213.79
663.76	32530.61
664.11	32601.35
664.461	32538.97
664.811	32525.19
665.161	32491.97
665.511	32386.21
665.862	32414.46
666.212	32568.58
666.562	32555.7
666.912	32534.23
667.262	32508.24
667.612	32459.65
667.962	32419.43
668.312	32463.5
668.662	32649.93
669.011	32523.38
669.361	32460.78
669.711	32531.74
670.06	32489.03
670.41	32412.2
670.76	32357.51
671.109	32532.42
671.459	32374.01
671.808	32360.22
672.157	32381.46
672.507	32204.52
672.856	32170.62
673.205	32171.08
673.554	32317.06
673.904	32124.3
674.253	32364.52
674.602	32241.58
674.951	31891.08
675.3	31573.8
675.649	32272.77
675.998	32250.62
676.346	32180.57
676.695	32091.08
677.044	32073.45
677.393	32114.35
677.741	32152.09
678.09	32035.71
678.438	31889.73
678.787	32058.54
679.135	31845.43
679.484	31770.63
679.832	31915.71
680.181	31828.03
680.529	31772.67
680.877	31661.03
681.225	31580.36
681.573	31906.45
681.922	31530.64
682.27	31521.15
682.618	31583.52
682.966	31533.13
683.314	31457.87
683.661	31303.08
684.009	31121.39
684.357	31135.17
684.705	31008.17
685.053	31009.75
685.4	30968.39
685.748	30908.51
686.095	30904.22
686.443	30693.6
686.79	30709.42
687.138	30584.45
687.485	30700.83
687.832	30494.96
688.18	30522.53
688.527	30301.52
688.874	30296.32
689.221	30219.04
689.568	30020.4
689.915	29947.4
690.262	30075.08
690.609	29793.51
690.956	29800.97
691.303	29721.2
691.65	29495.89
691.997	29515.78
692.344	29351.04
692.69	29235.56
693.037	29292.96
693.383	28861.11
693.73	29033.3
694.077	28832.86
694.423	28809.13
694.769	28662.24
695.116	28640.32
695.462	28283.49
695.808	28344.28
696.155	28298.41
696.501	28070.62
696.847	28238.3
697.193	27904.52
697.539	28017.06
697.885	27686
698.231	27661.36
698.577	27466.57
698.923	27495.94
699.269	27281.49
699.614	27198.55
699.96	27050.31
700.306	27096.86
700.651	26992
700.997	26780.03
701.342	26787.49
701.688	26747.49
702.033	26614.61
702.379	26592.01
702.724	26472.69
703.069	26454.16
703.415	26135.3
703.76	26023.21
704.105	26044.23
704.45	25935.08
704.795	25912.93
705.14	25689.21
705.485	25731.47
705.83	25570.12
706.175	25606.73
706.52	25453.29
706.865	25293.29
707.209	25354.53
707.554	25212.61
707.899	25267.08
708.243	25099.17
708.588	24967.65
708.932	24796.58
709.277	24937.82
709.621	24768.33
709.966	24573.31
710.31	24655.79
710.654	24544.61
710.998	24564.27
711.342	24632.97
711.687	24406.31
712.031	24414.89
712.375	24298.74
712.719	24301.68
713.063	24238.85
713.407	24357.27
713.75	24261.45
714.094	24154.79
714.438	24114.56
714.782	24063.27
715.125	23958.64
715.469	24128.35
715.812	23943.95
716.156	23933.1
716.499	23884.74
716.843	23911.41
717.186	23824.18
717.53	23864.4
717.873	23929.48
718.216	23844.06
718.559	23751.86
718.902	23549.15
719.246	23692.65
719.589	23632.77
719.932	23577.63
720.275	23584.86
720.617	23526.1
720.96	23469.16
721.303	23618.53
721.646	23641.13
721.989	23505.54
722.331	23568.14
722.674	23452.66
723.016	23536.05
723.359	23522.71
723.701	23469.16
724.044	23433.68
724.386	23368.14
724.729	23547.12
725.071	23460.8
725.413	23425.54
725.755	23455.82
726.097	23349.61
726.439	23394.13
726.782	23305.77
727.124	23403.17
727.465	23420.12
727.807	23257.64
728.149	23346
728.491	23307.13
728.833	23412.66
729.175	23397.29
729.516	23393.23
729.858	23339.89
730.199	23399.33
730.541	23489.95
730.882	23417.63
731.224	23547.8
731.565	23496.73
731.906	23488.37
732.248	23518.42
732.589	23516.84
732.93	23461.25
733.271	23608.14
733.612	23573.33
733.953	23646.78
734.294	23557.52
734.635	23556.84
734.976	23803.16
735.317	23649.49
735.658	23703.73
735.999	23781.24
736.339	23721.13
736.68	23846.1
737.021	23818.07
737.361	23770.84
737.702	24109.59
738.042	24002.25
738.383	24081.34
738.723	24161.57
739.063	24051.97
739.404	24265.07
739.744	24243.6
740.084	24260.55
740.424	24395.46
740.764	24348.68
741.104	24542.8
741.444	24482.92
741.784	24402.69
742.124	24653.31
742.464	24582.57
742.804	24678.62
743.143	24773.76
743.483	25119.73
743.823	25006.29
744.162	24985.73
744.502	25178.94
744.841	25178.72
745.181	25512.72
745.52	25478.14
745.86	25667.74
746.199	25652.83
746.538	25816.89
746.877	26033.61
747.216	26059.82
747.556	26233.83
747.895	26330.1
748.234	26511.34
748.573	26589.07
748.911	26693.03
749.25	26816.87
749.589	26990.87
749.928	27139.12
750.267	27428.83
750.605	27358.77
750.944	27606.9
751.283	27759.44
751.621	27984.52
751.96	27993.11
752.298	28241.91
752.636	28458.63
752.975	28570.27
753.313	28644.84
753.651	29033.98
753.989	29009.35
