Data from 18-5621_FLMS001491_010.txt Node
Date: Thu Apr 19 15:15:41 BST 2018
User: hsy
Spectrometer: FLMS00149
Trigger mode: 0
Integration Time (sec): 1.000000E-2
Scans to average: 10
Electric dark correction enabled: true
Nonlinearity correction enabled: false
Boxcar width: 0
XAxis mode: Wavelengths
Number of Pixels in Spectrum: 2048
>>>>>Begin Spectral Data<<<<<
341.393	-26.89
341.776	-26.89
342.16	-26.89
342.543	-57.85
342.927	-51.75
343.31	-83.84
343.693	-64.18
344.077	-69.6
344.46	-51.98
344.843	-53.56
345.226	-62.6
345.61	-37.74
345.993	-6.55
346.376	-0.23
346.759	-10.17
347.142	30.73
347.525	55.37
347.908	66.21
348.291	74.35
348.674	89.72
349.057	124.06
349.44	131.52
349.823	169.94
350.206	168.36
350.588	178.3
350.971	240.45
351.354	256.04
351.737	265.98
352.119	287.68
352.502	269.37
352.884	300.11
353.267	303.72
353.65	301.46
354.032	319.09
354.414	332.42
354.797	330.61
355.179	330.61
355.562	350.27
355.944	367.22
356.326	350.95
356.709	382.36
357.091	376.26
357.473	364.96
357.855	376.94
358.238	390.95
358.62	371.74
359.002	381.01
359.384	375.36
359.766	377.17
360.148	393.89
360.53	374.68
360.912	362.48
361.294	354.79
361.676	405.41
362.057	365.41
362.439	364.96
362.821	370.16
363.203	375.13
363.584	334.91
363.966	363.83
364.348	372.65
364.729	359.99
365.111	334.68
365.493	344.17
365.874	366.77
366.256	349.14
366.637	377.84
367.019	359.99
367.4	366.32
367.781	357.96
368.163	359.54
368.544	346.66
368.925	348.92
369.306	354.34
369.688	351.18
370.069	368.58
370.45	359.76
370.831	361.57
371.212	348.24
371.593	353.44
371.974	381.91
372.355	381.23
372.736	376.94
373.117	392.76
373.498	347.56
373.879	365.41
374.26	357.73
374.641	345.08
375.021	360.67
375.402	366.32
375.783	369.48
376.163	384.85
376.544	379.43
376.925	403.15
377.305	379.88
377.686	381.91
378.066	373.55
378.447	390.5
378.827	405.19
379.208	392.08
379.588	408.8
379.968	411.97
380.349	409.25
380.729	376.26
381.109	410.61
381.489	395.24
381.87	396.83
382.25	422.14
382.63	423.94
383.01	427.56
383.39	430.72
383.77	406.09
384.15	416.94
384.53	429.82
384.91	425.98
385.29	439.31
385.67	454.45
386.049	464.17
386.429	421.23
386.809	448.8
387.189	439.76
387.568	456.71
387.948	446.09
388.328	443.6
388.707	471.63
389.087	469.82
389.466	448.58
389.846	472.08
390.225	473.66
390.605	465.52
390.984	471.85
391.363	464.85
391.743	459.87
392.122	498.97
392.501	485.41
392.881	480.67
393.26	498.29
393.639	513.88
394.018	484.96
394.397	517.95
394.776	476.15
395.155	488.12
395.534	503.72
395.913	528.35
396.292	505.07
396.671	541
397.05	553.88
397.429	520.21
397.808	541.23
398.186	535.35
398.565	540.55
398.944	538.29
399.323	508.01
399.701	561.34
400.08	566.31
400.458	553.43
400.837	550.49
401.215	566.09
401.594	544.17
401.972	552.53
402.351	562.25
402.729	562.7
403.107	565.86
403.486	610.83
403.864	578.06
404.242	602.02
404.62	592.53
404.999	616.03
405.377	619.19
405.755	625.07
406.133	619.64
406.511	645.18
406.889	646.99
407.267	652.19
407.645	641.34
408.023	667.33
408.401	670.49
408.779	671.17
409.156	700.32
409.534	698.74
409.912	703.26
410.29	701.9
410.667	749.81
411.045	720.21
411.422	738.51
411.8	743.48
412.178	742.81
412.555	753.2
412.933	747.55
413.31	786.65
413.687	795.23
414.065	776.25
414.442	794.33
414.819	802.24
415.197	805.4
415.574	824.16
415.951	828
416.328	864.84
416.705	822.58
417.082	849.47
417.46	847.21
417.837	846.98
418.214	872.97
418.591	864.61
418.967	880.2
419.344	892.18
419.721	890.15
420.098	868.45
420.475	915
420.852	913.87
421.228	918.62
421.605	915.91
421.982	949.35
422.358	949.13
422.735	964.27
423.111	944.61
423.488	966.75
423.864	969.69
424.241	990.93
424.617	993.42
424.994	1009.69
425.37	976.25
425.746	1031.16
426.123	1050.14
426.499	1047.43
426.875	1036.36
427.251	1072.97
427.627	1102.8
428.003	1074.32
428.379	1112.51
428.756	1116.81
429.132	1103.25
429.507	1142.34
429.883	1169.01
430.259	1166.52
430.635	1155.68
431.011	1170.82
431.387	1204.04
431.763	1232.28
432.138	1212.4
432.514	1231.61
432.89	1232.74
433.265	1260.08
433.641	1311.6
434.016	1289.01
434.392	1297.59
434.767	1333.3
435.143	1340.08
435.518	1369
435.894	1370.81
436.269	1389.57
436.644	1401.09
437.02	1422.56
437.395	1438.38
437.77	1422.56
438.145	1461.2
438.52	1475.89
438.895	1483.8
439.271	1484.93
439.646	1519.28
440.021	1531.26
440.395	1550.47
440.77	1524.25
441.145	1547.76
441.52	1568.32
441.895	1536
442.27	1594.99
442.645	1593.4
443.019	1630.47
443.394	1595.66
443.769	1637.25
444.143	1624.14
444.518	1676.34
444.892	1641.76
445.267	1665.49
445.641	1670.24
446.016	1699.84
446.39	1714.31
446.764	1706.4
447.139	1706.17
447.513	1689.45
447.887	1722.67
448.262	1759.28
448.636	1737.13
449.01	1780.52
449.384	1769.44
449.758	1777.13
450.132	1836.11
450.506	1814.19
450.88	1823.23
451.254	1858.71
451.628	1865.26
452.002	1894.41
452.376	1903.9
452.75	1935.32
453.123	1965.37
453.497	1973.73
453.871	1961.53
454.244	2019.83
454.618	2046.27
454.992	2039.95
455.365	2061.19
455.739	2119.04
456.112	2156.55
456.486	2144.58
456.859	2149.55
457.232	2261.41
457.606	2236.33
457.979	2252.6
458.352	2326.49
458.725	2305.7
459.099	2317
459.472	2345.48
459.845	2397
460.218	2439.26
460.591	2460.27
460.964	2447.17
461.337	2512.25
461.71	2505.24
462.083	2559.25
462.456	2629.99
462.829	2612.81
463.201	2661.17
463.574	2659.82
463.947	2690.32
464.32	2729.19
464.692	2747.5
465.065	2756.09
465.438	2811.9
465.81	2843.99
466.183	2854.39
466.555	2917.21
466.928	2957.21
467.3	2935.06
467.672	2979.58
468.045	3059.13
468.417	3055.29
468.789	3046.93
469.161	3112.91
469.534	3175.51
469.906	3222.51
470.278	3237.65
470.65	3275.85
471.022	3329.86
471.394	3363.98
471.766	3403.98
472.138	3439.01
472.51	3485.56
472.882	3553.58
473.253	3622.96
473.625	3620.92
473.997	3711.09
474.369	3760.81
474.74	3782.73
475.112	3860.69
475.484	3890.97
475.855	3944.08
476.227	4003.51
476.598	4102.27
476.97	4153.34
477.341	4210.28
477.713	4252.77
478.084	4338.87
478.455	4415.93
478.827	4422.71
479.198	4580.22
479.569	4546.32
479.94	4687.79
480.311	4768.24
480.682	4839.87
481.053	5002.13
481.424	5121
481.795	5132.97
482.166	5180.43
482.537	5260.2
482.908	5355.11
483.279	5470.82
483.65	5586.97
484.021	5679.17
484.391	5746.06
484.762	5835.78
485.133	5828.32
485.503	5972.27
485.874	6092.27
486.244	6172.49
486.615	6298.82
486.985	6402.32
487.356	6474.18
487.726	6599.15
488.097	6736.55
488.467	6800.5
488.837	6932.7
489.207	7037.56
489.578	7194.84
489.948	7232.35
490.318	7403.65
490.688	7480.71
491.058	7572.68
491.428	7695.16
491.798	7793.02
492.168	7986.91
492.538	8006.8
492.908	8178.77
493.278	8297.86
493.648	8323.85
494.017	8544.41
494.387	8593.67
494.757	8684.97
495.126	8780.11
495.496	8887.45
495.866	8971.06
496.235	9096.26
496.605	9184.17
496.974	9257.84
497.344	9436.81
497.713	9454.67
498.082	9559.3
498.452	9685.85
498.821	9788.22
499.19	9920.42
499.559	9950.25
499.928	10004.48
500.298	10086.06
500.667	10270.92
501.036	10250.13
501.405	10406.28
501.774	10408.77
502.143	10479.95
502.512	10636.1
502.88	10777.8
503.249	10778.93
503.618	10884.46
503.987	10951.35
504.356	11113.38
504.724	11158.12
505.093	11225.92
505.462	11319.02
505.83	11335.75
506.199	11450.32
506.567	11640.15
506.936	11630.2
507.304	11757.66
507.672	11843.08
508.041	11818.9
508.409	12017.31
508.777	12120.81
509.145	12248.72
509.514	12221.6
509.882	12328.04
510.25	12413.23
510.618	12542.04
510.986	12554.7
511.354	12673.57
511.722	12816.39
512.09	12872.66
512.458	12831.08
512.826	12989.49
513.193	13107
513.561	13016.83
513.929	13109.03
514.297	13328.92
514.664	13340.21
515.032	13478.52
515.4	13559.64
515.767	13612.98
516.135	13673.31
516.502	13605.52
516.869	13944.49
517.237	13912.63
517.604	13849.35
517.972	14188.1
518.339	14191.94
518.706	14181.1
519.073	14245.5
519.44	14290.02
519.808	14524.59
520.175	14593.06
520.542	14709.22
520.909	14622.21
521.276	14748.54
521.643	14935.43
522.009	14973.17
522.376	15071.02
522.743	15187.4
523.11	15342.87
523.477	15424.68
523.843	15496.99
524.21	15759.36
524.577	15826.93
524.943	15853.59
525.31	15986.02
525.676	16078.22
526.043	16181.5
526.409	16260.14
526.776	16355.5
527.142	16379.91
527.508	16485.67
527.874	16763.18
528.241	16781.25
528.607	16809.95
528.973	16935.83
529.339	17055.6
529.705	17132.66
530.071	17284.97
530.437	17345.08
530.803	17487.45
531.169	17487.22
531.535	17514.12
531.901	17572.65
532.267	17589.59
532.632	17707.33
532.998	17766.99
533.364	17908.23
533.73	17950.04
534.095	18089.92
534.461	18075.46
534.826	18202.91
535.192	18167.43
535.557	18294.43
535.923	18307.09
536.288	18423.24
536.653	18469.57
537.019	18404.71
537.384	18351.83
537.749	18486.52
538.114	18555.9
538.479	18460.08
538.845	18596.35
539.21	18661.66
539.575	18609.91
539.94	18653.97
540.305	18792.27
540.67	18781.43
541.034	18839.05
541.399	18754.99
541.764	18895.1
542.129	18881.76
542.494	18845.38
542.858	18978.94
543.223	18866.85
543.587	18926.51
543.952	18991.14
544.316	19002.66
544.681	18841.54
545.045	19067.75
545.41	18985.94
545.774	18997.47
546.138	19064.36
546.503	19142.1
546.867	19088.09
547.231	19142.32
547.595	19241.98
547.959	19303.9
548.324	19258.02
548.688	19252.83
549.052	19199.04
549.416	19232.04
549.779	19263.22
550.143	19316.55
550.507	19372.82
550.871	19331.47
551.235	19418.47
551.599	19452.6
551.962	19482.2
552.326	19505.48
552.689	19554.51
553.053	19452.14
553.417	19539.6
553.78	19655.3
554.143	19568.75
554.507	19557.45
554.87	19720.16
555.234	19743.21
555.597	19649.88
555.96	19793.38
556.323	19825.69
556.686	19839.25
557.05	19949.53
557.413	20050.09
557.776	20041.73
558.139	20081.96
558.502	20153.14
558.865	20129.87
559.228	20282.86
559.59	20382.29
559.953	20309.97
560.316	20492.12
560.679	20597.88
561.041	20571.66
561.404	20616.41
561.767	20676.29
562.129	20678.55
562.492	20877.64
562.854	20861.82
563.217	20958.32
563.579	21013.68
563.941	21167.13
564.304	21172.32
564.666	21407.57
565.028	21432.66
565.39	21442.15
565.753	21678.75
566.115	21719.43
566.477	21791.29
566.839	21927.33
567.201	22149.93
567.563	22217.49
567.925	22309.47
568.287	22328.68
568.648	22392.41
569.01	22688.89
569.372	22779.29
569.734	22735.67
570.095	22907.87
570.457	23039.17
570.819	23061.54
571.18	23109.67
571.542	23318.93
571.903	23367.97
572.265	23461.53
572.626	23693.84
572.987	23701.98
573.349	23793.05
573.71	23932.7
574.071	24125.02
574.432	24192.36
574.794	24442.52
575.155	24343.31
575.516	24335.86
575.877	24582.4
576.238	24553.48
576.599	24782.85
576.96	24839.57
577.32	24718.67
577.681	24919.57
578.042	25141.03
578.403	25092
578.763	25100.13
579.124	25081.37
579.485	25351.88
579.845	25330.63
580.206	25470.06
580.566	25494.92
580.927	25483.4
581.287	25699.21
581.648	25618.76
582.008	25699.89
582.368	25698.31
582.728	25815.14
583.089	25656.95
583.449	25721.81
583.809	25725.88
584.169	25919.54
584.529	25864.4
584.889	26098.97
585.249	25939.66
585.609	25880.45
585.969	26123.83
586.329	25898.3
586.688	26109.14
587.048	25867.12
587.408	26013.55
587.768	25975.59
588.127	25978.75
588.487	26013.33
588.846	26164.96
589.206	26001.35
589.565	26129.26
589.925	26254
590.284	26187.56
590.643	26187.33
591.003	26182.59
591.362	26231.85
591.721	26193.66
592.08	26216.49
592.44	26377.16
592.799	26345.52
593.158	26298.52
593.517	26163.38
593.876	26470.94
594.235	26205.41
594.593	26244.06
594.952	26318.18
595.311	26279.76
595.67	26267.33
596.029	26469.59
596.387	26510.94
596.746	26516.59
597.104	26500.77
597.463	26526.76
597.822	26571.73
598.18	26364.28
598.538	26348.23
598.897	26614.67
599.255	26476.37
599.613	26785.96
599.972	26469.59
600.33	26560.21
600.688	26595.68
601.046	26449.02
601.404	26819.41
601.762	26684.5
602.12	26878.62
602.478	26728.34
602.836	26800.88
603.194	26649.69
603.552	26741.44
603.91	26733.99
604.268	26900.99
604.625	26840.42
604.983	26925.62
605.341	26761.1
605.698	26964.94
606.056	27130.36
606.413	26879.07
606.771	27026.86
607.128	26999.29
607.485	26894.21
607.843	26978.5
608.2	27109.8
608.557	27143.02
608.914	26972.85
609.272	27136.46
609.629	27298.27
609.986	27295.1
610.343	27228.21
610.7	27395.44
611.057	27463.68
611.414	27268.66
611.771	27420.97
612.127	27462.55
612.484	27453.97
612.841	27528.99
613.198	27432.95
613.554	27517.47
613.911	27861.64
614.267	27615.77
614.624	27641.53
614.98	27716.11
615.337	27780.51
615.693	27924.92
616.05	27874.52
616.406	27990.22
616.762	27829.78
617.118	27957.91
617.475	28029.09
617.831	28008.98
618.187	27934.41
618.543	28010.79
618.899	28245.36
619.255	28099.15
619.611	28008.76
619.967	28294.85
620.323	28154.97
620.678	28090.79
621.034	28149.77
621.39	28103.67
621.746	28134.18
622.101	28383.89
622.457	28106.83
622.812	28342.98
623.168	28350.89
623.523	28361.51
623.879	28357.67
624.234	28271.57
624.589	28255.98
624.945	28405.58
625.3	28365.13
625.655	28490.55
626.01	28404.45
626.365	28470.21
626.72	28493.49
627.075	28214.85
627.43	28371.68
627.785	28364.9
628.14	28382.08
628.495	28378.91
628.85	28256.66
629.205	28298.01
629.559	28375.07
629.914	28217.79
630.269	28215.53
630.623	28131.92
630.978	27962.88
631.332	28257.79
631.687	28213.04
632.041	28212.14
632.396	28189.54
632.75	28100.28
633.104	28148.19
633.459	27862.54
633.813	28066.15
634.167	27908.87
634.521	27991.58
634.875	27850.12
635.229	27942.54
635.583	27816.67
635.937	27720.18
636.291	27747.74
636.645	27739.38
636.999	27597.24
637.352	27692.38
637.706	27594.98
638.06	27674.3
638.413	27469.79
638.767	27475.21
639.121	27520.18
639.474	27311.37
639.828	27432.95
640.181	27362.67
640.534	27504.36
640.888	27376.91
641.241	27314.08
641.594	27252.16
641.947	27278.38
642.301	27230.02
642.654	27300.75
643.007	27283.35
643.36	27308.89
643.713	27219.17
644.066	27266.85
644.419	27095.56
644.771	26905.73
645.124	26545.74
645.477	26524.05
645.83	26522.69
646.182	26562.92
646.535	26423.03
646.888	26569.02
647.24	26513.2
647.593	26736.02
647.945	26632.52
648.298	26466.87
648.65	26315.01
649.002	26141.69
649.355	26137.84
649.707	25964.74
650.059	25909.6
650.411	26333.77
650.763	26488.57
651.115	27000.87
651.467	26915.9
651.819	26830.93
652.171	26988.89
652.523	26758.62
652.875	26895.56
653.227	26750.48
653.578	26980.53
653.93	26909.8
654.282	26707.09
654.633	26701.67
654.985	26895.34
655.337	26872.97
655.688	26798.84
656.039	26884.72
656.391	26642.01
656.742	26732.18
657.094	26665.74
657.445	26752.97
657.796	26890.59
658.147	26756.81
658.498	26875
658.849	27009.01
659.2	26741.22
659.551	26771.73
659.902	26978.73
660.253	26738.96
660.604	27108.67
660.955	26815.57
661.306	27035.9
661.656	26965.62
662.007	26866.41
662.358	26898.5
662.708	27059.85
663.059	26917.03
663.409	26919.29
663.76	26904.6
664.11	26927.43
664.461	27024.83
664.811	27178.04
665.161	27060.53
665.511	26890.59
665.862	26987.76
666.212	27073.41
666.562	27039.97
666.912	27061.44
667.262	26977.37
667.612	27114.54
667.962	27090.59
668.312	27046.52
668.662	27155.22
669.011	27175.56
669.361	27230.92
669.711	27081.32
670.06	27143.02
670.41	27124.71
670.76	27031.83
671.109	27193.18
671.459	27081.77
671.808	26987.54
672.157	27013.53
672.507	26880.88
672.856	26900.08
673.205	26890.82
673.554	27026.41
673.904	26896.92
674.253	27143.24
674.602	26967.65
674.951	26562.92
675.3	26346.65
675.649	26992.28
675.998	26845.62
676.346	26809.46
676.695	26856.92
677.044	26733.08
677.393	26852.18
677.741	26804.94
678.09	26699.18
678.438	26718.39
678.787	26832.97
679.135	26607.44
679.484	26567.66
679.832	26499.19
680.181	26518.62
680.529	26534.44
680.877	26408.35
681.225	26451.51
681.573	26592.52
681.922	26310.27
682.27	26226.88
682.618	26298.74
682.966	26214
683.314	26264.17
683.661	26168.8
684.009	26073.66
684.357	26025.53
684.705	25843.16
685.053	25902.6
685.4	25713.9
685.748	25774.01
686.095	25728.36
686.443	25549.84
686.79	25657.86
687.138	25597.07
687.485	25416.28
687.832	25310.52
688.18	25412.67
688.527	25261.48
688.874	25194.82
689.221	25232.33
689.568	24996.18
689.915	24951.43
690.262	24979.91
690.609	24954.15
690.956	24769.52
691.303	24785.34
691.65	24579.69
691.997	24533.37
692.344	24421.96
692.69	24455.85
693.037	24461.28
693.383	24073.72
693.73	24332.92
694.077	24102.19
694.423	24004.57
694.769	23926.15
695.116	23800.5
695.462	23747.17
695.808	23535.43
696.155	23675.76
696.501	23536.78
696.847	23528.19
697.193	23343.34
697.539	23273.96
697.885	23132.5
698.231	23116.45
698.577	23069.68
698.923	23078.26
699.269	22862.22
699.614	22746.52
699.96	22589.46
700.306	22692.51
700.651	22510.59
700.997	22475.79
701.342	22433.53
701.688	22373.65
702.033	22220.21
702.379	22231.96
702.724	22077.61
703.069	22049.14
703.415	21838.52
703.76	21823.38
704.105	21850.72
704.45	21632.65
704.795	21583.61
705.14	21469.72
705.485	21551.07
705.83	21353.79
706.175	21399.89
706.52	21321.25
706.865	21103.63
707.209	21022.05
707.554	21094.13
707.899	21059.33
708.243	20950.18
708.588	20835.61
708.932	20801.94
709.277	20834.93
709.621	20738.44
709.966	20640.14
710.31	20596.75
710.654	20495.28
710.998	20522.4
711.342	20455.96
711.687	20373.48
712.031	20317.21
712.375	20163.99
712.719	20286.25
713.063	20184.33
713.407	20305
713.75	20270.2
714.094	20104.33
714.438	19995.86
714.782	20021.39
715.125	19917.22
715.469	20091
715.812	19964.9
716.156	19879.48
716.499	19957.89
716.843	19968.06
717.186	19874.05
717.53	19994.73
717.873	19930.1
718.216	19793.6
718.559	19844.9
718.902	19688.97
719.246	19684
719.589	19751.12
719.932	19618.24
720.275	19676.09
720.617	19590.22
720.96	19605.13
721.303	19633.38
721.646	19670.67
721.989	19570.33
722.331	19605.81
722.674	19525.59
723.016	19502.76
723.359	19505.7
723.701	19531.24
724.044	19499.6
724.386	19416.66
724.729	19555.42
725.071	19545.7
725.413	19422.54
725.755	19464.12
726.097	19423.22
726.439	19502.31
726.782	19533.5
727.124	19613.04
727.465	19479.71
727.807	19430.45
728.149	19554.06
728.491	19412.6
728.833	19436.33
729.175	19560.84
729.516	19468.19
729.858	19491.24
730.199	19504.35
730.541	19536.21
730.882	19529.88
731.224	19504.57
731.565	19583.44
731.906	19596.55
732.248	19634.29
732.589	19650.33
732.93	19512.03
733.271	19637.22
733.612	19634.51
733.953	19702.98
734.294	19659.14
734.635	19673.38
734.976	19768.29
735.317	19818.46
735.658	19767.16
735.999	19811.91
736.339	19855.98
736.68	19827.05
737.021	19952.7
737.361	19848.07
737.702	19973.49
738.042	19902.3
738.383	20074.05
738.723	20130.54
739.063	20039.7
739.404	20276.98
739.744	20232.01
740.084	20281.27
740.424	20325.12
740.764	20292.35
741.104	20418.67
741.444	20563.98
741.784	20597.42
742.124	20712.9
742.464	20792.22
742.804	20739.79
743.143	20807.59
743.483	20930.07
743.823	20860.24
744.162	20993.35
744.502	21163.74
744.841	21064.3
745.181	21435.59
745.52	21465.65
745.86	21522.82
746.199	21615.25
746.538	21716.72
746.877	21881.68
747.216	22002.59
747.556	22143.6
747.895	22274.22
748.234	22368.23
748.573	22506.3
748.911	22552.63
749.25	22736.8
749.589	22960.98
749.928	23129.56
750.267	23331.14
750.605	23255.43
750.944	23591.92
751.283	23578.59
751.621	23911.46
751.96	23981.06
752.298	24120.95
752.636	24383.54
752.975	24494.05
753.313	24609.52
753.651	24998.66
753.989	25037.99
754.327	25157.08
754.666	25231.2
755.004	25536.5
