Data from 18-5621_FLMS001491_004.txt Node
Date: Thu Apr 19 15:15:22 BST 2018
User: hsy
Spectrometer: FLMS00149
Trigger mode: 0
Integration Time (sec): 1.000000E-2
Scans to average: 10
Electric dark correction enabled: true
Nonlinearity correction enabled: false
Boxcar width: 0
XAxis mode: Wavelengths
Number of Pixels in Spectrum: 2048
>>>>>Begin Spectral Data<<<<<
341.393	-16.28
341.776	-16.28
342.16	-16.28
342.543	-33.69
342.927	-56.96
343.31	-73.23
343.693	-76.62
344.077	-61.48
344.46	-55.38
344.843	-61.26
345.226	-49.73
345.61	-42.27
345.993	-16.51
346.376	4.51
346.759	-0.24
347.142	25.3
347.525	54
347.908	61.91
348.291	75.92
348.674	102.81
349.057	112.3
349.44	157.95
349.823	139.87
350.206	157.72
350.588	221.67
350.971	244.5
351.354	259.19
351.737	270.26
352.119	267.32
352.502	275.91
352.884	298.74
353.267	307.55
353.65	305.74
354.032	313.42
354.414	349.13
354.797	345.06
355.179	355
355.562	357.94
355.944	354.78
356.326	367.43
356.709	373.08
357.091	366.3
357.473	389.13
357.855	385.96
358.238	380.31
358.62	387.77
359.002	365.85
359.384	367.89
359.766	366.98
360.148	390.94
360.53	375.57
360.912	354.1
361.294	381.22
361.676	376.25
362.057	362.24
362.439	383.7
362.821	379.41
363.203	358.62
363.584	350.94
363.966	367.43
364.348	376.93
364.729	366.08
365.111	361.11
365.493	346.64
365.874	401.11
366.256	353.87
366.637	366.3
367.019	361.33
367.4	368.34
367.781	343.93
368.163	359.52
368.544	373.31
368.925	376.25
369.306	380.09
369.688	361.56
370.069	361.11
370.45	346.42
370.831	376.93
371.212	375.8
371.593	364.95
371.974	351.16
372.355	349.81
372.736	387.32
373.117	373.31
373.498	378.51
373.879	371.28
374.26	363.82
374.641	368.56
375.021	374.67
375.402	368.56
375.783	381.67
376.163	375.12
376.544	392.52
376.925	380.77
377.305	386.42
377.686	384.61
378.066	375.8
378.447	387.77
378.827	385.96
379.208	369.02
379.588	399.52
379.968	409.24
380.349	390.26
380.729	409.47
381.109	400.88
381.489	402.01
381.87	412.18
382.25	419.41
382.63	420.54
383.01	385.74
383.39	417.6
383.77	407.21
384.15	413.76
384.53	420.09
384.91	419.18
385.29	433.65
385.67	421.44
386.049	436.13
386.429	421.44
386.809	431.84
387.189	451.73
387.568	448.56
387.948	453.99
388.328	444.27
388.707	457.6
389.087	448.11
389.466	469.58
389.846	459.41
390.225	453.08
390.605	446.75
390.984	473.42
391.363	482.69
391.743	483.81
392.122	477.26
392.501	498.28
392.881	484.49
393.26	493.08
393.639	506.87
394.018	508.22
394.397	504.83
394.776	495.11
395.155	523.14
395.534	520.65
395.913	505.51
396.292	524.94
396.671	536.47
397.05	503.25
397.429	526.3
397.808	534.89
398.186	542.12
398.565	533.98
398.944	527.43
399.323	567.88
399.701	559.07
400.08	545.28
400.458	559.52
400.837	561.33
401.215	574.89
401.594	568.78
401.972	574.21
402.351	567.2
402.729	550.25
403.107	573.76
403.486	588.67
403.864	612.63
404.242	582.34
404.62	632.51
404.999	631.61
405.377	629.35
405.755	640.65
406.133	618.73
406.511	629.8
406.889	626.64
407.267	620.53
407.645	638.39
408.023	648.56
408.401	641.32
408.779	665.28
409.156	684.04
409.534	679.29
409.912	701.89
410.29	714.54
410.667	747.76
411.045	734.66
411.422	731.04
411.8	726.75
412.178	771.27
412.555	755.45
412.933	768.55
413.31	770.36
413.687	778.5
414.065	791.6
414.442	799.51
414.819	791.6
415.197	799.29
415.574	820.98
415.951	829.12
416.328	847.87
416.705	829.57
417.082	852.84
417.46	853.3
417.837	876.12
418.214	844.03
418.591	892.17
418.967	878.61
419.344	904.37
419.721	907.08
420.098	926.52
420.475	917.7
420.852	909.57
421.228	919.28
421.605	946.63
421.982	931.71
422.358	955.67
422.735	974.88
423.111	952.96
423.488	995.44
423.864	993.41
424.241	1009
424.617	1028.66
424.994	988.21
425.37	1015.55
425.746	1027.08
426.123	1065.04
426.499	1037.7
426.875	1046.06
427.251	1060.3
427.627	1087.41
428.003	1116.11
428.379	1145.04
428.756	1119.5
429.132	1111.37
429.507	1158.6
429.883	1158.6
430.259	1178.94
430.635	1197.69
431.011	1218.94
431.387	1220.07
431.763	1216.9
432.138	1232.27
432.514	1279.27
432.89	1267.3
433.265	1288.09
433.641	1308.43
434.016	1313.85
434.392	1328.99
434.767	1325.83
435.143	1353.85
435.518	1341.87
435.894	1379.16
436.269	1407.18
436.644	1415.09
437.02	1444.24
437.395	1454.86
437.77	1459.16
438.145	1461.64
438.52	1508.65
438.895	1505.48
439.271	1512.71
439.646	1527.86
440.021	1536.22
440.395	1557.46
440.77	1535.09
441.145	1569.66
441.52	1589.1
441.895	1602.2
442.27	1617.34
442.645	1590.9
443.019	1656.89
443.394	1616.21
443.769	1633.39
444.143	1633.16
444.518	1680.17
444.892	1652.15
445.267	1670.68
445.641	1702.99
446.016	1668.64
446.39	1719.26
446.764	1734.4
447.139	1714.74
447.513	1733.05
447.887	1737.79
448.262	1780.5
448.636	1753.39
449.01	1794.97
449.384	1813.05
449.758	1818.47
450.132	1856.66
450.506	1836.32
450.88	1872.25
451.254	1874.51
451.628	1883.78
452.002	1942.76
452.376	1940.27
452.75	1952.02
453.123	1992.25
453.497	1973.49
453.871	2021.18
454.244	2057.33
454.618	2041.51
454.992	2073.15
455.365	2085.58
455.739	2159.03
456.112	2172.13
456.486	2173.94
456.859	2195.86
457.232	2235.86
457.606	2242.86
457.979	2257.33
458.352	2293.71
458.725	2337.55
459.099	2342.75
459.472	2435.63
459.845	2419.58
460.218	2431.33
460.591	2442.86
460.964	2529.86
461.337	2525.12
461.71	2586.13
462.083	2619.35
462.456	2573.25
462.829	2615.06
463.201	2665.45
463.574	2710.42
463.947	2731.89
464.32	2780.7
464.692	2768.73
465.065	2782.29
465.438	2834.04
465.81	2865.9
466.183	2878.33
466.555	2904.09
466.928	2957.65
467.3	2994.94
467.672	2989.06
468.045	3116.74
468.417	3111.09
468.789	3090.3
469.161	3099.34
469.534	3168.72
469.906	3197.87
470.278	3289.62
470.65	3319.22
471.022	3355.6
471.394	3361.03
471.766	3406.9
472.138	3474.24
472.51	3564.86
472.882	3598.31
473.253	3606.22
473.625	3627.69
473.997	3715.82
474.369	3741.81
474.74	3782.71
475.112	3907.91
475.484	3927.79
475.855	4017.73
476.227	4016.83
476.598	4168.69
476.97	4203.94
477.341	4249.82
477.713	4290.49
478.084	4332.3
478.455	4476.03
478.827	4496.36
479.198	4623.82
479.569	4631.05
479.94	4774.78
480.311	4781.78
480.682	4890.48
481.053	5020.87
481.424	5100.19
481.795	5150.36
482.166	5234.88
482.537	5342.9
482.908	5421.99
483.279	5497.02
483.65	5574.08
484.021	5657.92
484.391	5788.99
484.762	5809.78
485.133	5902.88
485.503	6027.4
485.874	6188.75
486.244	6197.11
486.615	6307.62
486.985	6425.58
487.356	6592.58
487.726	6596.2
488.097	6837.55
488.467	6832.8
488.837	6945.11
489.207	7072.34
489.578	7149.63
489.948	7283.18
490.318	7381.03
490.688	7424.2
491.058	7581.48
491.428	7737.86
491.798	7782.83
492.168	7959.78
492.538	8094.01
492.908	8165.19
493.278	8237.74
493.648	8338.3
494.017	8539.42
494.387	8608.8
494.757	8650.83
495.126	8776.03
495.496	8798.17
495.866	8962.46
496.235	9016.7
496.605	9161.33
496.974	9297.59
497.344	9359.74
497.713	9412.85
498.082	9559.28
498.452	9643.8
498.821	9740.29
499.19	9782.55
499.559	9917.47
499.928	9968.09
500.298	10058.25
500.667	10215.08
501.036	10188.42
501.405	10340.28
501.774	10359.94
502.143	10483.55
502.512	10539.14
502.88	10606.71
503.249	10646.03
503.618	10783.21
503.987	10891
504.356	10904.56
504.724	10982.75
505.093	11052.8
505.462	11153.82
505.83	11168.05
506.199	11305.23
506.567	11503.41
506.936	11447.82
507.304	11533.02
507.672	11621.38
508.041	11732.78
508.409	11811.43
508.777	11900.69
509.145	11982.95
509.514	12008.48
509.882	12138.88
510.25	12259.32
510.618	12339.77
510.986	12259.78
511.354	12455.25
511.722	12486.21
512.09	12657.96
512.458	12676.04
512.826	12703.38
513.193	12822.93
513.561	12833.55
513.929	12963.94
514.297	13040.55
514.664	13126.87
515.032	13138.4
515.4	13368.9
515.767	13343.14
516.135	13376.81
516.502	13293.87
516.869	13628.33
517.237	13659.74
517.604	13626.07
517.972	13790.13
518.339	13873.52
518.706	13860.64
519.073	13970.24
519.44	13989.67
519.808	14202.32
520.175	14246.16
520.542	14310.12
520.909	14398.7
521.276	14487.51
521.643	14657.23
522.009	14752.14
522.376	14916.2
522.743	14878.01
523.11	15026.71
523.477	15132.7
523.843	15202.75
524.21	15396.19
524.577	15421.73
524.943	15577.2
525.31	15595.28
525.676	15765.22
526.043	15838.44
526.409	15926.12
526.776	16085.66
527.142	16068.72
527.508	16247.02
527.874	16435.03
528.241	16486.78
528.607	16508.25
528.973	16694.69
529.339	16707.12
529.705	16898.3
530.071	16980.1
530.437	17038.63
530.803	17187.33
531.169	17228.46
531.535	17246.76
531.901	17317.5
532.267	17436.82
532.632	17543.03
532.998	17601.78
533.364	17684.49
533.73	17686.07
534.095	17824.83
534.461	17873.64
534.826	17920.19
535.192	17976.91
535.557	18028.66
535.923	18096.46
536.288	18182.78
536.653	18288.54
537.019	18228.66
537.384	18178.49
537.749	18279.96
538.114	18277.47
538.479	18312.72
538.845	18390.01
539.21	18347.98
539.575	18374.19
539.94	18547.07
540.305	18569.67
540.67	18446.51
541.034	18556.11
541.399	18511.82
541.764	18631.81
542.129	18701.87
542.494	18722.66
542.858	18820.96
543.223	18734.86
543.587	18793.39
543.952	18752.71
544.316	18752.94
544.681	18732.37
545.045	18784.12
545.41	18863.22
545.774	18730.11
546.138	18851.24
546.503	18899.6
546.867	18942.31
547.231	18956.1
547.595	19003.1
547.959	19011.01
548.324	18996.1
548.688	19077.22
549.052	19104.79
549.416	19071.35
549.779	19119.26
550.143	19040.84
550.507	19257.78
550.871	19171.46
551.235	19160.84
551.599	19359.02
551.962	19367.39
552.326	19393.6
552.689	19381.85
553.053	19306.6
553.417	19404
553.78	19553.14
554.143	19416.88
554.507	19542.52
554.87	19575.52
555.234	19708.17
555.597	19502.07
555.96	19515.63
556.323	19656.87
556.686	19760.14
557.05	19728.28
557.413	19761.73
557.776	19832.91
558.139	19946.58
558.502	20029.74
558.865	20033.36
559.228	20110.19
559.59	20329.62
559.953	20190.19
560.316	20500.46
560.679	20358.32
561.041	20619.56
561.404	20561.48
561.767	20592.21
562.129	20707.92
562.492	20844.64
562.854	20826.56
563.217	20856.84
563.579	20911.98
563.941	21091.41
564.304	21118.53
564.666	21334.34
565.028	21319.65
565.39	21406.2
565.753	21630.38
566.115	21686.42
566.477	21845.97
566.839	21880.54
567.201	22096.35
567.563	22052.74
567.925	22365.73
568.287	22318.5
568.648	22433.29
569.01	22551.48
569.372	22754.87
569.734	22835.54
570.095	22976.1
570.457	23157.8
570.819	23161.41
571.18	23228.75
571.542	23456.77
571.903	23562.53
572.265	23693.6
572.626	23844.78
572.987	23863.09
573.349	24131.78
573.71	24241.38
574.071	24316.18
574.432	24354.83
574.794	24633.46
575.155	24624.65
575.516	24708.49
575.877	24879.78
576.238	24880.24
576.599	25139.89
576.96	24976.28
577.32	25206.1
577.681	25350.51
578.042	25497.17
578.403	25509.82
578.763	25520.44
579.124	25535.81
579.485	25776.94
579.845	25865.07
580.206	25865.52
580.566	25884.5
580.927	25987.78
581.287	26110.03
581.648	26098.28
582.008	26245.62
582.368	26322.01
582.728	26234.78
583.089	26337.37
583.449	26376.69
583.809	26331.27
584.169	26550.7
584.529	26419.63
584.889	26579.63
585.249	26377.37
585.609	26426.64
585.969	26583.24
586.329	26489.46
586.688	26582.56
587.048	26635.22
587.408	26700.53
587.768	26669.12
588.127	26707.53
588.487	26633.18
588.846	26915.89
589.206	26627.76
589.565	26672.96
589.925	26792.95
590.284	26673.86
590.643	26656.23
591.003	26783.24
591.362	27005.6
591.721	26838.15
592.08	26895.32
592.44	27016
592.799	27045.15
593.158	26921.76
593.517	26965.6
593.876	27128.09
594.235	26929.67
594.593	26998.82
594.952	27017.81
595.311	26973.06
595.67	27067.3
596.029	27232.94
596.387	27265.03
596.746	27276.78
597.104	27167.63
597.463	27005.15
597.822	27323.34
598.18	27189.1
598.538	27235.2
598.897	27341.19
599.255	27146.62
599.613	27477.68
599.972	27302.54
600.33	27457.12
600.688	27256.9
601.046	27351.13
601.404	27512.48
601.762	27502.54
602.12	27496.66
602.478	27601.97
602.836	27623.89
603.194	27394.29
603.552	27629.99
603.91	27402.43
604.268	27561.07
604.625	27473.61
604.983	27737.56
605.341	27528.53
605.698	27700.73
606.056	27712.7
606.413	27653.72
606.771	27804.45
607.128	27833.15
607.485	27747.05
607.843	27677
608.2	27864.34
608.557	27943.21
608.914	27810.78
609.272	27958.12
609.629	28141.62
609.986	28219.13
610.343	28095.29
610.7	28234.72
611.057	28222.52
611.414	28220.94
611.771	28328.51
612.127	28477.66
612.484	28319.47
612.841	28465.23
613.198	28226.36
613.554	28269.07
613.911	28529.63
614.267	28561.72
614.624	28391.56
614.98	28505.9
615.337	28707.48
615.693	28666.12
616.05	28716.74
616.406	28895.27
616.762	28670.19
617.118	28737.31
617.475	28773.24
617.831	28964.65
618.187	28827.7
618.543	28937.76
618.899	29107.02
619.255	29008.71
619.611	28985.89
619.967	29079.9
620.323	29118.99
620.678	28955.16
621.034	29021.82
621.39	28918.1
621.746	28977.76
622.101	29348.59
622.457	29009.17
622.812	29224.53
623.168	29165.77
623.523	29135.49
623.879	29267.01
624.234	29008.94
624.589	29111.76
624.945	29304.98
625.3	29200.35
625.655	29198.77
626.01	29194.47
626.365	29266.79
626.72	29226.56
627.075	29054.59
627.43	29262.04
627.785	29245.54
628.14	29203.96
628.495	29197.64
628.85	29219.56
629.205	29142.27
629.559	29406.9
629.914	29036.74
630.269	29208.71
630.623	29056.17
630.978	28957.42
631.332	29083.51
631.687	29050.75
632.041	29021.37
632.396	29014.82
632.75	28949.96
633.104	29116.51
633.459	28958.32
633.813	28915.84
634.167	28826.57
634.521	28766.24
634.875	28882.39
635.229	28842.62
635.583	28718.55
635.937	28734.6
636.291	28660.02
636.645	28692.11
636.999	28581.83
637.352	28541.38
637.706	28359.01
638.06	28560.36
638.413	28426.58
638.767	28348.62
639.121	28555.39
639.474	28285.57
639.828	28246.02
640.181	28234.95
640.534	28414.83
640.888	28245.12
641.241	28046.48
641.594	28088.74
641.947	28273.14
642.301	28081.73
642.654	28132.81
643.007	28180.94
643.36	28148.4
643.713	28121.05
644.066	28131
644.419	27887.16
644.771	27646.04
645.124	27442.88
645.477	27477
645.83	27304.58
646.182	27411.92
646.535	27459.83
646.888	27579.6
647.24	27439.49
647.593	27566.94
647.945	27473.39
648.298	27280.85
648.65	27237.91
649.002	27108.2
649.355	26865.27
649.707	26766.06
650.059	26794.08
650.411	27197.91
650.763	27426.84
651.115	27742.08
651.467	27720.61
651.819	27802.64
652.171	27723.78
652.523	27660.5
652.875	27781.4
653.227	27671.12
653.578	27689.65
653.93	27704.57
654.282	27563.33
654.633	27519.71
654.985	27578.24
655.337	27510.9
655.688	27604.46
656.039	27822.76
656.391	27403.79
656.742	27631.12
657.094	27581.63
657.445	27576.89
657.796	27597.68
658.147	27658.69
658.498	27779.82
658.849	27659.82
659.2	27672.03
659.551	27577.57
659.902	27855.52
660.253	27687.62
660.604	27738.69
660.955	27694.62
661.306	27884.45
661.656	27844.45
662.007	27718.13
662.358	27808.75
662.708	27991.57
663.059	27841.29
663.409	27664.8
663.76	27842.19
664.11	27834.06
664.461	27873.83
664.811	27921.06
665.161	27900.5
665.511	27977.78
665.862	27909.31
666.212	27900.04
666.562	27968.06
666.912	28049.87
667.262	27804
667.612	27941.62
667.962	28020.94
668.312	27926.94
668.662	27938.46
669.011	28006.48
669.361	28005.8
669.711	27972.36
670.06	27835.64
670.41	27902.98
670.76	27897.11
671.109	28083.77
671.459	27867.73
671.808	27908.18
672.157	27884
672.507	27677.9
672.856	27720.61
673.205	27952.47
673.554	27912.7
673.904	27761.74
674.253	28018.68
674.602	27739.6
674.951	27422.54
675.3	27286.5
675.649	27821.85
675.998	27756.32
676.346	27797.9
676.695	27836.77
677.044	27584.8
677.393	27607.17
677.741	27704.79
678.09	27632.25
678.438	27553.16
678.787	27667.73
679.135	27503.67
679.484	27461.41
679.832	27570.11
680.181	27418.25
680.529	27373.5
680.877	27250.79
681.225	27192.94
681.573	27438.13
681.922	27138.71
682.27	27081.08
682.618	27115.21
682.966	27026.39
683.314	27031.82
683.661	27068.2
684.009	26958.37
684.357	26798.15
684.705	26647.42
685.053	26757.47
685.4	26586.63
685.748	26533.75
686.095	26641.55
686.443	26337.6
686.79	26383.92
687.138	26420.31
687.485	26352.06
687.832	26185.29
688.18	26175.12
688.527	26148.9
688.874	26050.83
689.221	26062.8
689.568	25791.17
689.915	25738.07
690.262	25784.17
690.609	25673.89
690.956	25499.65
691.303	25496.94
691.65	25332.2
691.997	25350.51
692.344	25162.94
692.69	25079.55
693.037	25170.17
693.383	24999.1
693.73	25001.81
694.077	24879.11
694.423	24740.13
694.769	24825.55
695.116	24597.08
695.462	24544.43
695.808	24412.9
696.155	24293.58
696.501	24188.28
696.847	24271.44
697.193	23993.03
697.539	24018.56
697.885	23794.16
698.231	23694.28
698.577	23655.41
698.923	23583.55
699.269	23387.62
699.614	23341.52
699.96	23292.71
700.306	23279.6
700.651	23146.72
700.997	23021.75
701.342	22987.63
701.688	22932.04
702.033	22780.18
702.379	22807.3
702.724	22698.37
703.069	22756.22
703.415	22372.96
703.76	22476.68
704.105	22350.81
704.45	22254.99
704.795	22151.04
705.14	22139.97
705.485	22127.99
705.83	21865.85
706.175	22068.11
706.52	21943.14
706.865	21811.84
707.209	21757.61
707.554	21591.28
707.899	21668.79
708.243	21522.81
708.588	21429.03
708.932	21386.77
709.277	21284.17
709.621	21285.75
709.966	21176.6
710.31	21217.28
710.654	21047.34
710.998	21128.24
711.342	21166.89
711.687	20933.45
712.031	20928.48
712.375	20815.26
712.719	20814.81
713.063	20731.42
713.407	20981.81
713.75	20720.12
714.094	20795.15
714.438	20721.7
714.782	20706.56
715.125	20573.46
715.469	20767.35
715.812	20494.81
716.156	20481.93
716.499	20449.39
716.843	20531.2
717.186	20387.02
717.53	20537.52
717.873	20457.98
718.216	20544.53
718.559	20370.3
718.902	20240.81
719.246	20312.9
719.589	20226.12
719.932	20178.66
720.275	20219.57
720.617	20284.42
720.96	20220.02
721.303	20107.03
721.646	20240.58
721.989	20142.28
722.331	20257.76
722.674	20187.48
723.016	20179.12
723.359	20147.7
723.701	20243.97
724.044	20056.86
724.386	20013.92
724.729	20160.13
725.071	20176.86
725.413	20142.96
725.755	20172.56
726.097	20162.85
726.439	20063.64
726.782	20079.91
727.124	20178.66
727.465	20121.49
727.807	20028.84
728.149	20095.05
728.491	20083.07
728.833	20163.3
729.175	20093.69
729.516	20175.95
729.858	20018.44
730.199	20140.47
730.541	20228.61
730.882	20131.43
731.224	20229.74
731.565	20163.98
731.906	20116.75
732.248	20342.05
732.589	20161.26
732.93	20113.81
733.271	20269.74
733.612	20227.02
733.953	20274.26
734.294	20315.61
734.635	20234.26
734.976	20448.49
735.317	20339.11
735.658	20383.4
735.999	20375.27
736.339	20448.26
736.68	20497.3
737.021	20486.68
737.361	20489.39
737.702	20621.82
738.042	20573.91
738.383	20645.09
738.723	20728.93
739.063	20697.97
739.404	20918.31
739.744	20842.83
740.084	20919.89
740.424	21031.75
740.764	21033.33
741.104	21159.2
741.444	21137.74
741.784	21137.51
742.124	21299.09
742.464	21346.32
742.804	21370.95
743.143	21432.42
743.483	21642.58
743.823	21597.61
744.162	21757.83
744.502	21909.92
744.841	21859.07
745.181	22077.6
745.52	22103.59
745.86	22181.1
746.199	22302.9
746.538	22410.7
746.877	22637.58
747.216	22688.88
747.556	22732.72
747.895	22865.15
748.234	23057.01
748.573	23177.68
748.911	23170
749.25	23471.01
749.589	23451.57
749.928	23818.57
750.267	23856.08
750.605	23940.83
750.944	24098.34
751.283	24249.29
751.621	24432.11
751.96	24496.06
752.298	24720.69
752.636	24835.94
752.975	25023.06
753.313	25062.83
753.651	25489.49
753.989	25467.79
754.327	25743.72
754.666	25576.49
755.004	26121.78
755.342	26191.39
