Data from 19-1250_FLMS001491_005.txt Node
Date: Thu Apr 19 16:28:20 BST 2018
User: hsy
Spectrometer: FLMS00149
Trigger mode: 0
Integration Time (sec): 1.000000E-2
Scans to average: 10
Electric dark correction enabled: true
Nonlinearity correction enabled: false
Boxcar width: 0
XAxis mode: Wavelengths
Number of Pixels in Spectrum: 2048
>>>>>Begin Spectral Data<<<<<
341.393	-24.42
341.776	-24.42
342.16	-24.42
342.543	-63.97
342.927	-83.85
343.31	-71.2
343.693	-83.85
344.077	-59.45
344.46	-80.46
344.843	-58.77
345.226	-40.01
345.61	-1.14
345.993	-25.55
346.376	-9.73
346.759	19.42
347.142	28.23
347.525	38.85
347.908	67.55
348.291	78.4
348.674	83.6
349.057	114.11
349.44	140.32
349.823	144.16
350.206	177.38
350.588	214.9
350.971	250.83
351.354	258.74
351.737	250.6
352.119	304.38
352.502	294.44
352.884	307.32
353.267	307.32
353.65	321.11
354.032	323.14
354.414	353.87
354.797	361.78
355.179	354.33
355.562	368.11
355.944	373.31
356.326	359.3
356.709	350.49
357.091	375.8
357.473	404.27
357.855	378.96
358.238	378.06
358.62	372.18
359.002	382.57
359.384	372.63
359.766	371.73
360.148	377.15
360.53	362.46
360.912	392.07
361.294	379.18
361.676	367.89
362.057	367.66
362.439	389.81
362.821	360.88
363.203	359.98
363.584	357.72
363.966	362.91
364.348	397.72
364.729	377.15
365.111	350.94
365.493	342.58
365.874	385.06
366.256	363.59
366.637	350.03
367.019	362.69
367.4	363.59
367.781	344.61
368.163	364.95
368.544	374.89
368.925	385.06
369.306	395.23
369.688	366.98
370.069	362.69
370.45	363.14
370.831	373.76
371.212	379.64
371.593	390.26
371.974	354.55
372.355	390.48
372.736	370.6
373.117	384.38
373.498	384.61
373.879	379.86
374.26	362.91
374.641	369.47
375.021	371.95
375.402	374.21
375.783	389.81
376.163	395.23
376.544	385.74
376.925	417.38
377.305	413.99
377.686	382.57
378.066	413.99
378.447	386.87
378.827	414.21
379.208	406.53
379.588	417.15
379.968	412.86
380.349	409.92
380.729	405.17
381.109	437.94
381.489	424.61
381.87	440.43
382.25	413.99
382.63	409.47
383.01	466.41
383.39	447.88
383.77	422.35
384.15	426.87
384.53	437.49
384.91	444.27
385.29	460.31
385.67	442.91
386.049	452.18
386.429	470.93
386.809	457.15
387.189	461.67
387.568	446.08
387.948	467.54
388.328	472.52
388.707	474.55
389.087	488.11
389.466	488.11
389.846	511.16
390.225	484.27
390.605	494.21
390.984	496.24
391.363	474.55
391.743	500.99
392.122	496.7
392.501	481.78
392.881	518.16
393.26	509.35
393.639	515
394.018	526.75
394.397	541.44
394.776	507.09
395.155	547.77
395.534	530.82
395.913	555.23
396.292	543.02
396.671	557.49
397.05	543.47
397.429	561.33
397.808	561.33
398.186	552.97
398.565	559.07
398.944	558.62
399.323	561.1
399.701	560.88
400.08	581.44
400.458	574.66
400.837	592.74
401.215	591.38
401.594	585.51
401.972	608.78
402.351	581.89
402.729	599.97
403.107	611.04
403.486	608.78
403.864	612.85
404.242	615.11
404.62	615.56
404.999	641.55
405.377	638.84
405.755	666.64
406.133	639.97
406.511	633.87
406.889	661.89
407.267	670.93
407.645	663.25
408.023	685.39
408.401	667.54
408.779	702.57
409.156	706.86
409.534	704.37
409.912	740.98
410.29	736.24
410.667	731.04
411.045	730.59
411.422	727.42
411.8	747.54
412.178	762
412.555	766.29
412.933	782.56
413.31	790.47
413.687	798.61
414.065	778.95
414.442	790.47
414.819	829.12
415.197	824.82
415.574	848.33
415.951	830.47
416.328	849
416.705	825.27
417.082	851.26
417.46	879.51
417.837	850.58
418.214	886.52
418.591	875.22
418.967	891.94
419.344	907.76
419.721	915.22
420.098	904.82
420.475	928.32
420.852	897.82
421.228	916.57
421.605	954.31
421.982	922.45
422.358	919.51
422.735	940.3
423.111	959.96
423.488	965.84
423.864	965.61
424.241	991.82
424.617	990.69
424.994	999.06
425.37	995.89
425.746	1022.78
426.123	1025.27
426.499	1032.05
426.875	1047.19
427.251	1072.95
427.627	1068.66
428.003	1076.12
428.379	1075.66
428.756	1086.96
429.132	1109.11
429.507	1120.63
429.883	1152.05
430.259	1151.14
430.635	1175.55
431.011	1173.51
431.387	1166.73
431.763	1202.67
432.138	1198.82
432.514	1234.76
432.89	1225.04
433.265	1250.35
433.641	1271.14
434.016	1282.44
434.392	1286.05
434.767	1340.29
435.143	1305.94
435.518	1328.31
435.894	1354.3
436.269	1380.51
436.644	1391.36
437.02	1381.64
437.395	1411.7
437.77	1424.58
438.145	1458.7
438.52	1440.63
438.895	1472.49
439.271	1469.78
439.646	1488.76
440.021	1510.68
440.395	1484.47
440.77	1490.57
441.145	1530.34
441.52	1515.65
441.895	1530.79
442.27	1549.1
442.645	1540.96
443.019	1545.48
443.394	1556.33
443.769	1599.49
444.143	1575.76
444.518	1590.23
444.892	1594.07
445.267	1608.53
445.641	1596.55
446.016	1638.81
446.39	1631.58
446.764	1639.94
447.139	1671.13
447.513	1688.53
447.887	1695.76
448.262	1662.77
448.636	1665.03
449.01	1694.63
449.384	1728.75
449.758	1747.96
450.132	1795.87
450.506	1768.07
450.88	1796.77
451.254	1797.45
451.628	1848.3
452.002	1854.4
452.376	1862.31
452.75	1868.64
453.123	1869.09
453.497	1900.5
453.871	1922.87
454.244	1945.47
454.618	1961.29
454.992	2023.66
455.365	1985.92
455.739	2064.79
456.112	2080.38
456.486	2115.18
456.859	2107.28
457.232	2116.99
457.606	2157.9
457.979	2173.49
458.352	2211.68
458.725	2235.18
459.099	2231.57
459.472	2271.56
459.845	2294.61
460.218	2337.1
460.591	2343.88
460.964	2391.11
461.337	2407.15
461.71	2448.28
462.083	2481.5
462.456	2488.73
462.829	2492.58
463.201	2545.68
463.574	2554.95
463.947	2586.81
464.32	2611.89
464.692	2647.37
465.065	2678.56
465.438	2671.33
465.81	2746.58
466.183	2744.77
466.555	2852.79
466.928	2818.67
467.3	2850.08
467.672	2888.95
468.045	2966.69
468.417	2929.17
468.789	3014.37
469.161	3015.5
469.534	3058.66
469.906	3086.23
470.278	3142.28
470.65	3171.88
471.022	3231.77
471.394	3292.78
471.766	3280.35
472.138	3356.73
472.51	3385.66
472.882	3413.68
473.253	3480.8
473.625	3564.19
473.997	3613
474.369	3636.05
474.74	3665.88
475.112	3734.12
475.484	3793.11
475.855	3792.2
476.227	3882.37
476.598	3981.58
476.97	4036.49
477.341	4108.13
477.713	4117.39
478.084	4198.52
478.455	4305.41
478.827	4339.31
479.198	4442.13
479.569	4436.71
479.94	4598.51
480.311	4665.63
480.682	4742.91
481.053	4891.83
481.424	4924.15
481.795	4954.66
482.166	5034.66
482.537	5100.42
482.908	5164.82
483.279	5291.82
483.65	5415.89
484.021	5515.32
484.391	5579.27
484.762	5644.36
485.133	5745.37
485.503	5786.95
485.874	5963.67
486.244	6019.71
486.615	6081.18
486.985	6188.52
487.356	6324.11
487.726	6357.78
488.097	6534.5
488.467	6579.7
488.837	6707.61
489.207	6779.24
489.578	6866.92
489.948	6984.66
490.318	7082.06
490.688	7098.33
491.058	7276.4
491.428	7379
491.798	7428.72
492.168	7616.96
492.538	7666.45
492.908	7830.74
493.278	7885.2
493.648	7942.83
494.017	8054.92
494.387	8172.65
494.757	8239.09
495.126	8328.81
495.496	8418.3
495.866	8496.26
496.235	8588.69
496.605	8705.29
496.974	8789.13
497.344	8912.29
497.713	8944.38
498.082	8978.96
498.452	9082.01
498.821	9180.54
499.19	9237.26
499.559	9352.28
499.928	9395.22
500.298	9507.08
500.667	9623.46
501.036	9592.95
501.405	9729.9
501.774	9845.15
502.143	9934.41
502.512	9928.99
502.88	10098.7
503.249	10111.58
503.618	10200.85
503.987	10248.53
504.356	10312.71
504.724	10372.82
505.093	10451.91
505.462	10549.99
505.83	10641.29
506.199	10697.33
506.567	10885.12
506.936	10864.33
507.304	11024.78
507.672	11051.67
508.041	11111.78
508.409	11282.18
508.777	11314.26
509.145	11448.27
509.514	11461.61
509.882	11542.73
510.25	11575.27
510.618	11697.76
510.986	11782.95
511.354	11837.19
511.722	12010.07
512.09	12100.46
512.458	12102.04
512.826	12206.22
513.193	12345.65
513.561	12356.95
513.929	12459.09
514.297	12529.15
514.664	12586.77
515.032	12739.09
515.4	12909.93
515.767	12970.04
516.135	13002.13
516.502	13036.93
516.869	13279.41
517.237	13295.46
517.604	13284.38
517.972	13392.63
518.339	13520.76
518.706	13649.34
519.073	13645.73
519.44	13815.22
519.808	13955.55
520.175	14053.85
520.542	14189.22
520.909	14287.75
521.276	14349.89
521.643	14511.92
522.009	14554.63
522.376	14780.39
522.743	14815.87
523.11	15043.66
523.477	15120.04
523.843	15188.97
524.21	15430.31
524.577	15621.04
524.943	15664.66
525.31	15736.3
525.676	15918.66
526.043	16052.45
526.409	16181.71
526.776	16350.74
527.142	16420.57
527.508	16480.46
527.874	16741.69
528.241	16771.75
528.607	16921.12
528.973	17061.91
529.339	17098.97
529.705	17309.14
530.071	17462.58
530.437	17556.59
530.803	17628.45
531.169	17783.7
531.535	17798.84
531.901	17914.54
532.267	18006.74
532.632	18191.15
532.998	18244.03
533.364	18402.89
533.73	18500.29
534.095	18586.39
534.461	18713.62
534.826	18776.67
535.192	18833.39
535.557	18945.25
535.923	18954.29
536.288	19094.4
536.653	19165.81
537.019	19277.67
537.384	19335.75
537.749	19271.34
538.114	19511.34
538.479	19495.97
538.845	19598.57
539.21	19666.81
539.575	19662.07
539.94	19770.09
540.305	19904.55
540.67	19953.59
541.034	20034.49
541.399	20144.99
541.764	20199.45
542.129	20195.61
542.494	20299.11
542.858	20395.83
543.223	20406.68
543.587	20449.62
543.952	20534.36
544.316	20623.62
544.681	20614.36
545.045	20785.43
545.41	20841.25
545.774	20866.33
546.138	20914.46
546.503	20972.54
546.867	21022.94
547.231	21157.62
547.595	21242.82
547.959	21332.31
548.324	21280.1
548.688	21390.38
549.052	21446.88
549.416	21462.7
549.779	21518.29
550.143	21708.79
550.507	21822.01
550.871	21855.23
551.235	21863.59
551.599	22122.57
551.962	22069.91
552.326	22186.3
552.689	22285.05
553.053	22182.45
553.417	22314.43
553.78	22547.64
554.143	22506.06
554.507	22619.96
554.87	22723.46
555.234	22986.73
555.597	22841.65
555.96	22939.95
556.323	23142.2
556.686	23156.44
557.05	23391.46
557.413	23464
557.776	23481.63
558.139	23626.94
558.502	23780.38
558.865	23828.51
559.228	23963.65
559.59	24050.2
559.953	23977.89
560.316	24329.52
560.679	24366.8
561.041	24521.6
561.404	24672.78
561.767	24860.12
562.129	24800.46
562.492	25055.82
562.854	25157.06
563.217	25116.16
563.579	25328.59
563.941	25487
564.304	25543.95
564.666	25842.47
565.028	25818.29
565.39	25915.91
565.753	26043.14
566.115	26250.37
566.477	26409.46
566.839	26430.93
567.201	26796.34
567.563	26754.76
567.925	26917.7
568.287	27064.13
568.648	27096.67
569.01	27349.1
569.372	27566.72
569.734	27458.25
570.095	27769.43
570.457	27998.35
570.819	27947.95
571.18	28036.31
571.542	28320.15
571.903	28366.92
572.265	28458.9
572.626	28629.52
572.987	28697.76
573.349	28864.09
573.71	28922.39
574.071	29119.45
574.432	29440.79
574.794	29532.09
575.155	29634.23
575.516	29760.79
575.877	29766.66
576.238	29838.3
576.599	29964.4
576.96	30134.79
577.32	30184.28
577.681	30255.24
578.042	30502.01
578.403	30547.66
578.763	30657.26
579.124	30680.76
579.485	30982.45
579.845	30958.95
580.206	30967.53
580.566	31244.81
580.927	31230.13
581.287	31328.88
581.648	31317.35
582.008	31575.43
582.368	31530.68
582.728	31646.84
583.089	31631.47
583.449	31741.3
583.809	31965.93
584.169	32055.19
584.529	31989.65
584.889	32243.66
585.249	32243.21
585.609	32237.78
585.969	32505.8
586.329	32551.22
586.688	32738.56
587.048	32873.7
587.408	32866.24
587.768	32895.39
588.127	33027.37
588.487	33051.32
588.846	33494.92
589.206	33291.31
589.565	33405.66
589.925	33812.66
590.284	33869.83
590.643	33885.87
591.003	34058.53
591.362	34361.34
591.721	34350.95
592.08	34508.01
592.44	34630.04
592.799	34734.89
593.158	34863.48
593.517	35061.89
593.876	35319.06
594.235	35367.19
594.593	35494.42
594.952	35752.49
595.311	35869.1
595.67	35907.06
596.029	36128.08
596.387	36393.15
596.746	36697.78
597.104	36563.77
597.463	36714.73
597.822	36987.26
598.18	36959.24
598.538	37134.83
598.897	37624.99
599.255	37477.87
599.613	37977.07
599.972	37754.47
600.33	37893.23
600.688	38124.18
601.046	38323.5
601.404	38749.25
601.762	38678.29
602.12	38976.14
602.478	39086.19
602.836	39233.53
603.194	39116.7
603.552	39276.02
603.91	39276.02
604.268	39693.86
604.625	39675.78
604.983	39968.88
605.341	39847.07
605.698	40161.19
606.056	40641.86
606.413	40553.04
606.771	40887.27
607.128	40861.28
607.485	40947.16
607.843	40916.42
608.2	41201.39
608.557	41482.74
608.914	41387.15
609.272	41763.18
609.629	41871.2
609.986	42046.11
610.343	41944.65
610.7	42362.26
611.057	42289.27
611.414	42311.42
611.771	42536.04
612.127	42708.24
612.484	42900.1
612.841	43094.67
613.198	43087.89
613.554	43109.59
613.911	43199.98
614.267	43446.75
614.624	43468.67
614.98	43490.37
615.337	43750.47
615.693	43825.27
616.05	43712.28
616.406	44021.65
616.762	44051.26
617.118	44067.75
617.475	44038.15
617.831	44336.22
618.187	44514.97
618.543	44538.93
618.899	44761.97
619.255	44702.09
619.611	44672.26
619.967	44835.19
620.323	45084.45
620.678	44862.31
621.034	44893.04
621.39	45022.08
621.746	44870.44
622.101	45422.29
622.457	45082.64
622.812	45340.71
623.168	45453.93
623.523	45521.73
623.879	45679.91
624.234	45476.53
624.589	45643.76
624.945	45541.39
625.3	45745.68
625.655	45681.95
626.01	45718.11
626.365	45840.36
626.72	45812.34
627.075	45656.41
627.43	45817.31
627.785	45789.29
628.14	45842.62
628.495	45890.3
628.85	45890.08
629.205	45768.05
629.559	45892.34
629.914	45605.79
630.269	45911.32
630.623	45595.62
630.978	45578.22
631.332	45784.54
631.687	45819.8
632.041	45626.13
632.396	45568.28
632.75	45580.26
633.104	45697.32
633.459	45497.55
633.813	45338.68
634.167	45419.36
634.521	45424.78
634.875	45489.41
635.229	45333.71
635.583	45037.22
635.937	45168.29
636.291	45135.07
636.645	45006.49
636.999	45054.85
637.352	45013.94
637.706	44732.14
638.06	44979.37
638.413	44914.06
638.767	44802.2
639.121	44926.71
639.474	44714.52
639.828	44558.14
640.181	44653.28
640.534	44677.91
640.888	44539.83
641.241	44324.24
641.594	44509.1
641.947	44546.39
642.301	44433.39
642.654	44353.17
643.007	44133.51
643.36	44345.49
643.713	44209.9
644.066	44357.24
644.419	43990.02
644.771	43628.44
645.124	43287.21
645.477	43368.56
645.83	43106.42
646.182	43123.15
646.535	43109.13
646.888	43160.88
647.24	43066.42
647.593	43430.48
647.945	43159.3
648.298	42975.81
648.65	42737.85
649.002	42490.85
649.355	42425.99
649.707	42326.56
650.059	42315.26
650.411	42923.83
650.763	43109.81
651.115	43784.15
651.467	43736.91
651.819	43545.28
652.171	43535.11
652.523	43355.23
652.875	43481.78
653.227	43365.85
653.578	43631.61
653.93	43500.09
654.282	43241.56
654.633	43336.7
654.985	43350.71
655.337	43441.78
655.688	43441.1
656.039	43429.8
656.391	43007.67
656.742	43154.33
657.094	43227.32
657.445	43209.92
657.796	43233.2
658.147	43102.13
658.498	43192.3
658.849	43106.88
659.2	43092.86
659.551	42996.82
659.902	43397.04
660.253	43061.45
660.604	43370.14
660.955	42937.16
661.306	43284.27
661.656	42990.95
662.007	43039.53
662.358	43103.49
662.708	43186.65
663.059	43045.86
663.409	42929.7
663.76	43152.52
664.11	43154.56
664.461	43326.76
664.811	43276.81
665.161	43093.99
665.511	43062.81
665.862	43175.12
666.212	43201.34
666.562	43197.95
666.912	43215.57
667.262	43042.47
667.612	43152.52
667.962	43251.28
668.312	43163.82
668.662	43334.44
669.011	43138.96
669.361	43275.91
669.711	43160.43
670.06	42994.79
670.41	43048.57
670.76	42922.47
671.109	43178.96
671.459	43103.94
671.808	43037.05
672.157	43042.47
672.507	42695.59
672.856	42703.72
673.205	42978.06
673.554	42820.78
673.904	42734.68
674.253	43175.12
674.602	42829.59
674.951	42264.19
675.3	42157.52
675.649	42839.31
675.998	42679.99
676.346	42719.31
676.695	42881.12
677.044	42536.49
677.393	42675.25
677.741	42622.37
678.09	42536.95
678.438	42463.5
678.787	42545.31
679.135	42348.7
679.484	42259.67
679.832	42365.2
680.181	42217.63
680.529	42243.85
680.877	42134.92
681.225	42122.49
681.573	42334.24
681.922	42099.9
682.27	41959.11
682.618	41960.69
682.966	41812.67
683.314	41915.72
683.661	41812.9
684.009	41671.43
684.357	41685.67
684.705	41489.97
685.053	41504.43
685.4	41320.03
685.748	41361.84
686.095	41222.86
686.443	41005.91
686.79	41087.72
687.138	41266.02
687.485	41052.47
687.832	40833.94
688.18	40875.97
688.527	40695.41
688.874	40639.37
689.221	40729.99
689.568	40427.4
689.915	40320.28
690.262	40355.08
690.609	40385.36
690.956	40144.69
691.303	40080.51
691.65	39912.16
691.997	39931.37
692.344	39813.63
692.69	39683.46
693.037	39707.64
693.383	39383.36
693.73	39496.12
694.077	39302.23
694.423	39151.05
694.769	39086.87
695.116	39089.35
695.462	38737.5
695.808	38680.78
696.155	38716.93
696.501	38451.86
696.847	38526.2
697.193	38151.53
697.539	38322.82
697.885	37993.11
698.231	37888.03
698.577	37945.65
698.923	37820.91
699.269	37490.3
699.614	37437.42
699.96	37287.59
700.306	37347.03
700.651	37149.97
700.997	37057.77
701.342	36928.73
701.688	36815.06
702.033	36669.53
702.379	36698.23
702.724	36551.57
703.069	36532.58
703.415	36155.87
703.76	36193.61
704.105	36070.22
704.45	36037.68
704.795	35855.54
705.14	35667.75
705.485	35827.74
705.83	35505.27
706.175	35588.2
706.52	35423.46
706.865	35290.13
707.209	35210.81
707.554	35071.83
707.899	35136.01
708.243	34947.99
708.588	34795.91
708.932	34680.66
709.277	34667.77
709.621	34700.32
709.966	34322.47
710.31	34266.43
710.654	34243.38
710.998	34226.2
711.342	34284.96
711.687	34063.95
712.031	33952.09
712.375	33922.03
712.719	33757.74
713.063	33771.3
713.407	33851.98
713.75	33666.67
714.094	33708.03
714.438	33489.95
714.782	33588.03
715.125	33395.94
715.469	33673.45
715.812	33316.62
716.156	33321.14
716.499	33223.97
716.843	33246.34
717.186	33056.29
717.53	33100.13
717.873	33094.03
718.216	32927.71
718.559	32973.81
718.902	32712.57
719.246	32725.23
719.589	32614.72
719.932	32604.55
720.275	32516.65
720.617	32593.25
720.96	32389.42
721.303	32666.25
721.646	32600.03
721.989	32421.05
722.331	32526.81
722.674	32235.97
723.016	32358.68
723.359	32287.5
723.701	32265.35
724.044	32130.67
724.386	31951.69
724.729	32068.97
725.071	32109.2
725.413	32023.78
725.755	31997.34
726.097	31803.9
726.439	31816.78
726.782	31833.05
727.124	32127.05
727.465	31866.04
727.807	31714.41
728.149	31800.73
728.491	31624.24
728.833	31725.03
729.175	31745.82
729.516	31633.73
729.858	31651.58
730.199	31664.24
730.541	31654.07
730.882	31552.6
731.224	31730
731.565	31445.03
731.906	31568.65
732.248	31505.6
732.589	31442.77
732.93	31226.74
733.271	31332.5
733.612	31408.43
733.953	31537.91
734.294	31402.55
734.635	31274.42
734.976	31440.29
735.317	31257.02
735.658	31327.3
735.999	31364.81
736.339	31297.24
736.68	31362.33
737.021	31361.2
737.361	31295.43
737.702	31522.32
738.042	31165.49
738.383	31393.28
738.723	31582.43
739.063	31301.31
739.404	31409.33
739.744	31455.43
740.084	31326.39
740.424	31211.37
740.764	31379.27
741.104	31509.44
741.444	31379.5
741.784	31289.33
742.124	31353.29
742.464	31514.86
742.804	31372.49
743.143	31505.82
743.483	31559.61
743.823	31438.48
744.162	31633.05
744.502	31699.27
744.841	31565.48
745.181	31699.72
745.52	31676.67
745.86	31821.52
746.199	31600.74
746.538	31653.39
746.877	31879.37
747.216	31833.05
747.556	31854.06
747.895	31956.89
748.234	31949.43
748.573	31838.47
748.911	31874.63
749.25	32021.06
749.589	31920.5
749.928	32040.27
750.267	32026.49
750.605	32161.4
750.944	32045.92
751.283	32197.78
751.621	32301.51
751.96	32304.9
752.298	32268.74
752.636	32334.5
752.975	32312.58
753.313	32439.36
753.651	32535.85
753.989	32435.29
754.327	32520.03
754.666	32469.41
