Data from 19-1250_FLMS001491_010.txt Node
Date: Thu Apr 19 16:28:33 BST 2018
User: hsy
Spectrometer: FLMS00149
Trigger mode: 0
Integration Time (sec): 1.000000E-2
Scans to average: 10
Electric dark correction enabled: true
Nonlinearity correction enabled: false
Boxcar width: 0
XAxis mode: Wavelengths
Number of Pixels in Spectrum: 2048
>>>>>Begin Spectral Data<<<<<
341.393	-27.65
341.776	-27.65
342.16	-27.65
342.543	-66.75
342.927	-69.24
343.31	-69.69
343.693	-63.36
344.077	-73.53
344.46	-53.42
344.843	-42.34
345.226	-30.59
345.61	-43.02
345.993	-18.62
346.376	25.45
346.759	4.89
347.142	20.71
347.525	35.39
347.908	63.19
348.291	57.99
348.674	103.87
349.057	83.08
349.44	119.69
349.823	156.52
350.206	185.45
350.588	231.32
350.971	223.86
351.354	257.31
351.737	266.8
352.119	305.22
352.502	304.31
352.884	324.88
353.267	339.12
353.65	331.21
354.032	354.71
354.414	348.15
354.797	359.23
355.179	359.68
355.562	390.87
355.944	380.47
356.326	392.67
356.709	393.35
357.091	371.66
357.473	411.2
357.855	378.89
358.238	410.07
358.62	382.5
359.002	388.61
359.384	372.33
359.766	405.33
360.148	401.94
360.53	380.47
360.912	390.87
361.294	388.38
361.676	373.69
362.057	398.32
362.439	382.28
362.821	378.66
363.203	380.92
363.584	379.11
363.966	385.67
364.348	372.79
364.729	369.17
365.111	376.18
365.493	374.37
365.874	388.15
366.256	395.39
366.637	372.33
367.019	369.85
367.4	376.63
367.781	382.5
368.163	376.18
368.544	368.04
368.925	388.15
369.306	373.24
369.688	387.7
370.069	386.8
370.45	381.6
370.831	376.18
371.212	382.73
371.593	421.37
371.974	384.09
372.355	396.51
372.736	388.15
373.117	395.84
373.498	404.88
373.879	386.57
374.26	389.06
374.641	360.36
375.021	418.66
375.402	417.31
375.783	430.86
376.163	457.53
376.544	416.18
376.925	405.33
377.305	417.76
377.686	421.37
378.066	428.6
378.447	441.49
378.827	406.46
379.208	424.99
379.588	417.98
379.968	434.71
380.349	413.69
380.729	443.07
381.109	430.41
381.489	467.25
381.87	439.9
382.25	471.54
382.63	451.88
383.01	432.22
383.39	442.84
383.77	443.07
384.15	460.02
384.53	446.46
384.91	475.16
385.29	454.37
385.67	486.23
386.049	495.04
386.429	483.29
386.809	493.69
387.189	486.23
387.568	490.3
387.948	488.94
388.328	507.7
388.707	492.11
389.087	496.4
389.466	504.08
389.846	538.88
390.225	521.94
390.605	540.92
390.984	516.51
391.363	533.69
391.743	543.4
392.122	535.72
392.501	547.92
392.881	539.11
393.26	569.39
393.639	551.99
394.018	562.61
394.397	574.36
394.776	564.87
395.155	556.06
395.534	582.27
395.913	569.17
396.292	574.14
396.671	584.98
397.05	582.5
397.429	599.45
397.808	588.37
398.186	606.23
398.565	604.87
398.944	597.64
399.323	618.43
399.701	604.19
400.08	632.89
400.458	615.72
400.837	623.4
401.215	642.38
401.594	644.19
401.972	646.68
402.351	658.88
402.729	660.24
403.107	638.77
403.486	660.46
403.864	647.36
404.242	674.02
404.62	672.89
404.999	695.94
405.377	693.91
405.755	695.04
406.133	700.69
406.511	724.19
406.889	721.25
407.267	727.81
407.645	745.21
408.023	732.78
408.401	730.74
408.779	747.92
409.156	769.39
409.534	760.12
409.912	782.72
410.29	763.96
410.667	805.54
411.045	806.45
411.422	824.98
411.8	832.21
412.178	829.05
412.555	832.44
412.933	819.55
413.31	865.66
413.687	861.81
414.065	897.52
414.442	894.13
414.819	897.07
415.197	865.43
415.574	919.21
415.951	908.59
416.328	919.44
416.705	915.37
417.082	933.68
417.46	929.61
417.837	935.94
418.214	967.57
418.591	978.87
418.967	955.6
419.344	994.47
419.721	1012.77
420.098	1016.39
420.475	1007.8
420.852	992.66
421.228	1024.97
421.605	1038.53
421.982	1043.5
422.358	1062.26
422.735	1058.87
423.111	1066.55
423.488	1057.51
423.864	1079.43
424.241	1092.54
424.617	1095.25
424.994	1110.17
425.37	1122.82
425.746	1098.42
426.123	1155.82
426.499	1169.15
426.875	1134.35
427.251	1172.09
427.627	1229.49
428.003	1210.28
428.379	1232.2
428.756	1235.36
429.132	1257.96
429.507	1242.82
429.883	1252.31
430.259	1297.73
430.635	1318.07
431.011	1296.6
431.387	1339.09
431.763	1365.98
432.138	1347
432.514	1399.43
432.89	1382.25
433.265	1420.89
433.641	1434.45
434.016	1452.98
434.392	1470.61
434.767	1468.58
435.143	1500.67
435.518	1494.11
435.894	1524.62
436.269	1545.19
436.644	1575.47
437.02	1583.6
437.395	1603.71
437.77	1634
438.145	1636.71
438.52	1625.18
438.895	1657.95
439.271	1675.35
439.646	1695.01
440.021	1711.51
440.395	1691.85
440.77	1680.55
441.145	1717.84
441.52	1741.56
441.895	1736.14
442.27	1752.41
442.645	1729.59
443.019	1773.2
443.394	1792.18
443.769	1810.94
444.143	1786.53
444.518	1851.39
444.892	1810.49
445.267	1831.05
445.641	1882.13
446.016	1882.58
446.39	1888.91
446.764	1882.13
447.139	1866.53
447.513	1920.99
447.887	1919.64
448.262	1924.61
448.636	1930.03
449.01	1991.28
449.384	1997.6
449.758	1990.37
450.132	2015.68
450.506	2046.19
450.88	2047.55
451.254	2059.97
451.628	2066.75
452.002	2103.81
452.376	2102.68
452.75	2146.3
453.123	2148.56
453.497	2182.68
453.871	2202.8
454.244	2242.79
454.618	2302.23
454.992	2303.58
455.365	2291.15
455.739	2377.25
456.112	2389.91
456.486	2382
456.859	2456.8
457.232	2443.01
457.606	2490.47
457.979	2516.69
458.352	2568.89
458.725	2562.79
459.099	2589.45
459.472	2613.63
459.845	2695.66
460.218	2712.39
460.591	2719.17
460.964	2723.01
461.337	2805.27
461.71	2827.86
462.083	2881.2
462.456	2886.39
462.829	2913.06
463.201	2970.23
463.574	2954.41
463.947	3016.79
464.32	3051.59
464.692	3083.22
465.065	3112.6
465.438	3158.48
465.81	3141.98
466.183	3203.67
466.555	3266.5
466.928	3342.65
467.3	3316.89
467.672	3353.5
468.045	3445.25
468.417	3438.02
468.789	3474.4
469.161	3503.33
469.534	3516.43
469.906	3636.66
470.278	3619.26
470.65	3662.87
471.022	3785.8
471.394	3823.09
471.766	3815.63
472.138	3890.66
472.51	3991.22
472.882	4017.44
473.253	4053.14
473.625	4141.5
473.997	4195.96
474.369	4198
474.74	4259.24
475.112	4291.78
475.484	4387.82
475.855	4493.13
476.227	4571.09
476.598	4653.8
476.97	4687.93
477.341	4740.81
477.713	4870.07
478.084	4933.12
478.455	5003.85
478.827	5033
479.198	5161.81
479.569	5237.29
479.94	5370.17
480.311	5427.12
480.682	5577.62
481.053	5644.74
481.424	5714.34
481.795	5789.37
482.166	5882.25
482.537	6019.87
482.908	6112.07
483.279	6179.64
483.65	6290.82
484.021	6395.91
484.391	6496.47
484.762	6546.86
485.133	6649.23
485.503	6693.3
485.874	6954.99
486.244	6978.04
486.615	7134.64
486.985	7233.85
487.356	7339.38
487.726	7419.16
488.097	7574.86
488.467	7634.97
488.837	7822.99
489.207	7878.8
489.578	8050.1
489.948	8055.07
490.318	8243.54
490.688	8309.3
491.058	8526.24
491.428	8632.46
491.798	8646.69
492.168	8846.24
492.538	8885.56
492.908	9083.29
493.278	9179.56
493.648	9243.74
494.017	9406.67
494.387	9474.69
494.757	9606.67
495.126	9640.34
495.496	9676.27
495.866	9851.18
496.235	9999.88
496.605	10053.44
496.974	10130.04
497.344	10230.83
497.713	10309.02
498.082	10460.88
498.452	10532.52
498.821	10611.39
499.19	10610.48
499.559	10831.95
499.928	10897.03
500.298	10951.49
500.667	11066.74
501.036	11102.9
501.405	11197.13
501.774	11263.57
502.143	11363.46
502.512	11395.77
502.88	11665.15
503.249	11623.56
503.618	11715.77
503.987	11765.48
504.356	11885.48
504.724	11987.62
505.093	12058.36
505.462	12163.21
505.83	12143.55
506.199	12253.6
506.567	12426.48
506.936	12567.27
507.304	12683.88
507.672	12670.99
508.041	12779.69
508.409	12980.59
508.777	13014.94
509.145	13051.55
509.514	13060.59
509.882	13267.59
510.25	13287.93
510.618	13405.89
510.986	13507.58
511.354	13633.68
511.722	13807.01
512.09	13917.74
512.458	13884.97
512.826	14056.27
513.193	14084.97
513.561	14230.73
513.929	14239.09
514.297	14454.22
514.664	14483.38
515.032	14640.66
515.4	14781
515.767	14794.55
516.135	14920.65
516.502	14883.37
516.869	15113.64
517.237	15273.86
517.604	15190.48
517.972	15437.25
518.339	15595.44
518.706	15693.51
519.073	15721.08
519.44	15768.09
519.808	16059.38
520.175	15985.71
520.542	16300.05
520.909	16354.06
521.276	16368.3
521.643	16689.19
522.009	16751.79
522.376	16845.57
522.743	17006.93
523.11	17253.92
523.477	17359.46
523.843	17516.97
524.21	17695.04
524.577	17864.08
524.943	17967.8
525.31	17990.18
525.676	18255.03
526.043	18351.52
526.409	18597.17
526.776	18656.15
527.142	18912.86
527.508	18936.82
527.874	19165.29
528.241	19295.45
528.607	19405.05
528.973	19610.7
529.339	19696.35
529.705	19815.44
530.071	19978.15
530.437	20072.16
530.803	20204.58
531.169	20346.5
531.535	20462.65
531.901	20594.4
532.267	20676.43
532.632	20828.97
532.998	20937.44
533.364	21057.89
533.73	21179.47
534.095	21403.19
534.461	21363.42
534.826	21523.64
535.192	21659.91
535.557	21755.5
535.923	21809.29
536.288	22019
536.653	22074.36
537.019	22159.56
537.384	22162.95
537.749	22344.64
538.114	22412.89
538.479	22343.96
538.845	22485.65
539.21	22576.5
539.575	22651.98
539.94	22674.35
540.305	22980.55
540.67	22962.25
541.034	23056.48
541.399	23181.23
541.764	23296.7
542.129	23284.5
542.494	23346.19
542.858	23405.18
543.223	23480.43
543.587	23564.72
543.952	23616.02
544.316	23700.76
544.681	23626.64
545.045	23951.83
545.41	24062.79
545.774	24034.54
546.138	24061.43
546.503	24214.65
546.867	24235.21
547.231	24407.41
547.595	24473.17
547.959	24519.27
548.324	24560.63
548.688	24650.34
549.052	24723.56
549.416	24691.24
549.779	24921.29
550.143	25024.57
550.507	25003.55
550.871	25114.28
551.235	25109.54
551.599	25500.04
551.962	25402.41
552.326	25514.05
552.689	25638.56
553.053	25558.57
553.417	25599.69
553.78	25989.06
554.143	26013.02
554.507	26008.72
554.87	26152
555.234	26466.79
555.597	26332.78
555.96	26478.54
556.323	26682.6
556.686	26604.87
557.05	26856.61
557.413	26900
557.776	27014.12
558.139	27240.78
558.502	27277.84
558.865	27310.38
559.228	27619.98
559.59	27834.44
559.953	27809.13
560.316	28075.56
560.679	28113.3
561.041	28322.56
561.404	28476.68
561.767	28680.97
562.129	28557.58
562.492	28922.54
562.854	28948.98
563.217	28949.66
563.579	29144.01
563.941	29418.58
564.304	29588.06
564.666	29942.63
565.028	29800.04
565.39	29975.17
565.753	30070.31
566.115	30202.51
566.477	30465.55
566.839	30692.22
567.201	30969.95
567.563	30933.57
567.925	31169.94
568.287	31317.51
568.648	31306.21
569.01	31704.84
569.372	31770.15
569.734	31952.52
570.095	32047.89
570.457	32329.23
570.819	32403.13
571.18	32418.27
571.542	32699.17
571.903	32722.67
572.265	33072.72
572.626	33319.27
572.987	33301.19
573.349	33616.88
573.71	33559.03
574.071	33803.55
574.432	34150.43
574.794	34253.03
575.155	34391.33
575.516	34325.57
575.877	34483.08
576.238	34593.36
576.599	34692.11
576.96	34854.82
577.32	34916.74
577.681	35194.02
578.042	35221.14
578.403	35291.64
578.763	35472.88
579.124	35593.78
579.485	35862.25
579.845	35935.69
580.206	35902.25
580.566	36018.86
580.927	36148.12
581.287	36365.96
581.648	36319.64
582.008	36423.59
582.368	36475.11
582.728	36731.83
583.089	36693.41
583.449	36762.56
583.809	36871.71
584.169	37088.66
584.529	36867.19
584.889	37389.44
585.249	37349.67
585.609	37052.73
585.969	37451.36
586.329	37465.37
586.688	37607.06
587.048	37812.93
587.408	37678.7
587.768	37813.61
588.127	38029.88
588.487	37978.35
588.846	38345.12
589.206	38129.99
589.565	38289.76
589.925	38522.97
590.284	38551.44
590.643	38595.51
591.003	38844.09
591.362	39106.68
591.721	39109.62
592.08	39094.25
592.44	39399.78
592.799	39526.33
593.158	39753.67
593.517	39716.61
593.876	40116.37
594.235	40184.62
594.593	40244.51
594.952	40469.81
595.311	40507.32
595.67	40744.15
596.029	41112.05
596.387	41230.92
596.746	41485.38
597.104	41585.04
597.463	41506.17
597.822	41815.54
598.18	41976.89
598.538	41988.19
598.897	42422.53
599.255	42271.12
599.613	42865
599.972	42724.44
600.33	42844.66
600.688	42933.48
601.046	43181.15
601.404	43455.95
601.762	43475.16
602.12	43852.55
602.478	43977.52
602.836	44037.63
603.194	43842.83
603.552	44189.26
603.91	44163.73
604.268	44421.35
604.625	44583.6
604.983	44795.8
605.341	44739.53
605.698	45081.44
606.056	45199.63
606.413	45142.01
606.771	45500.19
607.128	45600.07
607.485	45442.79
607.843	45646.62
608.2	46024.92
608.557	46194.63
608.914	46133.62
609.272	46316.21
609.629	46621.29
609.986	46889.76
610.343	46809.53
610.7	47089.98
611.057	47104.44
611.414	47108.96
611.771	47355.05
612.127	47470.76
612.484	47443.87
612.841	47771.54
613.198	47616.74
613.554	47669.4
613.911	47976.73
614.267	48068.03
614.624	48002.04
614.98	48192.09
615.337	48432.31
615.693	48397.29
616.05	48506.66
616.406	48812.87
616.762	48706.21
617.118	48680.9
617.475	48708.24
617.831	48988.46
618.187	49129.7
618.543	49061.68
618.899	49378.96
619.255	49315.45
619.611	49315.91
619.967	49490.37
620.323	49584.6
620.678	49468.67
621.034	49439.52
621.39	49431.38
621.746	49519.97
622.101	49859.17
622.457	49588.67
622.812	49793.63
623.168	49862.56
623.523	49860.07
623.879	50000.41
624.234	49737.82
624.589	49926.96
624.945	49859.17
625.3	49952.27
625.655	49952.27
626.01	49987.75
626.365	50097.58
626.72	50074.53
627.075	50041.09
627.43	50025.49
627.785	50027.75
628.14	49937.36
628.495	50058.26
628.85	50178.71
629.205	49972.39
629.559	50051.25
629.914	49903.01
630.269	50006.28
630.623	49890.35
630.978	49762.9
631.332	49964.03
631.687	49950.92
632.041	49890.58
632.396	49872.05
632.75	49883.12
633.104	49913.41
633.459	49734.2
633.813	49758.38
634.167	49685.61
634.521	49791.83
634.875	49733.3
635.229	49649.01
635.583	49475.9
635.937	49514.77
636.291	49470.03
636.645	49485.62
636.999	49232.29
637.352	49489.01
637.706	49243.37
638.06	49325.17
638.413	49209.92
638.767	49177.38
639.121	49177.61
639.474	49030.94
639.828	49032.52
640.181	49095.35
640.534	49180.09
640.888	48949.36
641.241	48802.7
641.594	48972.64
641.947	48959.08
642.301	48808.35
642.654	48870.27
643.007	48652.2
643.36	48682.48
643.713	48683.61
644.066	48902.58
644.419	48460.34
644.771	48092.66
645.124	47675.5
645.477	47761.37
645.83	47612.45
646.182	47532.9
646.535	47524.99
646.888	47657.65
647.24	47529.96
647.593	47790.98
647.945	47482.96
648.298	47525.45
648.65	47172.46
649.002	47019.02
649.355	46871
649.707	46675.52
650.059	46787.61
650.411	47283.42
650.763	47449.97
651.115	48021.03
651.467	47917.3
651.819	47856.28
652.171	47744.42
652.523	47654.48
652.875	47604.09
653.227	47549.17
653.578	47943.74
653.93	47678.44
654.282	47580.13
654.633	47486.12
654.985	47655.84
655.337	47636.4
655.688	47605.22
656.039	47710.75
656.391	47251.78
656.742	47405
657.094	47503.3
657.445	47439.35
657.796	47507.82
658.147	47386.47
658.498	47367.48
658.849	47600.92
659.2	47437.54
659.551	47392.57
659.902	47635.72
660.253	47392.79
660.604	47441.38
660.955	47430.98
661.306	47508.27
661.656	47332.23
662.007	47458.33
662.358	47270.31
662.708	47416.07
663.059	47415.39
663.409	47237.32
663.76	47550.53
664.11	47401.61
664.461	47597.76
664.811	47439.12
665.161	47440.93
665.511	47388.73
665.862	47437.09
666.212	47507.82
666.562	47572
666.912	47511.43
667.262	47246.81
667.612	47365.9
667.962	47430.98
668.312	47382.17
668.662	47484.77
669.011	47289.75
669.361	47354.83
669.711	47292.01
670.06	47298.78
670.41	47306.02
670.76	47141.27
671.109	47375.84
671.459	47189.86
671.808	47168.62
672.157	47249.52
672.507	47001.84
672.856	47178.79
673.205	47115.74
673.554	47089.07
673.904	47024.22
674.253	47336.3
674.602	47041.16
674.951	46553.49
675.3	46327.74
675.649	47080.26
675.998	47045.23
676.346	47035.97
676.695	47094.04
677.044	46616.32
677.393	46896.99
677.741	46922.98
678.09	46699.25
678.438	46696.77
678.787	46802.53
679.135	46706.03
679.484	46515.98
679.832	46619.93
680.181	46544.68
680.529	46476.21
680.877	46410.45
681.225	46344.01
681.573	46747.61
681.922	46466.04
682.27	46338.13
682.618	46256.1
682.966	46340.62
683.314	46258.36
683.661	46232.82
684.009	45975.2
684.357	45894.08
684.705	45893.85
685.053	45732.27
685.4	45781.54
685.748	45653.18
686.095	45570.24
686.443	45358.5
686.79	45403.47
687.138	45485.72
687.485	45417.93
687.832	45234.88
688.18	45276.01
688.527	44964.38
688.874	44999.86
689.221	44992.4
689.568	44761.22
689.915	44722.81
690.262	44780.43
690.609	44640.32
690.956	44412.08
691.303	44478.97
691.65	44236.72
691.997	44146.1
692.344	44057.51
692.69	43894.58
693.037	44004.18
693.383	43552.44
693.73	43586.34
694.077	43498.88
694.423	43354.48
694.769	43058.22
695.116	43231.09
695.462	42934.83
695.808	42662.75
696.155	42893.93
696.501	42543.88
696.847	42630.43
697.193	42347.05
697.539	42458.91
697.885	42113.61
698.231	41996.33
698.577	41917.23
698.923	41920.17
699.269	41654.87
699.614	41425.04
699.96	41401.99
700.306	41410.35
700.651	41253.52
700.997	41031.83
701.342	40869.35
701.688	40910.48
702.033	40680.88
702.379	40661.67
702.724	40468.68
703.069	40431.17
703.415	40169.71
703.76	40112.31
704.105	40109.6
704.45	39867.57
704.795	39863.27
705.14	39634.13
705.485	39528.14
705.83	39486.33
706.175	39557.97
706.52	39291.54
706.865	38988.04
707.209	39044.76
707.554	38926.12
707.899	38831.44
708.243	38642.74
708.588	38699.91
708.932	38485.68
709.277	38466.7
709.621	38510.77
709.966	38245.46
710.31	38235.97
710.654	37924.57
710.998	38118.01
711.342	38035.75
711.687	37753.27
712.031	37870.33
712.375	37674.4
712.719	37675.31
713.063	37688.42
713.407	37668.53
713.75	37333.4
714.094	37419.27
714.438	37312.15
714.782	37327.52
715.125	37119.17
715.469	37220.86
715.812	36916.68
716.156	36785.61
716.499	36826.52
716.843	36927.08
717.186	36726.41
717.53	36970.92
717.873	36742.68
718.216	36678.72
718.559	36581.1
718.902	36313.08
719.246	36264.27
719.589	36245.29
719.932	36047.55
720.275	36126.65
720.617	36147.44
720.96	36005.3
721.303	36156.48
721.646	36118.51
721.989	35761.46
722.331	35937.05
722.674	35843.04
723.016	35825.87
723.359	35545.65
723.701	35812.31
724.044	35716.26
724.386	35574.57
724.729	35613.44
725.071	35598.3
725.413	35637.4
725.755	35471.75
726.097	35377.29
726.439	35310.85
726.782	35308.37
727.124	35486.44
727.465	35391.75
727.807	35277.86
728.149	35241.25
728.491	35097.52
728.833	35246.9
729.175	35057.07
729.516	34936.62
729.858	35104.3
730.199	35142.72
730.541	35076.73
730.882	34885.78
731.224	34935.04
731.565	34829.51
731.906	34889.39
732.248	34931.43
732.589	34802.16
732.93	34814.82
733.271	35000.8
733.612	34628.16
733.953	34807.81
734.294	34713.8
734.635	34663.18
734.976	34869.96
735.317	34559.23
735.658	34766.23
735.999	34545.45
736.339	34712.9
736.68	34790.19
737.021	34745.67
737.361	34635.16
737.702	34924.42
738.042	34574.83
738.383	34609.4
738.723	34724.65
739.063	34495.73
739.404	34660.25
739.744	34603.3
740.084	34596.75
740.424	34789.06
740.764	34512.68
741.104	34774.59
741.444	34503.19
741.784	34459.57
742.124	34766.23
742.464	34691.21
742.804	34712.67
743.143	34458.67
743.483	34758.32
743.823	34470.87
744.162	34520.14
744.502	34579.35
744.841	34432.91
745.181	34709.96
745.52	34564.43
745.86	34675.61
746.199	34617.31
746.538	34761.04
746.877	34875.61
747.216	34803.29
747.556	34709.29
747.895	34730.75
748.234	34752.22
748.573	34706.12
748.911	34921.26
749.25	34915.83
749.589	34964.65
749.928	34980.24
750.267	35099.56
750.605	34994.02
750.944	35061.37
751.283	34997.41
751.621	35279.44
751.96	35006
752.298	35177.75
752.636	35234.7
752.975	35173.68
753.313	35142.04
753.651	35382.49
753.989	35217.52
754.327	35336.16
