Data from 19-1250_FLMS001491_002.txt Node
Date: Thu Apr 19 16:28:11 BST 2018
User: hsy
Spectrometer: FLMS00149
Trigger mode: 0
Integration Time (sec): 1.000000E-2
Scans to average: 10
Electric dark correction enabled: true
Nonlinearity correction enabled: false
Boxcar width: 0
XAxis mode: Wavelengths
Number of Pixels in Spectrum: 2048
>>>>>Begin Spectral Data<<<<<
341.393	-8.21
341.776	-8.21
342.16	-8.21
342.543	-51.14
342.927	-61.31
343.31	-69
343.693	-60.86
344.077	-54.53
344.46	-55.21
344.843	-51.14
345.226	-45.49
345.61	-49.11
345.993	3.09
346.376	-8.43
346.759	5.8
347.142	30.89
347.525	44.9
347.908	48.29
348.291	75.41
348.674	87.84
349.057	97.55
349.44	109.08
349.823	144.56
350.206	164.67
350.588	222.75
350.971	241.5
351.354	260.71
351.737	282.41
352.119	265.23
352.502	288.51
352.884	328.96
353.267	313.59
353.65	316.08
354.032	342.52
354.414	350.88
354.797	335.51
355.179	360.15
355.562	375.96
355.944	381.61
356.326	364.44
356.709	370.54
357.091	395.63
357.473	382.07
357.855	401.27
358.238	392.24
358.62	394.95
359.002	397.21
359.384	376.42
359.766	380.03
360.148	381.61
360.53	385.91
360.912	394.95
361.294	356.3
361.676	371.67
362.057	374.83
362.439	376.64
362.821	368.28
363.203	382.52
363.584	375.74
363.966	395.4
364.348	384.33
364.729	389.98
365.111	360.37
365.493	383.42
365.874	387.94
366.256	371.67
366.637	376.87
367.019	384.1
367.4	385.23
367.781	382.07
368.163	381.61
368.544	385.46
368.925	377.09
369.306	372.57
369.688	373.48
370.069	375.51
370.45	365.57
370.831	385.68
371.212	382.29
371.593	379.81
371.974	389.3
372.355	395.63
372.736	394.72
373.117	376.42
373.498	417.55
373.879	387.04
374.26	362.86
374.641	381.61
375.021	399.47
375.402	426.13
375.783	418.22
376.163	430.2
376.544	423.42
376.925	418
377.305	405.12
377.686	422.74
378.066	429.3
378.447	416.64
378.827	445.12
379.208	417.77
379.588	410.99
379.968	424.33
380.349	446.7
380.729	416.64
381.109	439.01
381.489	442.86
381.87	443.76
382.25	460.71
382.63	446.25
383.01	433.36
383.39	449.64
383.77	453.48
384.15	450.76
384.53	439.01
384.91	465.68
385.29	454.15
385.67	452.35
386.049	493.02
386.429	477.88
386.809	507.49
387.189	469.52
387.568	477.66
387.948	487.6
388.328	486.02
388.707	504.1
389.087	480.82
389.466	499.8
389.846	498.45
390.225	517.66
390.605	532.57
390.984	531.89
391.363	495.06
391.743	526.02
392.122	525.34
392.501	532.8
392.881	535.51
393.26	553.81
393.639	562.17
394.018	559.46
394.397	540.48
394.776	565.34
395.155	548.39
395.534	556.07
395.913	565.34
396.292	558.33
396.671	582.96
397.05	591.55
397.429	594.49
397.808	589.29
398.186	592
398.565	576.64
398.944	611.44
399.323	604.43
399.701	603.53
400.08	617.77
400.458	616.86
400.837	602.4
401.215	626.58
401.594	627.48
401.972	614.38
402.351	621.61
402.729	631.78
403.107	630.65
403.486	632.68
403.864	664.77
404.242	665
404.62	655.05
404.999	648.95
405.377	674.94
405.755	676.3
406.133	702.51
406.511	687.59
406.889	697.31
407.267	693.92
407.645	717.65
408.023	714.94
408.401	704.32
408.779	731.21
409.156	730.76
409.534	744.77
409.912	777.76
410.29	777.76
410.667	766.69
411.045	780.02
411.422	802.39
411.8	805.78
412.178	802.85
412.555	803.75
412.933	827.03
413.31	861.6
413.687	843.52
414.065	863.86
414.442	864.99
414.819	871.09
415.197	876.29
415.574	911.32
415.951	869.51
416.328	881.94
416.705	892.79
417.082	894.6
417.46	915.39
417.837	920.13
418.214	946.12
418.591	927.59
418.967	954.93
419.344	943.41
419.721	957.64
420.098	960.36
420.475	989.28
420.852	980.47
421.228	1003.07
421.605	991.32
421.982	1010.3
422.358	1003.74
422.735	993.35
423.111	1019.79
423.488	1012.33
423.864	1066.57
424.241	1057.98
424.617	1056.62
424.994	1071.31
425.37	1083.29
425.746	1069.96
426.123	1096.4
426.499	1086.68
426.875	1122.84
427.251	1132.78
427.627	1155.83
428.003	1162.84
428.379	1161.71
428.756	1166
429.132	1194.02
429.507	1200.8
429.883	1210.75
430.259	1250.29
430.635	1266.34
431.011	1243.74
431.387	1267.92
431.763	1321.7
432.138	1307.69
432.514	1308.82
432.89	1342.04
433.265	1362.61
433.641	1403.06
434.016	1363.06
434.392	1408.71
434.767	1440.34
435.143	1436.5
435.518	1454.35
435.894	1459.55
436.269	1471.08
436.644	1493.9
437.02	1485.54
437.395	1509.72
437.77	1533.45
438.145	1571.19
438.52	1534.8
438.895	1582.49
439.271	1530.51
439.646	1601.47
440.021	1600.79
440.395	1635.59
440.77	1614.35
441.145	1642.6
441.52	1688.92
441.895	1645.54
442.27	1681.24
442.645	1676.04
443.019	1692.54
443.394	1705.65
443.769	1681.02
444.143	1716.04
444.518	1736.83
444.892	1710.17
445.267	1729.6
445.641	1745.42
446.016	1759.43
446.39	1777.51
446.764	1763.05
447.139	1799.66
447.513	1797.17
447.887	1787.9
448.262	1821.8
448.636	1840.78
449.01	1831.75
449.384	1847.11
449.758	1857.73
450.132	1916.04
450.506	1904.06
450.88	1917.62
451.254	1928.69
451.628	1956.26
452.002	1984.74
452.376	2024.51
452.75	2023.6
453.123	2026.54
453.497	2049.37
453.871	2067.9
454.244	2100.44
454.618	2142.47
454.992	2179.53
455.365	2168.69
455.739	2226.76
456.112	2215.24
456.486	2266.76
456.859	2265.18
457.232	2316.03
457.606	2315.12
457.979	2342.47
458.352	2395.8
458.725	2419.98
459.099	2459.98
459.472	2450.71
459.845	2480.77
460.218	2560.31
460.591	2579.07
460.964	2574.1
461.337	2597.38
461.71	2646.41
462.083	2692.51
462.456	2673.76
462.829	2689.8
463.201	2811.38
463.574	2789.23
463.947	2817.93
464.32	2882.34
464.692	2892.73
465.065	2930.25
465.438	2958.27
465.81	2965.95
466.183	3001.21
466.555	3062
466.928	3102.45
467.3	3104.25
467.672	3091.37
468.045	3189.45
468.417	3226.29
468.789	3245.72
469.161	3274.87
469.534	3313.06
469.906	3364.59
470.278	3396.68
470.65	3459.95
471.022	3468.09
471.394	3499.72
471.766	3598.48
472.138	3611.59
472.51	3715.31
472.882	3703.11
473.253	3765.25
473.625	3785.82
473.997	3909.21
474.369	3892.03
474.74	3981.29
475.112	4052.48
475.484	4049.77
475.855	4193.94
476.227	4205.47
476.598	4311.45
476.97	4341.96
477.341	4453.37
477.713	4510.32
478.084	4539.7
478.455	4710.77
478.827	4726.81
479.198	4846.13
479.569	4805
479.94	4970.65
480.311	5057.88
480.682	5160.25
481.053	5242.28
481.424	5327.47
481.795	5402.95
482.166	5517.3
482.537	5615.6
482.908	5682.94
483.279	5720.23
483.65	5897.85
484.021	5961.81
484.391	6108.7
484.762	6093.55
485.133	6214.46
485.503	6256.04
485.874	6429.36
486.244	6508.23
486.615	6656.48
486.985	6736.7
487.356	6895.79
487.726	6988.22
488.097	7110.25
488.467	7153.64
488.837	7323.35
489.207	7425.95
489.578	7527.87
489.948	7618.94
490.318	7783.68
490.688	7802.21
491.058	8011.47
491.428	8088.53
491.798	8126.27
492.168	8341.63
492.538	8361.29
492.908	8466.37
493.278	8582.53
493.648	8657.55
494.017	8780.49
494.387	8880.83
494.757	9044.44
495.126	9104.1
495.496	9146.81
495.866	9198.11
496.235	9381.83
496.605	9485.33
496.974	9568.04
497.344	9658.88
497.713	9730.52
498.082	9829.05
498.452	9885.32
498.821	9992.21
499.19	10065.2
499.559	10121.7
499.928	10250.73
500.298	10366.21
500.667	10436.72
501.036	10481.91
501.405	10579.31
501.774	10662.25
502.143	10733.43
502.512	10801.68
502.88	10992.86
503.249	10986.99
503.618	11149.01
503.987	11159.18
504.356	11234.89
504.724	11340.42
505.093	11373.19
505.462	11510.36
505.83	11510.14
506.199	11632.62
506.567	11825.38
506.936	11824.93
507.304	12040.29
507.672	12002.1
508.041	12033.29
508.409	12148.54
508.777	12311.7
509.145	12398.25
509.514	12424.46
509.882	12529.09
510.25	12715.53
510.618	12793.04
510.986	12829.87
511.354	12901.06
511.722	13075.74
512.09	13282.97
512.458	13140.37
512.826	13376.75
513.193	13351.44
513.561	13476.19
513.929	13541.72
514.297	13748.49
514.664	13828.94
515.032	13983.29
515.4	14028.71
515.767	14137.64
516.135	14143.06
516.502	14110.29
516.869	14323.85
517.237	14603.39
517.604	14523.84
517.972	14684.97
518.339	14741.01
518.706	14900.33
519.073	14951.4
519.44	15043.15
519.808	15307.55
520.175	15349.13
520.542	15511.84
520.909	15616.02
521.276	15686.75
521.643	15852.85
522.009	16079.73
522.376	16103.46
522.743	16150.92
523.11	16508.2
523.477	16590.45
523.843	16645.59
524.21	16945.47
524.577	17086.03
524.943	17116.99
525.31	17244.67
525.676	17448.28
526.043	17529.64
526.409	17640.14
526.776	17904.77
527.142	17928.05
527.508	17978.67
527.874	18304.31
528.241	18430.41
528.607	18485.09
528.973	18689.16
529.339	18676.27
529.705	18928.7
530.071	19114.23
530.437	19241.23
530.803	19331.85
531.169	19535.01
531.535	19455.69
531.901	19699.3
532.267	19729.13
532.632	19957.37
532.998	20019.97
533.364	20235.56
533.73	20220.41
534.095	20557.35
534.461	20513.97
534.826	20576.34
535.192	20646.62
535.557	20827.18
535.923	20923.9
536.288	20986.5
536.653	21161.86
537.019	21152.82
537.384	21276.43
537.749	21373.83
538.114	21469.65
538.479	21354.17
538.845	21590.1
539.21	21485.69
539.575	21750.77
539.94	21747.83
540.305	21812.24
540.67	22009.97
541.034	22011.55
541.399	22075.73
541.764	22173.13
542.129	22261.26
542.494	22263.98
542.858	22392.56
543.223	22471.65
543.587	22762.49
543.952	22611.99
544.316	22801.82
544.681	22710.74
545.045	22926.78
545.41	23001.81
545.774	22929.27
546.138	23119.1
546.503	23130.39
546.867	23375.13
547.231	23451.97
547.595	23494.9
547.959	23496.94
548.324	23553.66
548.688	23666.65
549.052	23672.08
549.416	23747.78
549.779	23880.21
550.143	23946.42
550.507	24179.63
550.871	24155.68
551.235	24254.66
551.599	24313.64
551.962	24412.85
552.326	24500.98
552.689	24639.73
553.053	24496.91
553.417	24728.32
553.78	24983.23
554.143	24910.46
554.507	25047.86
554.87	25075.88
555.234	25412.14
555.597	25127.86
555.96	25459.6
556.323	25509.54
556.686	25577.34
557.05	25754.28
557.413	25935.52
557.776	25955.86
558.139	26155.4
558.502	26253.7
558.865	26279.46
559.228	26647.14
559.59	26556.07
559.953	26595.61
560.316	27048.94
560.679	27019.33
561.041	27224.3
561.404	27151.98
561.767	27557.85
562.129	27577.74
562.492	27724.17
562.854	27776.6
563.217	27861.57
563.579	28080.77
563.941	28218.17
564.304	28305.63
564.666	28628.33
565.028	28584.71
565.39	28812.73
565.753	28994.42
566.115	29106.51
566.477	29303.34
566.839	29366.61
567.201	29761.18
567.563	29792.37
567.925	29937.67
568.287	29991.68
568.648	30141.28
569.01	30366.81
569.372	30596.86
569.734	30532.01
570.095	30878.44
570.457	31153.69
570.819	31203.4
571.18	31105.78
571.542	31475.49
571.903	31530.17
572.265	31727.46
572.626	31880.22
572.987	31944.17
573.349	32183.26
573.71	32406.08
574.071	32540.99
574.432	32602.46
574.794	32969.91
575.155	32951.38
575.516	33012.17
575.877	33215.78
576.238	33164.48
576.599	33333.06
576.96	33584.13
577.32	33587.97
577.681	33679.95
578.042	33993.84
578.403	33915.65
578.763	34124.23
579.124	34178.24
579.485	34385.69
579.845	34508.17
580.206	34512.47
580.566	34571.22
580.927	34589.53
581.287	34840.14
581.648	34814.38
582.008	35132.11
582.368	35056.18
582.728	35085.56
583.089	35229.51
583.449	35302.5
583.809	35465.89
584.169	35613.46
584.529	35606
584.889	35826.11
585.249	35701.82
585.609	35734.58
585.969	36027.91
586.329	35998.3
586.688	36257.73
587.048	36504.51
587.408	36293.44
587.768	36334.79
588.127	36466.77
588.487	36503.38
588.846	36954.21
589.206	36763.48
589.565	36725.07
589.925	37259.06
590.284	37413.86
590.643	37366.4
591.003	37554.65
591.362	37871.25
591.721	37798.71
592.08	37950.12
592.44	38206.38
592.799	38423.1
593.158	38341.97
593.517	38465.81
593.876	38989.19
594.235	38887.27
594.593	39016.3
594.952	39141.95
595.311	39347.82
595.67	39568.61
596.029	39836.62
596.387	39939.22
596.746	40308.02
597.104	40195.93
597.463	40276.38
597.822	40572.87
598.18	40459.2
598.538	40790.95
598.897	41083.82
599.255	40909.36
599.613	41489.91
599.972	41350.03
600.33	41534.2
600.688	41559.51
601.046	41822.33
601.404	42258.03
601.762	42173.28
602.12	42392.04
602.478	42574.86
602.836	42897.56
603.194	42605.14
603.552	42816.66
603.91	42863.66
604.268	43311.33
604.625	43339.13
604.983	43409.18
605.341	43435.85
605.698	43689.4
606.056	44023.63
606.413	43990.19
606.771	44377.52
607.128	44318.54
607.485	44371.19
607.843	44466.33
608.2	44701.58
608.557	44997.39
608.914	44821.58
609.272	45114.22
609.629	45332.75
609.986	45579.75
610.343	45564.61
610.7	45753.3
611.057	45889.34
611.414	45823.58
611.771	46141.32
612.127	46175.89
612.484	46325.26
612.841	46378.6
613.198	46290.69
613.554	46386.28
613.911	46722.77
614.267	46819.94
614.624	46748.08
614.98	46998.02
615.337	47318.23
615.693	47192.36
616.05	47304
616.406	47481.62
616.762	47436.2
617.118	47497.21
617.475	47435.29
617.831	47810.65
618.187	47830.99
618.543	47873.47
618.899	48077.54
619.255	48031.89
619.611	48015.84
619.967	48279.11
620.323	48409.28
620.678	48280.02
621.034	48337.87
621.39	48235.72
621.746	48310.98
622.101	48701.25
622.457	48455.15
622.812	48605.88
623.168	48760.23
623.523	48707.12
623.879	48832.77
624.234	48660.34
624.589	48813.11
624.945	48767.01
625.3	48883.16
625.655	48889.94
626.01	48882.26
626.365	49030.5
626.72	48772.43
627.075	48802.26
627.43	48760.91
627.785	48964.29
628.14	48896.04
628.495	48898.53
628.85	49004.06
629.205	48872.54
629.559	49089.71
629.914	48920.9
630.269	48923.39
630.623	48703.28
630.978	48762.94
631.332	49025.98
631.687	48914.12
632.041	48882.03
632.396	48766.1
632.75	48680.23
633.104	48852.66
633.459	48543.51
633.813	48674.13
634.167	48597.75
634.521	48594.13
634.875	48540.35
635.229	48558.65
635.583	48395.04
635.937	48198.89
636.291	48339.9
636.645	48211.32
636.999	48209.06
637.352	48289.96
637.706	48071.21
638.06	48300.58
638.413	48178.78
638.767	48088.61
639.121	48167.93
639.474	47886.58
639.828	47882.96
640.181	47831.67
640.534	47944.43
640.888	47690.65
641.241	47629.41
641.594	47678.68
641.947	47726.36
642.301	47613.37
642.654	47687.04
643.007	47459.47
643.36	47593.25
643.713	47506.93
644.066	47697.88
644.419	47397.1
644.771	46803.22
645.124	46607.52
645.477	46523.68
645.83	46579.5
646.182	46544.02
646.535	46490.46
646.888	46539.72
647.24	46378.37
647.593	46495.66
647.945	46382.66
648.298	46190.13
648.65	45985.16
649.002	45605.96
649.355	45687.54
649.707	45486.87
650.059	45568.45
650.411	46146.51
650.763	46372.04
651.115	47070.33
651.467	46755.31
651.819	46764.35
652.171	46775.42
652.523	46532.27
652.875	46625.6
653.227	46550.57
653.578	46814.74
653.93	46692.49
654.282	46436.67
654.633	46448.65
654.985	46472.38
655.337	46493.17
655.688	46451.59
656.039	46588.53
656.391	46192.16
656.742	46204.36
657.094	46268.32
657.445	46372.95
657.796	46305.38
658.147	46088.21
658.498	46308.77
658.849	46414.75
659.2	46299.5
659.551	46161.2
659.902	46389.22
660.253	46260.86
660.604	46350.12
660.955	46124.82
661.306	46320.75
661.656	46031.49
662.007	46158.49
662.358	46134.08
662.708	46149.9
663.059	46171.14
663.409	46014.09
663.76	46194.19
664.11	46164.82
664.461	46317.13
664.811	46288.43
665.161	46166.63
665.511	46094.54
665.862	46216.57
666.212	46364.59
666.562	46405.26
666.912	46370.69
667.262	45979.74
667.612	46222.89
667.962	46102.67
668.312	46084.37
668.662	46323.46
669.011	46319.16
669.361	46249.79
669.711	46245.49
670.06	46005.27
670.41	46033.75
670.76	46083.46
671.109	46227.41
671.459	46160.75
671.808	46213.63
672.157	46204.36
672.507	46014.54
672.856	46033.3
673.205	46013.63
673.554	46054.54
673.904	45915.78
674.253	46262.67
674.602	46006.63
674.951	45495.68
675.3	45226.76
675.649	45913.98
675.998	45921.89
676.346	46085.05
676.695	45980.42
677.044	45694.77
677.393	45810.7
677.741	45822
678.09	45682.57
678.438	45625.85
678.787	45760.99
679.135	45742.23
679.484	45411.84
679.832	45600.31
680.181	45512.41
680.529	45499.07
680.877	45235.12
681.225	45450.03
681.573	45511.73
681.922	45224.73
682.27	45185.86
682.618	45108.35
682.966	45143.38
683.314	45019.99
683.661	44959.43
684.009	44967.56
684.357	44709.94
684.705	44607.57
685.053	44765.53
685.4	44513.11
685.748	44511.53
686.095	44437.41
686.443	44332.1
686.79	44253.91
687.138	44303.85
687.485	44194.02
687.832	44048.49
688.18	43914.93
688.527	43833.58
688.874	43682.62
689.221	43808.27
689.568	43501.38
689.915	43399.47
690.262	43585.68
690.609	43266.81
690.956	43147.5
691.303	43240.83
691.65	43165.12
691.997	42965.81
692.344	42751.35
692.69	42728.07
693.037	42762.65
693.383	42417.35
693.73	42589.77
694.077	42265.03
694.423	42262.55
694.769	42080.63
695.116	42125.83
695.462	41846.51
695.808	41775.55
696.155	41883.12
696.501	41455.56
696.847	41527.65
697.193	41338.73
697.539	41440.2
697.885	40931.73
698.231	40943.26
698.577	40849.93
698.923	40935.58
699.269	40509.82
699.614	40352.09
699.96	40258.08
700.306	40243.17
700.651	40005.21
700.997	39981.93
701.342	39880.24
701.688	39701.26
702.033	39532.45
702.379	39573.13
702.724	39372.68
703.069	39396.41
703.415	38973.59
703.76	38906.25
704.105	38939.7
704.45	38798.01
704.795	38549.88
705.14	38616.09
705.485	38534.06
705.83	38342.2
706.175	38394.17
706.52	38217.23
706.865	38087.74
707.209	38000.74
707.554	37967.07
707.899	37984.24
708.243	37661.31
708.588	37591.48
708.932	37381.77
709.277	37515.33
709.621	37197.14
709.966	36949.92
710.31	37111.95
710.654	36890.94
710.998	36860.43
711.342	36960.09
711.687	36686.42
712.031	36604.62
712.375	36365.07
712.719	36452.08
713.063	36225.19
713.407	36555.8
713.75	36274
714.094	36226.55
714.438	36132.54
714.782	36157.62
715.125	35916.73
715.469	36125.76
715.812	35828.37
716.156	35692.78
716.499	35773.23
716.843	35749.27
717.186	35625.66
717.53	35709.27
717.873	35566
718.216	35462.95
718.559	35386.34
718.902	35281.04
719.246	35210.3
719.589	35182.96
719.932	35101.83
720.275	35126.69
720.617	35119.46
720.96	34994.04
721.303	34912.68
721.646	35133.24
721.989	34790.43
722.331	34977.09
722.674	34757.89
723.016	34835.4
723.359	34648.51
723.701	34801.73
724.044	34618.45
724.386	34483.32
724.729	34621.39
725.071	34581.62
725.413	34478.57
725.755	34411
726.097	34352.02
726.439	34231.35
726.782	34348.18
727.124	34506.37
727.465	34335.75
727.807	34180.05
728.149	34454.62
728.491	34196.09
728.833	34300.04
729.175	34144.12
729.516	34091.69
729.858	34119.26
730.199	34308.18
730.541	34251.68
730.882	34091.46
731.224	34138.92
731.565	33919.26
731.906	34136.88
732.248	34138.47
732.589	33916.78
732.93	33872.49
733.271	33977.34
733.612	33900.73
733.953	33982.99
734.294	33877.23
734.635	33901.41
734.976	33868.19
735.317	33847.4
735.658	33769.89
735.999	33851.92
736.339	33830
736.68	33828.87
737.021	33715.88
737.361	33687.41
737.702	33884.91
738.042	33782.32
738.383	33787.06
738.723	33718.82
739.063	33689.89
739.404	33795.65
739.744	33772.37
740.084	33788.42
740.424	33864.12
740.764	33806.95
741.104	34033.84
741.444	33796.1
741.784	33733.28
742.124	33834.07
742.464	33689.21
742.804	33800.4
743.143	33799.94
743.483	33800.4
743.823	33811.47
744.162	33769.89
744.502	34012.82
744.841	33867.51
745.181	33893.95
745.52	33875.87
745.86	34016.66
746.199	33904.12
746.538	33957
746.877	34226.6
747.216	34097.56
747.556	34068.41
747.895	34213.72
748.234	34185.25
748.573	34215.75
748.911	34167.62
749.25	34282.19
749.589	34186.83
749.928	34306.37
750.267	34354.28
750.605	34366.03
750.944	34460.27
751.283	34325.81
751.621	34660.26
751.96	34443.54
752.298	34477.89
752.636	34495.75
752.975	34568.74
753.313	34501.85
753.651	34690.54
753.989	34597.44
754.327	34763.76
754.666	34488.74
755.004	34742.52
