Data from 19-1250_FLMS001491_001.txt Node
Date: Thu Apr 19 16:28:08 BST 2018
User: hsy
Spectrometer: FLMS00149
Trigger mode: 0
Integration Time (sec): 1.000000E-2
Scans to average: 10
Electric dark correction enabled: true
Nonlinearity correction enabled: false
Boxcar width: 0
XAxis mode: Wavelengths
Number of Pixels in Spectrum: 2048
>>>>>Begin Spectral Data<<<<<
341.393	-9.25
341.776	-9.25
342.16	-9.25
342.543	-73.88
342.927	-70.72
343.31	-60.1
343.693	-78.18
344.077	-67.1
344.46	-67.33
344.843	-35.24
345.226	-51.06
345.61	-36.37
345.993	-11.74
346.376	-8.8
346.759	3.63
347.142	17.64
347.525	43.4
347.908	68.49
348.291	88.6
348.674	91.76
349.057	102.38
349.44	122.27
349.823	159.78
350.206	174.02
350.588	226.9
350.971	244.3
351.354	285.66
351.737	301.25
352.119	259.44
352.502	308.93
352.884	312.55
353.267	312.55
353.65	344.86
354.032	339.89
354.414	321.59
354.797	359.78
355.179	376.5
355.562	367.69
355.944	356.16
356.326	395.48
356.709	372.66
357.091	372.66
357.473	371.3
357.855	376.95
358.238	376.5
358.62	381.47
359.002	363.85
359.384	390.29
359.766	385.77
360.148	398.2
360.53	400
360.912	392.32
361.294	366.33
361.676	377.86
362.057	388.25
362.439	376.95
362.821	367.69
363.203	366.33
363.584	385.31
363.966	394.81
364.348	384.41
364.729	369.95
365.111	356.39
365.493	382.38
365.874	357.52
366.256	385.09
366.637	376.5
367.019	367.91
367.4	355.49
367.781	377.41
368.163	372.43
368.544	350.51
368.925	382.83
369.306	385.54
369.688	381.47
370.069	384.41
370.45	383.05
370.831	368.82
371.212	385.99
371.593	386.9
371.974	378.31
372.355	395.26
372.736	384.86
373.117	396.61
373.498	383.96
373.879	399.55
374.26	380.12
374.641	381.92
375.021	378.08
375.402	383.96
375.783	413.11
376.163	414.69
376.544	441.81
376.925	411.98
377.305	411.98
377.686	432.77
378.066	421.7
378.447	427.57
378.827	398.2
379.208	441.36
379.588	425.77
379.968	427.12
380.349	425.99
380.729	451.08
381.109	451.98
381.489	436.16
381.87	432.32
382.25	461.92
382.63	449.72
383.01	452.88
383.39	450.17
383.77	460.12
384.15	460.79
384.53	466.67
384.91	492.88
385.29	451.53
385.67	483.84
386.049	485.2
386.429	494.92
386.809	498.08
387.189	473.67
387.568	489.94
387.948	521.36
388.328	498.31
388.707	500.11
389.087	507.8
389.466	518.19
389.846	483.17
390.225	514.35
390.605	518.19
390.984	504.18
391.363	538.76
391.743	529.04
392.122	525.88
392.501	538.31
392.881	539.66
393.26	527.91
393.639	546.89
394.018	557.06
394.397	534.01
394.776	567
395.155	557.29
395.534	568.59
395.913	562.94
396.292	546.89
396.671	597.51
397.05	571.75
397.429	581.47
397.808	598.19
398.186	596.16
398.565	607
398.944	588.25
399.323	593.44
399.701	594.57
400.08	616.27
400.458	639.32
400.837	619.88
401.215	623.73
401.594	620.56
401.972	629.83
402.351	630.96
402.729	634.57
403.107	648.13
403.486	648.13
403.864	646.78
404.242	688.13
404.62	683.61
404.999	681.8
405.377	694.69
405.755	689.26
406.133	682.93
406.511	718.41
406.889	711.86
407.267	708.47
407.645	707.11
408.023	719.09
408.401	728.81
408.779	737.62
409.156	737.4
409.534	743.5
409.912	769.26
410.29	770.39
410.667	800.22
411.045	796.15
411.422	782.82
411.8	802.93
412.178	804.74
412.555	823.95
412.933	821.69
413.31	863.27
413.687	849.71
414.065	864.17
414.442	852.87
414.819	875.47
415.197	869.82
415.574	905.3
415.951	915.92
416.328	882.48
416.705	935.81
417.082	914.79
417.46	918.86
417.837	931.52
418.214	912.76
418.591	937.62
418.967	970.84
419.344	975.36
419.721	958.18
420.098	956.15
420.475	989.14
420.852	967.45
421.228	1005.19
421.605	1016.03
421.982	1003.15
422.358	1021.23
422.735	1042.92
423.111	1016.71
423.488	1045.41
423.864	1059.65
424.241	1080.21
424.617	1091.28
424.994	1101
425.37	1093.77
425.746	1102.36
426.123	1111.4
426.499	1101.91
426.875	1117.27
427.251	1165.41
427.627	1176.93
428.003	1173.77
428.379	1203.6
428.756	1199.98
429.132	1231.17
429.507	1228.91
429.883	1249.7
430.259	1268.91
430.635	1284.05
431.011	1304.84
431.387	1275.69
431.763	1341.9
432.138	1332.63
432.514	1384.38
432.89	1349.58
433.265	1402.01
433.641	1411.73
434.016	1395.23
434.392	1450.15
434.767	1462.8
435.143	1453.76
435.518	1476.13
435.894	1475.91
436.269	1525.17
436.644	1523.14
437.02	1534.21
437.395	1533.31
437.77	1572.18
438.145	1590.71
438.52	1576.02
438.895	1623.25
439.271	1614.21
439.646	1621.89
440.021	1640.87
440.395	1657.82
440.77	1621.21
441.145	1642.68
441.52	1679.07
441.895	1654.21
442.27	1694.21
442.645	1684.94
443.019	1721.78
443.394	1731.04
443.769	1760.42
444.143	1738.95
444.518	1768.78
444.892	1782.79
445.267	1763.81
445.641	1821.66
446.016	1803.36
446.39	1825.73
446.764	1798.84
447.139	1837.93
447.513	1845.62
447.887	1846.75
448.262	1855.11
448.636	1863.02
449.01	1893.3
449.384	1907.53
449.758	1908.89
450.132	1960.41
450.506	1933.3
450.88	1983.46
451.254	1967.42
451.628	2039.28
452.002	2057.59
452.376	2035.44
452.75	2034.76
453.123	2092.61
453.497	2104.14
453.871	2143.01
454.244	2154.08
454.618	2200.86
454.992	2202.89
455.365	2231.37
455.739	2274.53
456.112	2293.97
456.486	2302.55
456.859	2319.05
457.232	2393.85
457.606	2412.83
457.979	2403.11
458.352	2450.57
458.725	2480.17
459.099	2509.1
459.472	2559.04
459.845	2559.04
460.218	2599.95
460.591	2625.48
460.964	2625.71
461.337	2695.08
461.71	2740.51
462.083	2811.69
462.456	2794.74
462.829	2781.18
463.201	2847.4
463.574	2863.89
463.947	2924.91
464.32	2941.86
464.692	2968.52
465.065	2997
465.438	3025.7
465.81	3046.04
466.183	3062.31
466.555	3126.71
466.928	3154.96
467.3	3199.93
467.672	3214.17
468.045	3305.24
468.417	3284.67
468.789	3336.2
469.161	3394.28
469.534	3406.93
469.906	3476.53
470.278	3498.23
470.65	3494.61
471.022	3604.21
471.394	3600.15
471.766	3698.22
472.138	3737.99
472.51	3792.68
472.882	3826.81
473.253	3883.75
473.625	3958.33
473.997	4030.19
474.369	4052.79
474.74	4125.1
475.112	4154.26
475.484	4227.25
475.855	4299.56
476.227	4338.88
476.598	4403.06
476.97	4481.93
477.341	4636.95
477.713	4610.51
478.084	4773.22
478.455	4817.29
478.827	4878.3
479.198	5009.15
479.569	5013.22
479.94	5125.76
480.311	5194.68
480.682	5301.34
481.053	5349.48
481.424	5491.4
481.795	5626.08
482.166	5637.61
482.537	5817.04
482.908	5885.74
483.279	5942.46
483.65	6017.71
484.021	6110.81
484.391	6266.06
484.762	6343.12
485.133	6388.09
485.503	6519.16
485.874	6588.99
486.244	6759.16
486.615	6851.59
486.985	6943.56
487.356	6997.57
487.726	7168.64
488.097	7293.38
488.467	7364.79
488.837	7484.11
489.207	7556.65
489.578	7790.54
489.948	7876.42
490.318	8037.77
490.688	7988.96
491.058	8222.62
491.428	8292.23
491.798	8390.53
492.168	8599.79
492.538	8629.17
492.908	8784.19
493.278	8866.67
493.648	8898.54
494.017	9025.54
494.387	9134.46
494.757	9211.52
495.126	9381.91
495.496	9399.99
495.866	9503.49
496.235	9634.34
496.605	9686.99
496.974	9801.11
497.344	9917.49
497.713	10026.19
498.082	10100.77
498.452	10187.32
498.821	10300.53
499.19	10344.37
499.559	10376.92
499.928	10506.86
500.298	10614.42
500.667	10657.81
501.036	10732.61
501.405	10862.1
501.774	10939.61
502.143	10980.74
502.512	11115.2
502.88	11184.8
503.249	11207.4
503.618	11345.25
503.987	11394.29
504.356	11540.95
504.724	11599.94
505.093	11634.06
505.462	11731.23
505.83	11832.47
506.199	11881.06
506.567	12028.4
506.936	12116.98
507.304	12208.73
507.672	12264.55
508.041	12343.64
508.409	12504.09
508.777	12552
509.145	12694.82
509.514	12697.31
509.882	12946.57
510.25	12955.38
510.618	12959.45
510.986	13089.84
511.354	13220.01
511.722	13342.71
512.09	13422.03
512.458	13444.41
512.826	13534.12
513.193	13588.81
513.561	13784.74
513.929	13895.69
514.297	13995.58
514.664	14065.18
515.032	14102.69
515.4	14290.49
515.767	14325.06
516.135	14492.29
516.502	14437.15
516.869	14708.1
517.237	14732.96
517.604	14702.45
517.972	14950.36
518.339	15014.76
518.706	15181.31
519.073	15241.87
519.44	15369.55
519.808	15483.67
520.175	15611.13
520.542	15707.17
520.909	15939.48
521.276	15968.18
521.643	16223.54
522.009	16228.06
522.376	16354.16
522.743	16459.69
523.11	16608.17
523.477	16897.2
523.843	16935.39
524.21	17153.24
524.577	17327.92
524.943	17285.44
525.31	17455.83
525.676	17749.38
526.043	17836.16
526.409	17907.79
526.776	18228.69
527.142	18237.05
527.508	18376.71
527.874	18585.51
528.241	18659.18
528.607	18764.49
528.973	18986.18
529.339	19030.25
529.705	19212.16
530.071	19401.54
530.437	19537.81
530.803	19618.93
531.169	19884.92
531.535	19796.1
531.901	19947.51
532.267	20033.61
532.632	20243.32
532.998	20439.7
533.364	20409.42
533.73	20507.5
534.095	20677.89
534.461	20786.59
534.826	20911.55
535.192	20922.63
535.557	21122.17
535.923	21189.06
536.288	21436.96
536.653	21436.06
537.019	21406
537.384	21579.79
537.749	21624.76
538.114	21704.08
538.479	21815.26
538.845	21836.95
539.21	21888.7
539.575	21985.42
539.94	22128.02
540.305	22251.86
540.67	22239.88
541.034	22358.07
541.399	22510.16
541.764	22586.09
542.129	22758.51
542.494	22719.42
542.858	22707.89
543.223	22801.22
543.587	22952.63
543.952	22992.18
544.316	23049.58
544.681	23090.93
545.045	23216.35
545.41	23350.59
545.774	23313.75
546.138	23388.78
546.503	23423.35
546.867	23571.82
547.231	23732.27
547.595	23695.21
547.959	23769.56
548.324	23883.68
548.688	23879.39
549.052	24001.87
549.416	24066.73
549.779	24146.5
550.143	24238.7
550.507	24439.37
550.871	24463.55
551.235	24459.94
551.599	24728.63
551.962	24588.97
552.326	24748.74
552.689	24874.16
553.053	24786.93
553.417	25002.97
553.78	25302.63
554.143	25268.95
554.507	25420.14
554.87	25472.56
555.234	25802.05
555.597	25573.13
555.96	25758.88
556.323	25872.55
556.686	25953.68
557.05	26169.5
557.413	26182.15
557.776	26285.65
558.139	26522.48
558.502	26582.82
558.865	26614.91
559.228	26943.49
559.59	26859.19
559.953	26952.53
560.316	27284.49
560.679	27290.82
561.041	27524.04
561.404	27666.18
561.767	27806.06
562.129	27849.23
562.492	28093.06
562.854	28203.79
563.217	28279.5
563.579	28414.18
563.941	28547.96
564.304	28673.38
564.666	29027.27
565.028	29069.08
565.39	29160.15
565.753	29503.87
566.115	29393.82
566.477	29616.86
566.839	29827.93
567.201	30000.58
567.563	30147.92
567.925	30370.06
568.287	30343.17
568.648	30535.03
569.01	30750.39
569.372	31131.4
569.734	31063.38
570.095	31389.02
570.457	31636.24
570.819	31708.78
571.18	31679.86
571.542	32002.79
571.903	31930.02
572.265	32229.22
572.626	32463.34
572.987	32441.42
573.349	32666.5
573.71	32862.43
574.071	32974.51
574.432	33336.99
574.794	33391.9
575.155	33533.6
575.516	33455.18
575.877	33671.9
576.238	33794.15
576.599	34043.86
576.96	34032.57
577.32	34165.22
577.681	34201.83
578.042	34594.58
578.403	34638.88
578.763	34566.11
579.124	34833
579.485	35014.01
579.845	35143.95
580.206	35036.83
580.566	35179.43
580.927	35118.64
581.287	35419.65
581.648	35390.5
582.008	35669.58
582.368	35642.47
582.728	35730.15
583.089	35667.1
583.449	35886.53
583.809	35952.06
584.169	36186.63
584.529	36128.33
584.889	36398.38
585.249	36202.23
585.609	36270.7
585.969	36616
586.329	36505.95
586.688	36799.72
587.048	36861.42
587.408	36828.2
587.768	36933.28
588.127	37158.13
588.487	37112.03
588.846	37392.7
589.206	37247.17
589.565	37549.54
589.925	37727.16
590.284	37737.1
590.643	37859.36
591.003	38019.35
591.362	38297.99
591.721	38240.59
592.08	38304.09
592.44	38664.99
592.799	38809.39
593.158	38773.68
593.517	38941.14
593.876	39299.77
594.235	39226.78
594.593	39469.26
594.952	39671.06
595.311	39577.05
595.67	39978.17
596.029	40167.55
596.387	40299.75
596.746	40379.07
597.104	40345.39
597.463	40579.51
597.822	40956.9
598.18	40893.63
598.538	41110.35
598.897	41443.44
599.255	41252.04
599.613	41906.71
599.972	41697.67
600.33	41914.62
600.688	41973.15
601.046	42196.19
601.404	42537.43
601.762	42508.5
602.12	42890.19
602.478	42762.28
602.836	43069.16
603.194	42899.9
603.552	43178.31
603.91	43207.47
604.268	43476.61
604.625	43667.79
604.983	44055.8
605.341	43708.47
605.698	44065.75
606.056	44551.39
606.413	44435.91
606.771	44528.56
607.128	44635.45
607.485	44620.99
607.843	44818.72
608.2	45109.11
608.557	45295.77
608.914	45256.45
609.272	45499.16
609.629	45821.63
609.986	45940.05
610.343	45914.74
610.7	46264.11
611.057	46226.14
611.414	46230.66
611.771	46531.9
612.127	46651.67
612.484	46796.75
612.841	46916.07
613.198	46846.92
613.554	46967.82
613.911	47215.5
614.267	47278.77
614.624	47311.09
614.98	47425.89
615.337	47797.18
615.693	47638.76
616.05	47636.05
616.406	47892.31
616.762	47877.17
617.118	48055.47
617.475	47921.47
617.831	48145.19
618.187	48298.41
618.543	48269.25
618.899	48515.12
619.255	48569.81
619.611	48412.3
619.967	48669.47
620.323	48824.49
620.678	48690.94
621.034	48792.63
621.39	48797.83
621.746	48829.46
622.101	49202.34
622.457	48895.9
622.812	49152.62
623.168	49144.71
623.523	49152.85
623.879	49212.51
624.234	49067.2
624.589	49214.09
624.945	49296.12
625.3	49353.29
625.655	49256.8
626.01	49242.11
626.365	49368.66
626.72	49315.33
627.075	49253.41
627.43	49291.37
627.785	49329.34
628.14	49349.68
628.495	49433.29
628.85	49473.06
629.205	49327.76
629.559	49517.36
629.914	49342.9
630.269	49433.52
630.623	49195.33
630.978	49083.47
631.332	49378.6
631.687	49386.74
632.041	49270.58
632.396	49083.92
632.75	49047.09
633.104	49213.86
633.459	49032.85
633.813	49039.18
634.167	48909.69
634.521	49141.77
634.875	49040.76
635.229	48928.67
635.583	48801.22
635.937	48666.53
636.291	48790.82
636.645	48805.28
636.999	48598.06
637.352	48773.65
637.706	48403.94
638.06	48657.49
638.413	48481.9
638.767	48402.13
639.121	48459.76
639.474	48220.22
639.828	48206.43
640.181	48333.43
640.534	48344.96
640.888	48086.89
641.241	47913.1
641.594	48077.85
641.947	48196.49
642.301	47981.8
642.654	48019.99
643.007	47925.76
643.36	48084.17
643.713	47913.1
644.066	47940.67
644.419	47788.81
644.771	47361.93
645.124	46959.01
645.477	46963.98
645.83	46864.32
646.182	46911.32
646.535	46780.03
646.888	46848.95
647.24	46768.28
647.593	46984.32
647.945	46859.35
648.298	46706.36
648.65	46462.07
649.002	46161.74
649.355	45951.57
649.707	45917.9
650.059	46018.47
650.411	46573.03
650.763	46897.09
651.115	47508.82
651.467	47292.78
651.819	47225.67
652.171	47180.24
652.523	46967.37
652.875	47152.9
653.227	46962.62
653.578	47169.62
653.93	47124.65
654.282	46844.66
654.633	47000.13
654.985	46810.53
655.337	46882.62
655.688	46912.9
656.039	46981.6
656.391	46660.03
656.742	46847.6
657.094	46737.54
657.445	46763.76
657.796	47012.34
658.147	46789.97
658.498	46801.95
658.849	46902.28
659.2	46657.77
659.551	46760.59
659.902	47001.04
660.253	46649.86
660.604	46825.68
660.955	46692.57
661.306	46863.87
661.656	46562.86
662.007	46741.16
662.358	46631.33
662.708	46641.27
663.059	46568.96
663.409	46436.99
663.76	46685.34
664.11	46707.94
664.461	46732.34
664.811	46738.9
665.161	46667.26
665.511	46464.33
665.862	46529.64
666.212	46538.45
666.562	46698.9
666.912	46643.76
667.262	46486.48
667.612	46529.41
667.962	46625.68
668.312	46451.45
668.662	46727.83
669.011	46602.63
669.361	46528.96
669.711	46513.14
670.06	46540.71
670.41	46382.98
670.76	46443.31
671.109	46590.2
671.459	46446.25
671.808	46407.38
672.157	46488.74
672.507	46206.71
672.856	46329.87
673.205	46367.83
673.554	46231.79
673.904	46301.85
674.253	46488.51
674.602	46379.36
674.951	45715.65
675.3	45562.88
675.649	46365.12
675.998	46312.02
676.346	46282.86
676.695	46256.2
677.044	45914.74
677.393	46036.54
677.741	46253.94
678.09	46040.16
678.438	46033.15
678.787	46053.49
679.135	45982.31
679.484	45599.72
679.832	45926.04
680.181	45780.73
680.529	45747.06
680.877	45608.76
681.225	45581.64
681.573	45842.65
681.922	45523.56
682.27	45531.47
682.618	45406.05
682.966	45270.01
683.314	45376
683.661	45464.13
684.009	45309.78
684.357	45198.15
684.705	45034.08
685.053	45096.46
685.4	44964.93
685.748	44914.54
686.095	44893.75
686.443	44643.81
686.79	44634.09
687.138	44792.28
687.485	44568.56
687.832	44454.66
688.18	44459.18
688.527	44367.44
688.874	44240.21
689.221	44195.91
689.568	44060.32
689.915	43877.05
690.262	43981.91
690.609	43924.51
690.956	43731.07
691.303	43664.4
691.65	43569.72
691.997	43417.18
692.344	43248.59
692.69	43236.62
693.037	43184.64
693.383	42888.38
693.73	42978.32
694.077	42679.12
694.423	42596.41
694.769	42572.91
695.116	42643.41
695.462	42324.55
695.808	42202.52
696.155	42196.64
696.501	41916.2
696.847	41951.45
697.193	41591.69
697.539	41912.58
697.885	41441.18
698.231	41267.18
698.577	41189.21
698.923	41218.37
699.269	40841.2
699.614	40885.27
699.96	40692.5
700.306	40655.89
700.651	40452.28
700.997	40292.51
701.342	40229.92
701.688	40192.4
702.033	39853.2
702.379	39964.39
702.724	39756.03
703.069	39767.1
703.415	39413.67
703.76	39357.62
704.105	39431.29
704.45	39196.27
704.795	39148.36
705.14	38956.5
705.485	39042.38
705.83	38642.84
706.175	38854.13
706.52	38673.57
706.865	38562.62
707.209	38316.75
707.554	38268.39
707.899	38307.03
708.243	38128.5
708.588	38006.02
708.932	37957.43
709.277	37983.42
709.621	37681.96
709.966	37467.05
710.31	37547.95
710.654	37230.22
710.998	37266.38
711.342	37430.89
711.687	37065.48
712.031	37104.35
712.375	36905.94
712.719	36971.25
713.063	36888.99
713.407	36920.63
713.75	36814.87
714.094	36680.86
714.438	36576.68
714.782	36644.25
715.125	36450.58
715.469	36692.83
715.812	36290.59
716.156	36308.66
716.499	36209.23
716.843	36176.01
717.186	36057.15
717.53	36174.2
717.873	36028.9
718.216	35880.2
718.559	35978.96
718.902	35635.46
719.246	35772.63
719.589	35629.36
719.932	35535.35
720.275	35515.46
720.617	35689.02
720.96	35439.53
721.303	35520.66
721.646	35568.8
721.989	35265.75
722.331	35401.57
722.674	35290.84
723.016	35287
723.359	35054.91
723.701	35243.61
724.044	35109.37
724.386	34898.08
724.729	35027.79
725.071	34910.73
725.413	34959.09
725.755	34905.31
726.097	34776.73
726.439	34766.11
726.782	34634.81
727.124	34814.01
727.465	34793.22
727.807	34562.95
728.149	34625.77
728.491	34604.08
728.833	34591.65
729.175	34642.95
729.516	34459.22
729.858	34561.37
730.199	34615.38
730.541	34477.53
730.882	34367.25
731.224	34437.98
731.565	34428.26
731.906	34369.51
732.248	34513
732.589	34282.05
732.93	34242.05
733.271	34270.98
733.612	34321.37
733.953	34278.21
734.294	34122.05
734.635	34212.45
734.976	34393.01
735.317	34247.02
735.658	34108.04
735.999	34146.91
736.339	34206.12
736.68	34187.36
737.021	34175.39
737.361	34028.72
737.702	34262.39
738.042	34019.01
738.383	34174.48
738.723	34153.24
739.063	33965.45
739.404	34167.48
739.744	34084.32
740.084	34109.4
740.424	34131.32
740.764	34093.58
741.104	34226.68
741.444	33944.66
741.784	33784.44
742.124	34151.21
742.464	34028.27
742.804	34019.46
743.143	34052.68
743.483	34216.97
743.823	33896.52
744.162	34058.78
744.502	34068.95
744.841	34157.31
745.181	34317.08
745.52	34104.2
745.86	34185.33
746.199	34125.67
746.538	34248.61
746.877	34318.66
747.216	34363.86
747.556	34335.38
747.895	34396.62
748.234	34384.19
748.573	34392.33
748.911	34283.63
749.25	34349.17
749.589	34379.9
749.928	34579.22
750.267	34530.86
750.605	34542.16
750.944	34616.05
751.283	34606.34
751.621	34786.44
751.96	34588.94
752.298	34691.31
752.636	34829.83
752.975	34693.57
753.313	34662.38
753.651	34950.51
753.989	34725.88
754.327	34926.33
754.666	34765.88
