Data from 19-1250_FLMS001491_004.txt Node
Date: Thu Apr 19 16:28:15 BST 2018
User: hsy
Spectrometer: FLMS00149
Trigger mode: 0
Integration Time (sec): 1.000000E-2
Scans to average: 10
Electric dark correction enabled: true
Nonlinearity correction enabled: false
Boxcar width: 0
XAxis mode: Wavelengths
Number of Pixels in Spectrum: 2048
>>>>>Begin Spectral Data<<<<<
341.393	-7.92
341.776	-7.92
342.16	-7.92
342.543	-59
342.927	-91.09
343.31	-77.53
343.693	-70.52
344.077	-79.33
344.46	-69.84
344.843	-46.11
345.226	-43.4
345.61	-27.13
345.993	-5.89
346.376	-10.18
346.759	17.39
347.142	32.98
347.525	43.6
347.908	46.99
348.291	69.36
348.674	93.54
349.057	126.08
349.44	116.37
349.823	148
350.206	180.77
350.588	223.93
350.971	250.6
351.354	268.91
351.737	261.67
352.119	307.32
352.502	294.89
352.884	305.29
353.267	310.26
353.65	332.18
354.032	337.6
354.414	360.88
354.797	340.32
355.179	329.02
355.562	369.92
355.944	369.02
356.326	376.93
356.709	378.28
357.091	380.54
357.473	353.2
357.855	368.11
358.238	377.38
358.62	367.21
359.002	383.48
359.384	391.16
359.766	382.57
360.148	365.63
360.53	373.31
360.912	376.47
361.294	386.87
361.676	385.06
362.057	395.91
362.439	378.73
362.821	387.55
363.203	373.54
363.584	388
363.966	381.67
364.348	388.68
364.729	392.97
365.111	380.09
365.493	390.94
365.874	379.18
366.256	372.86
366.637	399.75
367.019	349.13
367.4	367.66
367.781	362.01
368.163	360.43
368.544	354.33
368.925	376.47
369.306	384.61
369.688	371.73
370.069	376.25
370.45	366.76
370.831	369.02
371.212	386.87
371.593	382.35
371.974	395
372.355	369.92
372.736	409.01
373.117	372.63
373.498	378.73
373.879	376.25
374.26	369.69
374.641	375.34
375.021	384.16
375.402	399.98
375.783	394.55
376.163	408.11
376.544	388.9
376.925	432.52
377.305	406.53
377.686	418.96
378.066	406.75
378.447	404.04
378.827	420.77
379.208	426.87
379.588	428
379.968	432.97
380.349	407.66
380.729	428.45
381.109	441.78
381.489	419.41
381.87	433.42
382.25	426.64
382.63	446.53
383.01	435.68
383.39	441.56
383.77	440.43
384.15	418.96
384.53	441.33
384.91	459.63
385.29	428.68
385.67	462.35
386.049	480.88
386.429	465.74
386.809	487.66
387.189	449.92
387.568	476.36
387.948	463.48
388.328	486.07
388.707	482.69
389.087	496.02
389.466	486.75
389.846	499.18
390.225	520.42
390.605	486.3
390.984	496.02
391.363	505.96
391.743	510.03
392.122	520.65
392.501	519.52
392.881	529.24
393.26	514.32
393.639	549.12
394.018	540.54
394.397	542.12
394.776	544.83
395.155	555.68
395.534	542.8
395.913	556.36
396.292	576.69
396.671	546.64
397.05	553.87
397.429	557.94
397.808	554.1
398.186	569.01
398.565	584.15
398.944	570.59
399.323	578.28
399.701	568.78
400.08	603.81
400.458	606.52
400.837	604.04
401.215	601.1
401.594	589.57
401.972	614.66
402.351	614.88
402.729	611.95
403.107	615.11
403.486	618.73
403.864	635.9
404.242	651.72
404.62	632.74
404.999	624.15
405.377	662.57
405.755	649.01
406.133	652.17
406.511	678.84
406.889	689.46
407.267	668.44
407.645	689.23
408.023	708.44
408.401	716.8
408.779	702.34
409.156	726.07
409.534	736.92
409.912	774.65
410.29	753.86
410.667	763.36
411.045	743.02
411.422	784.37
411.8	762.9
412.178	779.4
412.555	785.73
412.933	805.61
413.31	808.33
413.687	821.89
414.065	812.85
414.442	845.39
414.819	840.42
415.197	854.65
415.574	851.26
415.951	861.66
416.328	886.97
416.705	858.49
417.082	882
417.46	876.57
417.837	887.65
418.214	905.95
418.591	899.4
418.967	893.07
419.344	894.65
419.721	922.9
420.098	924.93
420.475	940.53
420.852	967.87
421.228	957.25
421.605	938.04
421.982	987.76
422.358	996.34
422.735	1005.38
423.111	994.54
423.488	1016.91
423.864	999.51
424.241	1004.03
424.617	1033.63
424.994	1037.02
425.37	1027.98
425.746	1021.65
426.123	1050.81
426.499	1049.22
426.875	1032.73
427.251	1093.97
427.627	1111.14
428.003	1118.37
428.379	1107.75
428.756	1156.57
429.132	1163.35
429.507	1153.4
429.883	1164.7
430.259	1186.17
430.635	1209.45
431.011	1244.02
431.387	1264.36
431.763	1281.76
432.138	1254.87
432.514	1278.37
432.89	1295.09
433.265	1297.8
433.641	1326.28
434.016	1326.5
434.392	1364.92
434.767	1357.92
435.143	1378.48
435.518	1391.14
435.894	1399.95
436.269	1414.19
436.644	1420.97
437.02	1445.37
437.395	1452.15
437.77	1469.55
438.145	1502.09
438.52	1504.58
438.895	1527.4
439.271	1524.01
439.646	1550.91
440.021	1561.75
440.395	1556.33
440.77	1537.8
441.145	1558.81
441.52	1595.65
441.895	1619.6
442.27	1592.71
442.645	1620.73
443.019	1621.86
443.394	1641.3
443.769	1635.88
444.143	1652.15
444.518	1640.39
444.892	1648.53
445.267	1660.06
445.641	1681.52
446.016	1704.35
446.39	1705.25
446.764	1718.13
447.139	1731.69
447.513	1731.47
447.887	1739.6
448.262	1782.31
448.636	1753.61
449.01	1798.58
449.384	1803.78
449.758	1794.97
450.132	1827.06
450.506	1835.64
450.88	1858.02
451.254	1830.22
451.628	1880.16
452.002	1919.48
452.376	1941.4
452.75	1943.21
453.123	1947.28
453.497	2000.39
453.871	1997.9
454.244	2041.51
454.618	2031.8
454.992	2080.16
455.365	2080.84
455.739	2124.9
456.112	2164.9
456.486	2166.48
456.859	2173.26
457.232	2217.33
457.606	2239.48
457.979	2247.61
458.352	2297.1
458.725	2328.51
459.099	2352.01
459.472	2369.87
459.845	2392.24
460.218	2421.39
460.591	2460.26
460.964	2486.25
461.337	2521.05
461.71	2568.51
462.083	2571.9
462.456	2630.43
462.829	2632.69
463.201	2660.03
463.574	2685.34
463.947	2688.05
464.32	2736.64
464.692	2733.02
465.065	2782.06
465.438	2823.19
465.81	2831.1
466.183	2865
466.555	2907.03
466.928	2931.66
467.3	2926.69
467.672	2980.02
468.045	3067.7
468.417	3125.33
468.789	3108.83
469.161	3137.3
469.534	3172.33
469.906	3239.22
470.278	3233.35
470.65	3298.2
471.022	3359.67
471.394	3408.48
471.766	3449.84
472.138	3454.81
472.51	3524.86
472.882	3575.49
473.253	3627.69
473.625	3705.2
473.997	3729.38
474.369	3731.87
474.74	3819.09
475.112	3891.41
475.484	3929.83
475.855	3976.38
476.227	4061.57
476.598	4174.79
476.97	4157.39
477.341	4263.6
477.713	4360.32
478.084	4372.3
478.455	4473.99
478.827	4571.17
479.198	4664.72
479.569	4669.24
479.94	4761.89
480.311	4846.86
480.682	4940.87
481.053	5030.59
481.424	5131.6
481.795	5240.75
482.166	5250.47
482.537	5320.98
482.908	5450.92
483.279	5545.15
483.65	5664.7
484.021	5774.52
484.391	5767.07
484.762	5908.76
485.133	5999.38
485.503	6046.61
485.874	6192.37
486.244	6249.31
486.615	6356.43
486.985	6496.09
487.356	6550.1
487.726	6617.44
488.097	6803.2
488.467	6842.07
488.837	7012.46
489.207	7024.43
489.578	7160.7
489.948	7342.62
490.318	7419
490.688	7478.43
491.058	7610.41
491.428	7767.24
491.798	7820.35
492.168	7990.96
492.538	7952.55
492.908	8169.94
493.278	8266.44
493.648	8332.87
494.017	8458.07
494.387	8515.69
494.757	8629.82
495.126	8696.93
495.496	8783.03
495.866	8828.23
496.235	8980.54
496.605	9059.86
496.974	9093.76
497.344	9298.72
497.713	9298.5
498.082	9396.35
498.452	9506.85
498.821	9614.42
499.19	9676.12
499.559	9766.06
499.928	9801.76
500.298	9938.48
500.667	9979.61
501.036	10036.78
501.405	10131.7
501.774	10187.74
502.143	10284.46
502.512	10340.05
502.88	10543.66
503.249	10552.93
503.618	10606.71
503.987	10693.26
504.356	10852.58
504.724	10888.74
505.093	10896.87
505.462	11035.85
505.83	11118.11
506.199	11175.74
506.567	11387.71
506.936	11416.86
507.304	11509.06
507.672	11503.86
508.041	11621.83
508.409	11719.45
508.777	11799
509.145	11911.76
509.514	11891.2
509.882	12043.51
510.25	12130.06
510.618	12255.26
510.986	12265.88
511.354	12386.78
511.722	12508.81
512.09	12575.7
512.458	12648.47
512.826	12808.91
513.193	12805.07
513.561	12860.66
513.929	13033.32
514.297	13208.9
514.664	13217.27
515.032	13268.56
515.4	13386.75
515.767	13479.18
516.135	13690.02
516.502	13610.02
516.869	13858.38
517.237	13881.65
517.604	13777.02
517.972	14023.8
518.339	14200.06
518.706	14308.76
519.073	14377.23
519.44	14401.19
519.808	14658.81
520.175	14645.48
520.542	14826.04
520.909	14890.22
521.276	14951.91
521.643	15183.32
522.009	15269.19
522.376	15382.18
522.743	15554.15
523.11	15653.81
523.477	15815.62
523.843	15990.98
524.21	16201.14
524.577	16251.08
524.943	16333.34
525.31	16401.59
525.676	16630.96
526.043	16802.93
526.409	16835.25
526.776	17068.46
527.142	17205.18
527.508	17324.5
527.874	17524.5
528.241	17558.85
528.607	17729.46
528.973	17911.61
529.339	17948.21
529.705	18111.6
530.071	18264.36
530.437	18331.48
530.803	18484.02
531.169	18615.77
531.535	18713.84
531.901	18763.79
532.267	18834.52
532.632	19022.76
532.998	19119.94
533.364	19201.29
533.73	19333.71
534.095	19501.62
534.461	19585.91
534.826	19658.9
535.192	19695.06
535.557	19966.47
535.923	19966.24
536.288	20002.17
536.653	20152
537.019	20179.79
537.384	20272
537.749	20368.72
538.114	20456.4
538.479	20428.6
538.845	20527.58
539.21	20600.57
539.575	20660.01
539.94	20855.26
540.305	21103.84
540.67	20954.92
541.034	21140.45
541.399	21111.75
541.764	21281.91
542.129	21307.45
542.494	21385.41
542.858	21376.15
543.223	21441.46
543.587	21596.03
543.952	21570.27
544.316	21844.38
544.681	21770.26
545.045	21833.99
545.41	22008.67
545.774	22020.2
546.138	22167.31
546.503	22153.08
546.867	22283.69
547.231	22282.11
547.595	22385.61
547.959	22495.44
548.324	22503.35
548.688	22545.38
549.052	22596.23
549.416	22648.88
549.779	22732.04
550.143	22871.7
550.507	23014.07
550.871	23038.02
551.235	23071.02
551.599	23284.12
551.962	23295.64
552.326	23517.56
552.689	23559.14
553.053	23460.61
553.417	23548.75
553.78	23894.72
554.143	23980.82
554.507	24004.78
554.87	24051.56
555.234	24384.2
555.597	24209.07
555.96	24413.81
556.323	24527.25
556.686	24572
557.05	24652.67
557.413	24777.41
557.776	24764.31
558.139	25067.8
558.502	25169.72
558.865	25054.92
559.228	25344.18
559.59	25496.26
559.953	25569.71
560.316	25839.53
560.679	25731.29
561.041	26051.05
561.404	26222.35
561.767	26334.66
562.129	26290.59
562.492	26555.45
562.854	26591.15
563.217	26739.17
563.579	26878.6
563.941	27048.31
564.304	27330.34
564.666	27508.64
565.028	27409.89
565.39	27564.91
565.753	27788.63
566.115	27859.14
566.477	28097.1
566.839	28168.06
567.201	28493.25
567.563	28493.7
567.925	28762.39
568.287	28779.57
568.648	28955.38
569.01	29105.89
569.372	29357.18
569.734	29291.19
570.095	29582.71
570.457	29887.79
570.819	29885.75
571.18	29811.63
571.542	30155.8
571.903	30178.63
572.265	30361
572.626	30615.9
572.987	30768.67
573.349	30872.62
573.71	31139.05
574.071	31254.98
574.432	31290.91
574.794	31574.75
575.155	31697.01
575.516	31674.18
575.877	31860.17
576.238	31983.33
576.599	32134.28
576.96	32261.96
577.32	32334.28
577.681	32457.66
578.042	32506.48
578.403	32690.88
578.763	32765.23
579.124	32779.24
579.485	33154.14
579.845	33209.28
580.206	33260.13
580.566	33208.38
580.927	33312.56
581.287	33546.45
581.648	33525.43
582.008	33775.59
582.368	33754.58
582.728	33882.71
583.089	33827.57
583.449	34011.97
583.809	34006.32
584.169	34280.21
584.529	34132.65
584.889	34519.08
585.249	34432.07
585.609	34414
585.969	34696.25
586.329	34607.21
586.688	34808.56
587.048	34821.67
587.408	35151.83
587.768	35090.59
588.127	35158.16
588.487	35352.95
588.846	35662.78
589.206	35425.04
589.565	35648.31
589.925	36008.98
590.284	35846.73
590.643	36043.33
591.003	36170.11
591.362	36521.96
591.721	36657.55
592.08	36609.19
592.44	37079.46
592.799	36937.77
593.158	37080.37
593.517	37131.66
593.876	37479.45
594.235	37581.82
594.593	37785.88
594.952	37891.87
595.311	37851.42
595.67	38207.12
596.029	38418.86
596.387	38655.01
596.746	38974.1
597.104	38739.31
597.463	39015.91
597.822	39294.55
598.18	39350.59
598.538	39379.52
598.897	39839.39
599.255	39745.16
599.613	40180.4
599.972	40076.22
600.33	40387.62
600.688	40394.63
601.046	40708.07
601.404	40995.97
601.762	40991
602.12	41250.43
602.478	41433.02
602.836	41640.47
603.194	41344.89
603.552	41656.97
603.91	41743.3
604.268	42090.86
604.625	42032.1
604.983	42401.81
605.341	42198.2
605.698	42495.82
606.056	42964.28
606.413	42743.27
606.771	43094.9
607.128	43180.09
607.485	43162.47
607.843	43275.46
608.2	43421.22
608.557	43646.52
608.914	43759.51
609.272	43834.09
609.629	44198.15
609.986	44207.86
610.343	44364.24
610.7	44616.44
611.057	44695.08
611.414	44670
611.771	44990.89
612.127	45119.25
612.484	45136.65
612.841	45303.43
613.198	45277.44
613.554	45253.26
613.911	45692.34
614.267	45756.3
614.624	45702.29
614.98	45934.6
615.337	46181.82
615.693	46173.69
616.05	46258.66
616.406	46401.25
616.762	46367.35
617.118	46467.92
617.475	46538.88
617.831	46696.39
618.187	46811.18
618.543	46831.3
618.899	47067.9
619.255	46955.14
619.611	47126.43
619.967	47296.82
620.323	47448.23
620.678	47238.97
621.034	47353.09
621.39	47311.96
621.746	47270.61
622.101	47835.11
622.457	47433.77
622.812	47667.21
623.168	47734.32
623.523	47704.72
623.879	47915.34
624.234	47659.75
624.589	47943.58
624.945	47770.71
625.3	47824.72
625.655	47925.28
626.01	48099.06
626.365	48019.29
626.72	47875.11
627.075	47816.13
627.43	47913.53
627.785	48086.86
628.14	48013.86
628.495	47986.29
628.85	48051.15
629.205	47906.07
629.559	48102
629.914	48013.19
630.269	47896.13
630.623	47751.5
630.978	47712.86
631.332	47960.31
631.687	47863.81
632.041	47861.55
632.396	47820.2
632.75	47740.88
633.104	47755.79
633.459	47697.26
633.813	47740.65
634.167	47639.86
634.521	47640.99
634.875	47655.91
635.229	47600.32
635.583	47306.76
635.937	47264.28
636.291	47356.25
636.645	47330.49
636.999	47206.88
637.352	47360.32
637.706	47021.35
638.06	47290.27
638.413	47256.14
638.767	46987.68
639.121	47195.36
639.474	46926.66
639.828	46806.66
640.181	46987
640.534	47071.06
640.888	46864.52
641.241	46637.63
641.594	46695.71
641.947	46870.62
642.301	46634.69
642.654	46697.97
643.007	46583.62
643.36	46614.81
643.713	46491.42
644.066	46770.51
644.419	46421.36
644.771	46028.83
645.124	45630.65
645.477	45599.46
645.83	45464.55
646.182	45451.45
646.535	45399.02
646.888	45460.26
647.24	45451.67
647.593	45703.19
647.945	45288.06
648.298	45226.82
648.65	45180.94
649.002	44767.4
649.355	44607.63
649.707	44411.02
650.059	44328.76
650.411	45036.32
650.763	45208.97
651.115	45961.94
651.467	45770.76
651.819	45679.69
652.171	45672.23
652.523	45527.38
652.875	45606.24
653.227	45465.91
653.578	45837.88
653.93	45676.52
654.282	45449.64
654.633	45349.3
654.985	45522.86
655.337	45569.64
655.688	45446.25
656.039	45579.8
656.391	45159.02
656.742	45340.94
657.094	45345.01
657.445	45397.66
657.796	45464.55
658.147	45303.65
658.498	45387.72
658.849	45544.1
659.2	45297.55
659.551	45219.59
659.902	45481.5
660.253	45290.55
660.604	45472.69
660.955	45177.56
661.306	45380.26
661.656	45200.61
662.007	45180.49
662.358	45222.98
662.708	45157.44
663.059	45273.82
663.409	45029.31
663.76	45379.81
664.11	45217.33
664.461	45507.26
664.811	45234.95
665.161	45250.55
665.511	45221.85
665.862	45304.56
666.212	45271.79
666.562	45276.31
666.912	45123.32
667.262	45231.56
667.612	45234.5
667.962	45124.68
668.312	45160.15
668.662	45371.45
669.011	45411.22
669.361	45205.35
669.711	45275.63
670.06	45237.89
670.41	45100.72
670.76	45080.38
671.109	45323.99
671.459	45162.41
671.808	45156.09
672.157	45274.28
672.507	44979.14
672.856	44832.25
673.205	44990.89
673.554	45037.67
673.904	45003.32
674.253	45169.87
674.602	44941.86
674.951	44461.87
675.3	44329.22
675.649	44874.96
675.998	44797.68
676.346	44888.52
676.695	44911.12
677.044	44612.82
677.393	44735.76
677.741	44795.19
678.09	44622.99
678.438	44595.2
678.787	44594.07
679.135	44488.31
679.484	44460.29
679.832	44589.32
680.181	44270.46
680.529	44191.82
680.877	44158.15
681.225	44238.82
681.573	44502.32
681.922	44132.84
682.27	44126.51
682.618	44060.52
682.966	43933.07
683.314	44065.95
683.661	43928.55
684.009	43799.06
684.357	43709.8
684.705	43676.35
685.053	43705.73
685.4	43601.55
685.748	43438.84
686.095	43372.18
686.443	43275.01
686.79	43102.81
687.138	43230.49
687.485	43247.21
687.832	43061.23
688.18	43071.17
688.527	42828.01
688.874	42774.23
689.221	42917.5
689.568	42677.06
689.915	42520.45
690.262	42536.72
690.609	42502.6
690.956	42340.34
691.303	42191.64
691.65	41958.2
691.997	41999.11
692.344	41727.02
692.69	41623.3
693.037	41695.16
693.383	41370.65
693.73	41511.89
694.077	41316.41
694.423	41256.3
694.769	41207.49
695.116	41071.45
695.462	40967.27
695.808	40736.54
696.155	40821.96
696.501	40506.72
696.847	40563.67
697.193	40227.4
697.539	40407.06
697.885	39965.94
698.231	39941.31
698.577	39836.68
698.923	39700.18
699.269	39583.58
699.614	39584.26
699.96	39267.88
700.306	39260.2
700.651	39120.77
700.997	38881.22
701.342	39025.85
701.688	38796.93
702.033	38587.22
702.379	38737.95
702.724	38446.66
703.069	38565.3
703.415	38101.36
703.76	38171.41
704.105	38206.21
704.45	37942.04
704.795	37749.05
705.14	37732.33
705.485	37746.34
705.83	37418.44
706.175	37538.21
706.52	37298.67
706.865	37432.67
707.209	37122.17
707.554	37135.28
707.899	37125.79
708.243	36862.75
708.588	36839.24
708.932	36505.69
709.277	36591.11
709.621	36559.48
709.966	36291.24
710.31	36360.84
710.654	36109.77
710.998	36204.68
711.342	36223.44
711.687	36079.94
712.031	35946.16
712.375	35892.83
712.719	35674.53
713.063	35691.48
713.407	35731.48
713.75	35550.69
714.094	35477.47
714.438	35307.08
714.782	35424.14
715.125	35204.03
715.469	35273.41
715.812	35084.49
716.156	35077.71
716.499	35056.01
716.843	35125.62
717.186	34851.27
717.53	34933.76
717.873	35001.55
718.216	34822.35
718.559	34688.79
718.902	34456.26
719.246	34662.8
719.589	34551.17
719.932	34425.3
720.275	34489.7
720.617	34345.3
720.96	34147.56
721.303	34308.46
721.646	34259.88
721.989	34152.53
722.331	34311.63
722.674	34119.09
723.016	34021.69
723.359	33805.65
723.701	34073.21
724.044	33845.65
724.386	33710.51
724.729	33933.33
725.071	33922.71
725.413	33840.45
725.755	33692.89
726.097	33636.84
726.439	33608.59
726.782	33549.61
727.124	33584.64
727.465	33501.48
727.807	33348.04
728.149	33411.99
728.491	33359.56
728.833	33420.8
729.175	33306.91
729.516	33175.38
729.858	33208.83
730.199	33345.55
730.541	33221.71
730.882	33261.03
731.224	33179.23
731.565	33216.29
731.906	32997.99
732.248	33139.45
732.589	33090.19
732.93	32931.1
733.271	33034.37
733.612	32988.95
733.953	33023.52
734.294	33072.34
734.635	32858.33
734.976	32991.89
735.317	32970.19
735.658	33039.8
735.999	32964.32
736.339	32872.12
736.68	32969.06
737.021	32953.24
737.361	32899.69
737.702	33109.17
738.042	32874.6
738.383	33035.05
738.723	33024.43
739.063	32821.5
739.404	33112.56
739.744	32928.16
740.084	32947.59
740.424	33032.56
740.764	32870.53
741.104	33054.71
741.444	32980.81
741.784	32921.38
742.124	33071.43
742.464	33147.36
742.804	33094.03
743.143	33012
743.483	33022.62
743.823	32962.06
744.162	32860.59
744.502	33115.05
744.841	32965.67
745.181	33155.05
745.52	33050.64
745.86	33257.87
746.199	33100.58
746.538	33273.69
746.877	33439.56
747.216	33350.75
747.556	33335.83
747.895	33382.84
748.234	33424.19
748.573	33434.36
748.911	33286.34
749.25	33366.34
749.589	33333.12
749.928	33454.47
750.267	33506.22
750.605	33491.08
750.944	33604.3
751.283	33550.97
751.621	33634.58
751.96	33484.76
752.298	33692.43
752.636	33795.71
752.975	33710.74
753.313	33635.71
753.651	33859.89
753.989	33828.25
754.327	33807.23
754.666	33677.74
755.004	33860.79
755.342	34032.09
