Data from 19-1250_FLMS001491_003.txt Node
Date: Thu Apr 19 16:28:13 BST 2018
User: hsy
Spectrometer: FLMS00149
Trigger mode: 0
Integration Time (sec): 1.000000E-2
Scans to average: 10
Electric dark correction enabled: true
Nonlinearity correction enabled: false
Boxcar width: 0
XAxis mode: Wavelengths
Number of Pixels in Spectrum: 2048
>>>>>Begin Spectral Data<<<<<
341.393	7.39
341.776	7.39
342.16	7.39
342.543	-66.06
342.927	-68.32
343.31	-74.19
343.693	-76.9
344.077	-85.04
344.46	-81.2
344.843	-55.89
345.226	-21.09
345.61	-32.39
345.993	-18.83
346.376	-21.99
346.759	22.3
347.142	25.01
347.525	47.61
347.908	66.82
348.291	69.31
348.674	104.11
349.057	132.36
349.44	138.91
349.823	141.39
350.206	155.63
350.588	210.09
350.971	261.84
351.354	258.91
351.737	262.3
352.119	288.74
352.502	302.75
352.884	304.78
353.267	306.59
353.65	333.71
354.032	351.56
354.414	313.59
354.797	343.42
355.179	346.13
355.562	366.47
355.944	359.69
356.326	373.93
356.709	362.86
357.091	357.89
357.473	362.41
357.855	356.98
358.238	368.51
358.62	387.49
359.002	384.78
359.384	387.04
359.766	387.04
360.148	379.35
360.53	374.38
360.912	387.26
361.294	366.47
361.676	376.19
362.057	386.59
362.439	377.55
362.821	363.54
363.203	366.7
363.584	338.45
363.966	362.86
364.348	356.53
364.729	354.95
365.111	342.97
365.493	359.24
365.874	360.82
366.256	352.46
366.637	371.67
367.019	369.86
367.4	349.98
367.781	383.2
368.163	364.67
368.544	343.42
368.925	377.32
369.306	368.51
369.688	371.22
370.069	359.24
370.45	364.89
370.831	366.25
371.212	363.31
371.593	353.82
371.974	384.78
372.355	358.11
372.736	403.31
373.117	342.75
373.498	365.57
373.879	385
374.26	352.01
374.641	364.67
375.021	388.39
375.402	377.77
375.783	391.11
376.163	387.49
376.544	413.7
376.925	382.07
377.305	385.91
377.686	392.91
378.066	383.42
378.447	404.89
378.827	386.36
379.208	421.61
379.588	404.44
379.968	400.14
380.349	418.9
380.729	420.03
381.109	432.23
381.489	426.58
381.87	422.74
382.25	402.86
382.63	428.62
383.01	425.23
383.39	422.29
383.77	412.12
384.15	426.81
384.53	441.05
384.91	427.71
385.29	418
385.67	429.07
386.049	446.92
386.429	436.08
386.809	455.96
387.189	469.75
387.568	443.99
387.948	462.74
388.328	449.41
388.707	461.84
389.087	442.63
389.466	460.03
389.846	495.28
390.225	460.93
390.605	498.45
390.984	493.7
391.363	470.65
391.743	454.61
392.122	472.46
392.501	488.28
392.881	510.42
393.26	510.88
393.639	506.81
394.018	486.92
394.397	497.77
394.776	483.08
395.155	526.7
395.534	526.24
395.913	491.44
396.292	498
396.671	520.59
397.05	514.94
397.429	497.77
397.808	515.4
398.186	530.08
398.565	524.89
398.944	533.25
399.323	535.28
399.701	564.66
400.08	550.88
400.458	549.52
400.837	534.6
401.215	558.33
401.594	557.65
401.972	571.21
402.351	550.88
402.729	579.35
403.107	574.6
403.486	585.68
403.864	575.28
404.242	617.09
404.62	603.98
404.999	594.49
405.377	614.15
405.755	606.69
406.133	613.02
406.511	633.36
406.889	632.68
407.267	640.59
407.645	624.77
408.023	637.65
408.401	651.66
408.779	667.26
409.156	645.11
409.534	652.34
409.912	657.09
410.29	671.55
410.667	686.24
411.045	703.64
411.422	695.73
411.8	699.12
412.178	717.65
412.555	725.79
412.933	718.33
413.31	730.08
413.687	738.67
414.065	747.48
414.442	768.27
414.819	754.49
415.197	759.91
415.574	750.64
415.951	779.57
416.328	791.32
416.705	782.06
417.082	795.84
417.46	789.74
417.837	782.06
418.214	821.38
418.591	827.25
418.967	799.91
419.344	826.12
419.721	851.66
420.098	841.72
420.475	840.59
420.852	851.66
421.228	844.88
421.605	845.33
421.982	867.93
422.358	895.95
422.735	893.69
423.111	874.03
423.488	906.35
423.864	917.42
424.241	912.22
424.617	923.52
424.994	930.75
425.37	940.47
425.746	933.01
426.123	939.57
426.499	965.55
426.875	954.93
427.251	994.93
427.627	990.86
428.003	991.99
428.379	1020.69
428.756	1011.88
429.132	1058.43
429.507	1037.64
429.883	1040.58
430.259	1044.42
430.635	1058.88
431.011	1067.47
431.387	1095.72
431.763	1123.06
432.138	1116.06
432.514	1139.11
432.89	1144.31
433.265	1130.52
433.641	1152.22
434.016	1136.17
434.392	1183.85
434.767	1225.43
435.143	1212.78
435.518	1232.21
435.894	1231.54
436.269	1232.44
436.644	1251.42
437.02	1244.42
437.395	1254.59
437.77	1290.06
438.145	1300.91
438.52	1301.14
438.895	1321.48
439.271	1313.57
439.646	1372.32
440.021	1364.87
440.395	1373.23
440.77	1337.3
441.145	1370.29
441.52	1388.82
441.895	1401.02
442.27	1417.29
442.645	1423.62
443.019	1428.14
443.394	1395.82
443.769	1456.61
444.143	1437.86
444.518	1464.52
444.892	1440.57
445.267	1478.08
445.641	1469.27
446.016	1478.08
446.39	1505.43
446.764	1483.28
447.139	1475.37
447.513	1480.57
447.887	1515.6
448.262	1535.26
448.636	1547.01
449.01	1584.29
449.384	1555.59
449.758	1565.31
450.132	1610.28
450.506	1586.33
450.88	1613.45
451.254	1610.28
451.628	1640.79
452.002	1663.16
452.376	1665.65
452.75	1671.3
453.123	1677.4
453.497	1745.42
453.871	1747.45
454.244	1773.89
454.618	1767.79
454.992	1815.93
455.365	1806.44
455.739	1845.76
456.112	1886.21
456.486	1862.71
456.859	1895.47
457.232	1937.05
457.606	1904.06
457.979	1980.67
458.352	2004.17
458.725	2004.85
459.099	2010.95
459.472	2044.17
459.845	2057.95
460.218	2071.29
460.591	2108.57
460.964	2146.54
461.337	2156.93
461.71	2204.84
462.083	2210.72
462.456	2233.32
462.829	2241
463.201	2269.02
463.574	2267.89
463.947	2307.89
464.32	2349.47
464.692	2387.89
465.065	2356.03
465.438	2423.59
465.81	2467.89
466.183	2465.63
466.555	2468.79
466.928	2532.74
467.3	2510.15
467.672	2587.21
468.045	2621.56
468.417	2596.25
468.789	2622.01
469.161	2670.59
469.534	2741.33
469.906	2743.81
470.278	2763.7
470.65	2809.35
471.022	2859.52
471.394	2911.04
471.766	2919.4
472.138	2930.02
472.51	3022.67
472.882	3043.24
473.253	3085.72
473.625	3143.35
473.997	3180.86
474.369	3150.36
474.74	3268.54
475.112	3276
475.484	3346.06
475.855	3384.7
476.227	3448.2
476.598	3504.24
476.97	3576.33
477.341	3646.61
477.713	3665.37
478.084	3689.1
478.455	3798.25
478.827	3845.93
479.198	3913.95
479.569	3963.67
479.94	4018.58
480.311	4078.92
480.682	4203.21
481.053	4234.85
481.424	4355.3
481.795	4377.67
482.166	4430.77
482.537	4503.31
482.908	4635.74
483.279	4671.67
483.65	4775.4
484.021	4854.94
484.391	4882.96
484.762	4949.4
485.133	5000.02
485.503	5183.52
485.874	5239.79
486.244	5288.15
486.615	5415.15
486.985	5431.42
487.356	5545.77
487.726	5569.5
488.097	5732.21
488.467	5833.45
488.837	5963.61
489.207	5944.41
489.578	6117.51
489.948	6198.18
490.318	6271.63
490.688	6305.07
491.058	6401.12
491.428	6552.07
491.798	6552.53
492.168	6736.93
492.538	6792.75
492.908	6890.6
493.278	6950.71
493.648	6931.72
494.017	7138.5
494.387	7196.8
494.757	7275.44
495.126	7349.79
495.496	7417.59
495.866	7570.58
496.235	7624.81
496.605	7685.83
496.974	7781.42
497.344	7844.92
497.713	7889.21
498.082	8038.14
498.452	8044.01
498.821	8179.6
499.19	8191.35
499.559	8248.07
499.928	8416.21
500.298	8472.02
500.667	8504.34
501.036	8558.8
501.405	8650.55
501.774	8641.74
502.143	8748.85
502.512	8841.96
502.88	8956.3
503.249	8951.33
503.618	9007.83
503.987	9084.44
504.356	9205.79
504.724	9288.05
505.093	9369.4
505.462	9333.47
505.83	9402.62
506.199	9505.22
506.567	9676.74
506.936	9664.53
507.304	9719.9
507.672	9845.77
508.041	9924.87
508.409	9984.75
508.777	10025.43
509.145	10129.15
509.514	10198.98
509.882	10355.82
510.25	10311.3
510.618	10480.33
510.986	10458.41
511.354	10635.13
511.722	10715.58
512.09	10809.81
512.458	10733.66
512.826	10993.99
513.193	10919.64
513.561	11062.92
513.929	11094.55
514.297	11167.77
514.664	11297.94
515.032	11427.2
515.4	11435.11
515.767	11566.18
516.135	11588.78
516.502	11561.21
516.869	11784.25
517.237	11854.08
517.604	11777.7
517.972	11996.9
518.339	12128.42
518.706	12153.96
519.073	12330.9
519.44	12308.08
519.808	12472.6
520.175	12544.46
520.542	12701.97
520.909	12722.76
521.276	12790.55
521.643	12953.04
522.009	13074.61
522.376	13144.89
522.743	13285.91
523.11	13418.33
523.477	13601.61
523.843	13637.76
524.21	13845.67
524.577	13892.45
524.943	14030.07
525.31	14055.61
525.676	14303.28
526.043	14395.71
526.409	14480.45
526.776	14651.52
527.142	14715.93
527.508	14790.27
527.874	14976.71
528.241	15130.15
528.607	15172.64
528.973	15346.19
529.339	15317.27
529.705	15555.45
530.071	15608.78
530.437	15695.34
530.803	15981.66
531.169	16037.25
531.535	16042.67
531.901	16161.99
532.267	16191.37
532.632	16322.89
532.998	16371.48
533.364	16612.6
533.73	16545.03
534.095	16680.62
534.461	16780.51
534.826	16877.9
535.192	17015.3
535.557	17196.54
535.923	17193.38
536.288	17301.85
536.653	17378.46
537.019	17398.57
537.384	17502.29
537.749	17629.3
538.114	17615.74
538.479	17580.26
538.845	17777.99
539.21	17767.15
539.575	17934.6
539.94	17950.64
540.305	17984.54
540.67	18065.9
541.034	18201.71
541.399	18242.61
541.764	18345.89
542.129	18284.19
542.494	18443.06
542.858	18621.13
543.223	18495.49
543.587	18708.36
543.952	18667.46
544.316	18774.13
544.681	18744.07
545.045	18918.75
545.41	19030.16
545.774	18935.02
546.138	19129.6
546.503	19137.28
546.867	19208.46
547.231	19246.88
547.595	19382.47
547.959	19327.33
548.324	19517.61
548.688	19559.42
549.052	19624.5
549.416	19684.84
549.779	19718.51
550.143	19826.53
550.507	19991.49
550.871	20016.58
551.235	20003.25
551.599	20243.46
551.962	20179.06
552.326	20375.66
552.689	20478.94
553.053	20429.22
553.417	20500.86
553.78	20774.3
554.143	20697.92
554.507	20723.9
554.87	20897.46
555.234	21152.59
555.597	20981.75
555.96	21138.36
556.323	21312.82
556.686	21352.36
557.05	21413.38
557.413	21530.21
557.776	21563.2
558.139	21743.99
558.502	21789.41
558.865	21909.64
559.228	22049.52
559.59	22133.81
559.953	22187.14
560.316	22446.34
560.679	22496.96
561.041	22567.25
561.404	22705.32
561.767	22984.86
562.129	22919.78
562.492	23191.41
562.854	23203.61
563.217	23241.35
563.579	23364.51
563.941	23563.15
564.304	23653.32
564.666	23905.74
565.028	23811.51
565.39	24043.59
565.753	24258.05
566.115	24232.29
566.477	24447.87
566.839	24573.07
567.201	24785.72
567.563	24813.74
567.925	25015.32
568.287	24943.91
568.648	25135.77
569.01	25351.13
569.372	25536.43
569.734	25486.04
570.095	25612.82
570.457	25841.74
570.819	26001.96
571.18	25989.53
571.542	26247.83
571.903	26329.86
572.265	26438.33
572.626	26644.43
572.987	26712.67
573.349	26909.28
573.71	26941.82
574.071	27137.75
574.432	27323.28
574.794	27522.37
575.155	27678.98
575.516	27480.56
575.877	27681.69
576.238	27703.16
576.599	27972.3
576.96	27926.88
577.32	28113.99
577.681	28226.08
578.042	28458.39
578.403	28433.76
578.763	28349.24
579.124	28540.42
579.485	28704.94
579.845	28857.7
580.206	28831.71
580.566	28980.64
580.927	28957.36
581.287	29157.58
581.648	29101.54
582.008	29269.44
582.368	29324.81
582.728	29623.33
583.089	29499.94
583.449	29655.65
583.809	29715.98
584.169	29976.32
584.529	29871.69
584.889	30129.98
585.249	30008.63
585.609	30083.43
585.969	30356.19
586.329	30332.92
586.688	30583.31
587.048	30596.86
587.408	30681.16
587.768	30761.61
588.127	30882.06
588.487	31021.03
588.846	31260.35
589.206	31051.32
589.565	31319.56
589.925	31634.58
590.284	31621.24
590.643	31799.09
591.003	32021.23
591.362	32232.75
591.721	32316.37
592.08	32479.98
592.44	32642.69
592.799	32767.88
593.158	32786.19
593.517	32900.08
593.876	33282.9
594.235	33242.67
594.593	33403.34
594.952	33710
595.311	33912.94
595.67	33986.15
596.029	34424.79
596.387	34608.28
596.746	34711.11
597.104	34619.81
597.463	34860.71
597.822	35216.18
598.18	35273.13
598.538	35352.67
598.897	35692.78
599.255	35664.98
599.613	36257.73
599.972	36092.54
600.33	36355.58
600.688	36205.08
601.046	36600.77
601.404	36934.33
601.762	36994.89
602.12	37205.28
602.478	37496.12
602.836	37574.08
603.194	37522.11
603.552	37763.68
603.91	37840.52
604.268	38054.3
604.625	38222.65
604.983	38437.56
605.341	38441.18
605.698	38831.22
606.056	39089.75
606.413	38941.96
606.771	39282.29
607.128	39340.36
607.485	39256.52
607.843	39480.7
608.2	39653.12
608.557	40024.41
608.914	40009.05
609.272	40179.44
609.629	40506.21
609.986	40594.79
610.343	40732.42
610.7	40851.06
611.057	40942.13
611.414	41014.9
611.771	41257.38
612.127	41533.07
612.484	41488.78
612.841	41704.14
613.198	41663.92
613.554	41757.7
613.911	42194.53
614.267	42254.64
614.624	42135.32
614.98	42303.68
615.337	42639.26
615.693	42627.06
616.05	42625.7
616.406	42974.17
616.762	42722.42
617.118	42907.95
617.475	42941.17
617.831	43290.09
618.187	43220.71
618.543	43189.3
618.899	43575.96
619.255	43454.61
619.611	43650.76
619.967	43857.08
620.323	44034.25
620.678	43931.66
621.034	43902.28
621.39	43983.86
621.746	43944.99
622.101	44434.92
622.457	44107.02
622.812	44297.75
623.168	44456.16
623.523	44401.47
623.879	44557.18
624.234	44454.81
624.589	44496.39
624.945	44602.37
625.3	44588.59
625.655	44704.29
626.01	44675.82
626.365	44843.5
626.72	44760.56
627.075	44752.42
627.43	44686.66
627.785	44756.72
628.14	44657.06
628.495	44756.94
628.85	44775.7
629.205	44682.82
629.559	44879.43
629.914	44689.6
630.269	44670.17
630.623	44568.48
630.978	44405.09
631.332	44737.51
631.687	44657.74
632.041	44596.27
632.396	44530.74
632.75	44585.88
633.104	44581.81
633.459	44421.36
633.813	44521.47
634.167	44460.68
634.521	44418.42
634.875	44348.37
635.229	44271.76
635.583	44212.78
635.937	44277.64
636.291	44216.85
636.645	44118.54
636.999	43979.34
637.352	44075.15
637.706	43922.16
638.06	44048.94
638.413	44001.48
638.767	43731.89
639.121	43965.33
639.474	43777.99
639.828	43846.46
640.181	43652.79
640.534	43841.04
640.888	43614.6
641.241	43517.88
641.594	43483.31
641.947	43723.07
642.301	43518.11
642.654	43528.28
643.007	43445.11
643.36	43545
643.713	43297.55
644.066	43643.3
644.419	43360.82
644.771	42693.5
645.124	42500.73
645.477	42559.94
645.83	42411.02
646.182	42290.79
646.535	42357.69
646.888	42358.14
647.24	42310.91
647.593	42560.84
647.945	42406.27
648.298	42135.54
648.65	41840.19
649.002	41682.22
649.355	41591.83
649.707	41367.43
650.059	41283.14
650.411	41965.15
650.763	42099.61
651.115	42910.67
651.467	42695.98
651.819	42776.43
652.171	42695.98
652.523	42640.39
652.875	42488.76
653.227	42351.36
653.578	42686.72
653.93	42455.99
654.282	42237.24
654.633	42258.71
654.985	42312.26
655.337	42347.97
655.688	42282.89
656.039	42410.57
656.391	41999.95
656.742	42142.55
657.094	42239.72
657.445	42150.69
657.796	42347.74
658.147	42195.88
658.498	42328.31
658.849	42351.81
659.2	42324.24
659.551	42024.81
659.902	42409.66
660.253	42147.07
660.604	42190.23
660.955	42104.81
661.306	42267.97
661.656	42232.72
662.007	42107.97
662.358	42149.33
662.708	42161.98
663.059	42057.58
663.409	42092.16
663.76	42103.91
664.11	42243.34
664.461	42155.43
664.811	42155.21
665.161	42046.06
665.511	41998.83
665.862	42062.1
666.212	42034.98
666.562	42295.31
666.912	41987.53
667.262	42004.47
667.612	42007.86
667.962	42006.96
668.312	42031.37
668.662	42361.98
669.011	41902.78
669.361	41910.69
669.711	41936
670.06	42016.23
670.41	41939.39
670.76	41877.02
671.109	42048.32
671.459	42009.45
671.808	42011.93
672.157	41951.82
672.507	41566.97
672.856	41628.44
673.205	41717.02
673.554	41785.5
673.904	41789.34
674.253	42054.87
674.602	41811.26
674.951	41317.94
675.3	41193.87
675.649	41850.58
675.998	41796.57
676.346	41915.44
676.695	41869.34
677.044	41625.95
677.393	41618.04
677.741	41683.35
678.09	41622.11
678.438	41638.38
678.787	41598.38
679.135	41397.26
679.484	41363.59
679.832	41501.44
680.181	41351.16
680.529	41515.9
680.877	41196.36
681.225	41260.54
681.573	41495.34
681.922	41291.73
682.27	41204.27
682.618	41212.86
682.966	40947.1
683.314	41043.82
683.661	41069.13
684.009	40937.84
684.357	40855.58
684.705	40782.81
685.053	40684.06
685.4	40534.68
685.748	40453.33
686.095	40476.61
686.443	40155.26
686.79	40189.38
687.138	40225.31
687.485	40352.09
687.832	40036.39
688.18	40007.47
688.527	39982.15
688.874	39813.8
689.221	39897.86
689.568	39681.6
689.915	39598.21
690.262	39844.76
690.609	39431.43
690.956	39257.65
691.303	39308.73
691.65	39070.77
691.997	38975.85
692.344	38932.01
692.69	38858.34
693.037	38938.57
693.383	38644.34
693.73	38662.42
694.077	38395.08
694.423	38262.88
694.769	38199.15
695.116	38221.98
695.462	37932.27
695.808	37781.99
696.155	37873.51
696.501	37528.21
696.847	37635.78
697.193	37239.63
697.539	37275.33
697.885	36965.96
698.231	36951.5
698.577	36864.27
698.923	36867.21
699.269	36531.4
699.614	36593.09
699.96	36503.15
700.306	36274.68
700.651	36177.28
700.997	36021.81
701.342	36036.72
701.688	35892.54
702.033	35667.24
702.379	35788.37
702.724	35575.49
703.069	35537.75
703.415	35268.61
703.76	35197.2
704.105	35329.62
704.45	35238.55
704.795	35007.6
705.14	34963.76
705.485	34962.63
705.83	34720.15
706.175	34733.25
706.52	34569.19
706.865	34512.69
707.209	34320.38
707.554	34321.06
707.899	34298.69
708.243	34130.11
708.588	34099.37
708.932	33907.96
709.277	33876.1
709.621	33841.98
709.966	33568.09
710.31	33711.81
710.654	33503
710.998	33568.31
711.342	33481.99
711.687	33272.05
712.031	33160.87
712.375	33066.86
712.719	33180.3
713.063	33079.96
713.407	33117.7
713.75	32957.25
714.094	32912.74
714.438	32710.03
714.782	32782.57
715.125	32594.78
715.469	32748.67
715.812	32475.91
716.156	32538.51
716.499	32470.71
716.843	32522.46
717.186	32281.34
717.53	32583.48
717.873	32410.15
718.216	32255.8
718.559	32170.16
718.902	32017.84
719.246	31985.53
719.589	31898.07
719.932	31828.92
720.275	31858.98
720.617	31836.38
720.96	31785.53
721.303	31782.82
721.646	31886.55
721.989	31727.91
722.331	31696.95
722.674	31605.2
723.016	31526.56
723.359	31481.36
723.701	31532.89
724.044	31475.71
724.386	31253.8
724.729	31284.53
725.071	31327.24
725.413	31231.42
725.755	31215.15
726.097	31070.98
726.439	31034.59
726.782	30993.01
727.124	31185.1
727.465	31171.99
727.807	30952.79
728.149	30899.68
728.491	30889.51
728.833	30964.76
729.175	30953.24
729.516	30815.16
729.858	30940.58
730.199	30986.01
730.541	30846.8
730.882	30755.28
731.224	30809.06
731.565	30646.13
731.906	30637.09
732.248	30720.7
732.589	30641.16
732.93	30674.15
733.271	30663.76
733.612	30558.67
733.953	30758.67
734.294	30611.33
734.635	30465.34
734.976	30880.47
735.317	30594.83
735.658	30561.16
735.999	30492.69
736.339	30573.81
736.68	30638.9
737.021	30611.78
737.361	30501.5
737.702	30777.2
738.042	30666.69
738.383	30711.89
738.723	30626.24
739.063	30453.82
739.404	30648.84
739.744	30780.81
740.084	30575.4
740.424	30715.96
740.764	30672.12
741.104	30786.69
741.444	30550.09
741.784	30598.45
742.124	30745.11
742.464	30794.83
742.804	30743.3
743.143	30697.88
743.483	30859.23
743.823	30699.91
744.162	30734.94
744.502	30924.99
744.841	30791.44
745.181	30944.65
745.52	30947.14
745.86	31049.28
746.199	31061.26
746.538	31009.74
746.877	31090.41
747.216	31162.05
747.556	31129.51
747.895	31096.29
748.234	31142.39
748.573	31220.58
748.911	31030.07
749.25	31124.53
749.589	31133.12
749.928	31327.69
750.267	31281.14
750.605	31316.39
750.944	31245.89
751.283	31319.33
751.621	31517.74
751.96	31308.26
752.298	31437.52
752.636	31505.09
752.975	31444.07
753.313	31302.38
753.651	31661.02
753.989	31509.38
754.327	31600
754.666	31368.6
755.004	31614.92
755.342	31750.51
