Data from 19-1250_FLMS001491_009.txt Node
Date: Thu Apr 19 16:28:30 BST 2018
User: hsy
Spectrometer: FLMS00149
Trigger mode: 0
Integration Time (sec): 1.000000E-2
Scans to average: 10
Electric dark correction enabled: true
Nonlinearity correction enabled: false
Boxcar width: 0
XAxis mode: Wavelengths
Number of Pixels in Spectrum: 2048
>>>>>Begin Spectral Data<<<<<
341.393	-8.93
341.776	-8.93
342.16	-8.93
342.543	-54.12
342.927	-70.85
343.31	-78.08
343.693	-77.63
344.077	-59.55
344.46	-58.64
344.843	-57.51
345.226	-45.54
345.61	-31.52
345.993	-6.44
346.376	-6.44
346.759	6.44
347.142	43.95
347.525	43.05
347.908	45.99
348.291	64.07
348.674	85.99
349.057	131.86
349.44	134.8
349.823	139.54
350.206	177.96
350.588	225.42
350.971	243.72
351.354	254.8
351.737	278.98
352.119	281.69
352.502	328.24
352.884	305.19
353.267	311.29
353.65	329.6
354.032	330.5
354.414	345.41
354.797	327.11
355.179	362.59
355.562	371.85
355.944	362.36
356.326	383.61
356.709	378.63
357.091	383.83
357.473	374.34
357.855	373.66
358.238	391.74
358.62	396.94
359.002	384.06
359.384	369.14
359.766	391.52
360.148	373.66
360.53	397.39
360.912	393.55
361.294	369.82
361.676	375.47
362.057	387
362.439	378.86
362.821	384.96
363.203	372.31
363.584	368.01
363.966	361.46
364.348	369.82
364.729	350.16
365.111	377.05
365.493	379.54
365.874	383.15
366.256	375.7
366.637	371.4
367.019	372.08
367.4	384.28
367.781	374.79
368.163	363.49
368.544	381.57
368.925	376.83
369.306	380.89
369.688	375.02
370.069	388.58
370.45	367.33
370.831	374.79
371.212	377.96
371.593	384.96
371.974	374.34
372.355	374.34
372.736	386.77
373.117	404.4
373.498	396.71
373.879	389.48
374.26	381.57
374.641	381.57
375.021	373.44
375.402	398.07
375.783	391.97
376.163	409.37
376.544	393.77
376.925	405.98
377.305	395.36
377.686	394.9
378.066	392.19
378.447	398.29
378.827	387.9
379.208	415.7
379.588	412.08
379.968	423.6
380.349	417.73
380.729	416.83
381.109	434
381.489	418.41
381.87	436.49
382.25	437.16
382.63	421.12
383.01	439.65
383.39	432.42
383.77	412.08
384.15	430.84
384.53	445.53
384.91	431.06
385.29	448.01
385.67	437.62
386.049	455.92
386.429	459.99
386.809	462.7
387.189	454.56
387.568	448.46
387.948	468.12
388.328	475.13
388.707	480.78
389.087	488.01
389.466	476.03
389.846	469.93
390.225	489.37
390.605	504.96
390.984	470.16
391.363	486.88
391.743	501.12
392.122	509.48
392.501	517.39
392.881	523.04
393.26	514.45
393.639	532.08
394.018	523.72
394.397	528.01
394.776	548.57
395.155	540.89
395.534	529.82
395.913	519.65
396.292	540.66
396.671	547.67
397.05	570.27
397.429	583.6
397.808	563.71
398.186	548.35
398.565	543.38
398.944	546.99
399.323	574.34
399.701	572.08
400.08	570.27
400.458	572.3
400.837	598.29
401.215	589.7
401.594	584.05
401.972	615.92
402.351	610.94
402.729	620.66
403.107	601.91
403.486	601.68
403.864	641
404.242	621.57
404.62	624.5
404.999	632.64
405.377	624.28
405.755	674.9
406.133	659.3
406.511	632.64
406.889	655.01
407.267	677.16
407.645	664.28
408.023	684.61
408.401	691.85
408.779	711.28
409.156	683.48
409.534	712.86
409.912	723.71
410.29	717.38
410.667	724.61
411.045	721.9
411.422	763.48
411.8	749.25
412.178	760.77
412.555	773.65
412.933	768.68
413.31	791.28
413.687	799.19
414.065	789.47
414.442	808.68
414.819	806.65
415.197	804.61
415.574	826.08
415.951	830.83
416.328	834.22
416.705	858.17
417.082	852.52
417.46	870.37
417.837	865.4
418.214	883.48
418.591	873.31
418.967	909.92
419.344	905.4
419.721	891.84
420.098	901.56
420.475	923.93
420.852	901.11
421.228	907.66
421.605	928.22
421.982	917.83
422.358	950.14
422.735	946.75
423.111	958.05
423.488	953.08
423.864	965.74
424.241	984.72
424.617	1007.32
424.994	977.26
425.37	1022.01
425.746	994.89
426.123	1020.65
426.499	1039.41
426.875	1061.1
427.251	1076.92
427.627	1073.31
428.003	1087.09
428.379	1086.41
428.756	1106.52
429.132	1127.09
429.507	1125.28
429.883	1121.21
430.259	1153.98
430.635	1166.64
431.011	1167.09
431.387	1201.89
431.763	1207.09
432.138	1205.05
432.514	1234.88
432.89	1243.02
433.265	1281.21
433.641	1291.15
434.016	1281.21
434.392	1325.73
434.767	1317.37
435.143	1328.67
435.518	1322.34
435.894	1342.45
436.269	1357.59
436.644	1358.72
437.02	1385.16
437.395	1428.1
437.77	1431.49
438.145	1459.28
438.52	1443.01
438.895	1449.79
439.271	1459.28
439.646	1476.68
440.021	1526.17
440.395	1505.61
440.77	1480.3
441.145	1513.52
441.52	1539.28
441.895	1496.8
442.27	1565.04
442.645	1535.21
443.019	1563.46
443.394	1551.71
443.769	1578.15
444.143	1606.17
444.518	1614.99
444.892	1589.9
445.267	1619.28
445.641	1610.92
446.016	1662.44
446.39	1666.51
446.764	1686.85
447.139	1669
447.513	1688.2
447.887	1704.25
448.262	1680.52
448.636	1713.74
449.01	1730.69
449.384	1749.22
449.758	1759.84
450.132	1740.86
450.506	1827.41
450.88	1795.32
451.254	1789.22
451.628	1807.75
452.002	1832.38
452.376	1866.96
452.75	1877.58
453.123	1879.84
453.497	1895.2
453.871	1914.19
454.244	1953.73
454.618	2007.07
454.992	2004.13
455.365	2034.18
455.739	2072.83
456.112	2077.57
456.486	2077.57
456.859	2105.59
457.232	2158.02
457.606	2153.28
457.979	2194.41
458.352	2195.54
458.725	2209.32
459.099	2272.37
459.472	2273.5
459.845	2318.47
460.218	2366.15
460.591	2399.6
460.964	2393.04
461.337	2425.36
461.71	2469.43
462.083	2524.34
462.456	2547.62
462.829	2550.33
463.201	2569.99
463.574	2594.85
463.947	2577.45
464.32	2661.06
464.692	2653.6
465.065	2688.63
465.438	2716.88
465.81	2773.15
466.183	2785.8
466.555	2841.17
466.928	2855.63
467.3	2843.65
467.672	2898.79
468.045	2992.8
468.417	2935.4
468.789	2977.21
469.161	3036.42
469.534	3055.4
469.906	3108.51
470.278	3132.91
470.65	3192.12
471.022	3236.19
471.394	3252.46
471.766	3296.52
472.138	3333.36
472.51	3419.01
472.882	3434.15
473.253	3478.44
473.625	3538.33
473.997	3612
474.369	3665.1
474.74	3676.4
475.112	3755.72
475.484	3826.45
475.855	3849.73
476.227	3870.52
476.598	3996.84
476.97	4057.63
477.341	4090.63
477.713	4136.73
478.084	4186.44
478.455	4291.75
478.827	4328.81
479.198	4440
479.569	4473.89
479.94	4573.1
480.311	4625.08
480.682	4758.63
481.053	4834.56
481.424	4908.46
481.795	4941.45
482.166	5026.65
482.537	5116.81
482.908	5199.3
483.279	5278.17
483.65	5402.46
484.021	5489.01
484.391	5530.82
484.762	5608.55
485.133	5712.51
485.503	5773.97
485.874	5931.93
486.244	5963.35
486.615	6127.41
486.985	6192.49
487.356	6258.48
487.726	6362.88
488.097	6481.07
488.467	6524.91
488.837	6696.43
489.207	6738.69
489.578	6845.58
489.948	6942.98
490.318	7066.14
490.688	7121.28
491.058	7240.37
491.428	7381.39
491.798	7365.8
492.168	7535.73
492.538	7620.25
492.908	7760.36
493.278	7864.09
493.648	7864.31
494.017	8078.32
494.387	8091.65
494.757	8230.86
495.126	8305.66
495.496	8383.17
495.866	8468.59
496.235	8519.44
496.605	8628.81
496.974	8660.68
497.344	8766.89
497.713	8828.58
498.082	8952.87
498.452	9004.85
498.821	9074.68
499.19	9152.41
499.559	9204.62
499.928	9338.17
500.298	9439.64
500.667	9535.91
501.036	9509.47
501.405	9649.8
501.774	9667.66
502.143	9780.42
502.512	9891.6
502.88	9946.52
503.249	10026.52
503.618	10098.83
503.987	10174.31
504.356	10250.69
504.724	10344.93
505.093	10336.11
505.462	10415.43
505.83	10511.93
506.199	10619.27
506.567	10690.68
506.936	10646.39
507.304	10811.81
507.672	10876.21
508.041	10954.85
508.409	11078.47
508.777	11203.43
509.145	11282.08
509.514	11283.88
509.882	11476.2
510.25	11423.32
510.618	11572.69
510.986	11536.98
511.354	11677.77
511.722	11870.76
512.09	11934.71
512.458	11872.8
512.826	12065.56
513.193	11972.23
513.561	12252.67
513.929	12196.18
514.297	12369.28
514.664	12435.94
515.032	12576.28
515.4	12662.38
515.767	12710.97
516.135	12818.08
516.502	12764.98
516.869	12981.01
517.237	13084.51
517.604	13009.71
517.972	13289.48
518.339	13290.84
518.706	13400.44
519.073	13509.14
519.44	13583.03
519.808	13755.01
520.175	13733.54
520.542	13844.49
520.909	13944.15
521.276	14140.76
521.643	14225.05
522.009	14356.35
522.376	14512.05
522.743	14620.52
523.11	14763.11
523.477	14982.54
523.843	14979.38
524.21	15193.84
524.577	15287.39
524.943	15262.31
525.31	15419.59
525.676	15655.97
526.043	15800.15
526.409	15863.88
526.776	16087.15
527.142	16188.61
527.508	16324.88
527.874	16385.9
528.241	16535.05
528.607	16579.34
528.973	16707.24
529.339	16802.84
529.705	16974.58
530.071	17107.01
530.437	17253.22
530.803	17419.77
531.169	17463.16
531.535	17561.23
531.901	17641.68
532.267	17702.25
532.632	17863.37
532.998	18011.39
533.364	18106.08
533.73	18155.79
534.095	18298.84
534.461	18396.47
534.826	18477.82
535.192	18591.94
535.557	18783.35
535.923	18721.43
536.288	18755.55
536.653	18921.2
537.019	18920.75
537.384	19095.43
537.749	19174.52
538.114	19185.37
538.479	19183.11
538.845	19335.65
539.21	19374.97
539.575	19460.62
539.94	19575.19
540.305	19615.42
540.67	19665.36
541.034	19750.55
541.399	19831.23
541.764	19903.32
542.129	20071.45
542.494	20021.96
542.858	20118.23
543.223	20190.54
543.587	20218.34
543.952	20228.28
544.316	20266.25
544.681	20345.79
545.045	20463.3
545.41	20642.28
545.774	20623.53
546.138	20608.61
546.503	20773.35
546.867	20849.06
547.231	20976.96
547.595	21021.48
547.959	21079.78
548.324	21125.89
548.688	21203.62
549.052	21366.78
549.416	21409.49
549.779	21499.89
550.143	21436.39
550.507	21683.61
550.871	21695.59
551.235	21711.41
551.599	21945.98
551.962	22003.38
552.326	22023.71
552.689	22070.49
553.053	22055.58
553.417	22127.89
553.78	22435
554.143	22447.66
554.507	22529.69
554.87	22499.41
555.234	22791.38
555.597	22645.85
555.96	22792.06
556.323	22903.69
556.686	23074.76
557.05	23194.53
557.413	23204.25
557.776	23298.26
558.139	23506.84
558.502	23637.23
558.865	23661.86
559.228	23832.03
559.59	23814.85
559.953	23876.1
560.316	24121.51
560.679	24234.28
561.041	24261.85
561.404	24428.17
561.767	24696.19
562.129	24628.39
562.492	24912.45
562.854	25000.81
563.217	24936.18
563.579	25171.88
563.941	25343.85
564.304	25473.57
564.666	25709.27
565.028	25696.39
565.39	25758.98
565.753	26006.43
566.115	26088.01
566.477	26303.6
566.839	26379.31
567.201	26635.12
567.563	26614.1
567.925	26961.21
568.287	26982.68
568.648	27015.9
569.01	27252.05
569.372	27418.38
569.734	27486.4
570.095	27732.27
570.457	27794.86
570.819	27831.25
571.18	28089.32
571.542	28188.75
571.903	28277.79
572.265	28416.99
572.626	28640.26
572.987	28590.55
573.349	28778.34
573.71	28958.67
574.071	29082.51
574.432	29210.19
574.794	29508.49
575.155	29469.39
575.516	29549.17
575.877	29723.4
576.238	29730.4
576.599	29940.57
576.96	30014.01
577.32	30200.9
577.681	30236.61
578.042	30456.94
578.403	30394.34
578.763	30534
579.124	30503.27
579.485	30805.86
579.845	30913.2
580.206	30908.23
580.566	31017.6
580.927	31055.12
581.287	31269.57
581.648	31193.64
582.008	31293.08
582.368	31466.63
582.728	31497.36
583.089	31642.67
583.449	31620.98
583.809	31778.49
584.169	31924.02
584.529	31844.25
584.889	32174.18
585.249	32180.06
585.609	32027.29
585.969	32359.94
586.329	32270.45
586.688	32424.57
587.048	32626.37
587.408	32633.61
587.768	32694.39
588.127	32814.17
588.487	32998.34
588.846	33335.28
589.206	32981.62
589.565	33367.6
589.925	33539.34
590.284	33672.45
590.643	33742.5
591.003	33913.12
591.362	34217.29
591.721	34239.21
592.08	34393.56
592.44	34662.25
592.799	34801.23
593.158	34859.08
593.517	34954.22
593.876	35141.34
594.235	35367.77
594.593	35435.11
594.952	35663.13
595.311	35620.65
595.67	35898.38
596.029	36283.68
596.387	36379.27
596.746	36679.83
597.104	36436.9
597.463	36535.2
597.822	36987.39
598.18	36905.13
598.538	37024.9
598.897	37326.59
599.255	37339.47
599.613	37752.79
599.972	37751.89
600.33	37963.63
600.688	38005.22
601.046	38156.85
601.404	38591.19
601.762	38484.3
602.12	38765.42
602.478	38998.86
602.836	39243.15
603.194	39041.57
603.552	39221.23
603.91	39209.48
604.268	39637.26
604.625	39628
604.983	39942.11
605.341	39756.36
605.698	40173.29
606.056	40412.16
606.413	40394.31
606.771	40702.55
607.128	40750.23
607.485	40759.49
607.843	40728.53
608.2	41126.72
608.557	41289.65
608.914	41262.76
609.272	41616.87
609.629	41775.29
609.986	41994.26
610.343	41842.18
610.7	42237.65
611.057	42140.93
611.414	42160.81
611.771	42420.92
612.127	42617.3
612.484	42664.3
612.841	42793.56
613.198	42843.05
613.554	42843.96
613.911	43186.32
614.267	43297.28
614.624	43283.04
614.98	43461.57
615.337	43682.13
615.693	43654.78
616.05	43704.73
616.406	43829.02
616.762	43791.96
617.118	43903.37
617.475	44015.9
617.831	44156.92
618.187	44084.6
618.543	44299.51
618.899	44427.19
619.255	44598.71
619.611	44499.06
619.967	44680.07
620.323	44829.22
620.678	44785.15
621.034	44850.69
621.39	44780.63
621.746	44783.12
622.101	45201.64
622.457	44866.5
622.812	45166.38
623.168	45239.38
623.523	45307.17
623.879	45292.03
624.234	45204.8
624.589	45360.05
624.945	45367.28
625.3	45328.41
625.655	45450.9
626.01	45541.51
626.365	45576.09
626.72	45398.24
627.075	45472.14
627.43	45518.24
627.785	45521.85
628.14	45558.24
628.495	45541.06
628.85	45636.2
629.205	45332.93
629.559	45511.46
629.914	45489.76
630.269	45535.64
630.623	45271.69
630.978	45235.31
631.332	45476.88
631.687	45362.08
632.041	45583.77
632.396	45471.01
632.75	45374.06
633.104	45287.28
633.459	45251.8
633.813	45150.34
634.167	45217.46
634.521	45165.71
634.875	45154.41
635.229	45108.53
635.583	44874.64
635.937	44926.62
636.291	44842.1
636.645	44789.9
636.999	44635.55
637.352	44994.41
637.706	44597.36
638.06	44809.56
638.413	44645.04
638.767	44532.28
639.121	44589.22
639.474	44533.63
639.828	44558.94
640.181	44510.58
640.534	44542.9
640.888	44229.46
641.241	44147.65
641.594	44292.73
641.947	44442.11
642.301	44201.66
642.654	44265.16
643.007	44067.65
643.36	44167.99
643.713	44003.02
644.066	44171.83
644.419	43872.18
644.771	43501.34
645.124	43053.9
645.477	43090.51
645.83	42820.23
646.182	42940.45
646.535	42878.99
646.888	43050.96
647.24	42939.32
647.593	43109.04
647.945	42834.69
648.298	42790.17
648.65	42477.64
649.002	42410.75
649.355	42273.58
649.707	41992.91
650.059	42043.53
650.411	42581.14
650.763	42772.1
651.115	43429.25
651.467	43297.96
651.819	43345.19
652.171	43146.78
652.523	43140.67
652.875	43142.26
653.227	43074.91
653.578	43196.27
653.93	42985.65
654.282	42932.32
654.633	42966.89
654.985	42986.78
655.337	42889.83
655.688	42909.04
656.039	43035.82
656.391	42701.82
656.742	42773.68
657.094	42684.64
657.445	42785.2
657.796	42889.61
658.147	42696.62
658.498	42769.16
658.849	42919.66
659.2	42888.93
659.551	42742.49
659.902	42901.13
660.253	42771.42
660.604	42855.48
660.955	42726.22
661.306	42829.27
661.656	42771.64
662.007	42727.35
662.358	42844.41
662.708	42894.58
663.059	42733
663.409	42560.8
663.76	42736.39
664.11	42925.99
664.461	42807.35
664.811	42818.42
665.161	42818.65
665.511	42714.24
665.862	42832.66
666.212	42756.73
666.562	42871.98
666.912	42769.84
667.262	42541.82
667.612	42758.31
667.962	42740.23
668.312	42563.51
668.662	42822.94
669.011	42886.22
669.361	42636.05
669.711	42758.08
670.06	42631.99
670.41	42604.64
670.76	42603.96
671.109	42886.44
671.459	42664.3
671.808	42624.08
672.157	42803.28
672.507	42553.34
672.856	42428.6
673.205	42450.07
673.554	42532.55
673.904	42314.48
674.253	42786.33
674.602	42600.12
674.951	41988.39
675.3	41771.44
675.649	42515.38
675.998	42355.16
676.346	42479
676.695	42353.35
677.044	42194.94
677.393	42161.04
677.741	42400.58
678.09	42252.79
678.438	42247.14
678.787	42337.08
679.135	42357.87
679.484	41977.99
679.832	42193.35
680.181	41914.27
680.529	42147.03
680.877	41916.07
681.225	41938.9
681.573	42137.08
681.922	42012.12
682.27	41815.74
682.618	41849.18
682.966	41574.39
683.314	41678.34
683.661	41567.16
684.009	41473.6
684.357	41243.1
684.705	41287.39
685.053	41412.13
685.4	41105.7
685.748	40931.47
686.095	41067.28
686.443	40865.25
686.79	40773.05
687.138	40933.5
687.485	40723.56
687.832	40661.87
688.18	40587.97
688.527	40325.61
688.874	40373.51
689.221	40339.39
689.568	40139.85
689.915	40024.6
690.262	40147.31
690.609	39992.51
690.956	39831.38
691.303	39787.54
691.65	39632.97
691.997	39425.97
692.344	39293.54
692.69	39240.66
693.037	39235.69
693.383	38939.43
693.73	39065.3
694.077	38845.19
694.423	38786.66
694.769	38604.3
695.116	38629.83
695.462	38399.56
695.808	38302.16
696.155	38308.48
696.501	38051.54
696.847	38039.79
697.193	37859.91
697.539	37873.92
697.885	37554.83
698.231	37487.94
698.577	37390.09
698.923	37513.7
699.269	37186.25
699.614	37030.1
699.96	36988.97
700.306	37012.02
700.651	36742.65
700.997	36810.67
701.342	36565.03
701.688	36382.43
702.033	36324.58
702.379	36315.99
702.724	36169.78
703.069	36180.18
703.415	35642.34
703.76	35733.86
704.105	35842.33
704.45	35731.83
704.795	35646.41
705.14	35354.21
705.485	35405.74
705.83	35120.55
706.175	35364.38
706.52	35067.67
706.865	34899.76
707.209	34823.38
707.554	34774.79
707.899	34841
708.243	34614.34
708.588	34460
708.932	34373.9
709.277	34399.66
709.621	34254.35
709.966	34071.53
710.31	34089.39
710.654	33807.36
710.998	33874.25
711.342	34000.8
711.687	33716.97
712.031	33676.97
712.375	33440.82
712.719	33591.55
713.063	33543.41
713.407	33588.61
713.75	33317.43
714.094	33386.35
714.438	33176.42
714.782	33191.1
715.125	32984.1
715.469	33168.51
715.812	32904.78
716.156	32884.45
716.499	32843.77
716.843	32929.42
717.186	32655.98
717.53	32818.23
717.873	32813.94
718.216	32671.34
718.559	32481.74
718.902	32344.12
719.246	32464.34
719.589	32384.12
719.932	32341.86
720.275	32244.91
720.617	32258.93
720.96	32184.13
721.303	32216.44
721.646	32317.68
721.989	32009.21
722.331	32005.37
722.674	31924.25
723.016	32016.22
723.359	31941.19
723.701	31971.02
724.044	31849.9
724.386	31649.22
724.729	31945.71
725.071	31797.02
725.413	31716.12
725.755	31702.78
726.097	31487.42
726.439	31577.81
726.782	31543.24
727.124	31557.25
727.465	31606.06
727.807	31441.77
728.149	31532.84
728.491	31404.48
728.833	31529.23
729.175	31398.16
729.516	31365.16
729.858	31299.63
730.199	31515.89
730.541	31429.57
730.882	31269.35
731.224	31265.96
731.565	31178.5
731.906	31220.08
732.248	31282.45
732.589	31069.13
732.93	30927.66
733.271	31148.9
733.612	31144.15
733.953	31206.98
734.294	31101.67
734.635	31054.44
734.976	31406.97
735.317	30994.78
735.658	31078.62
735.999	31012.63
736.339	31004.72
736.68	31034.33
737.021	31037.94
737.361	30946.64
737.702	31213.08
738.042	31002.46
738.383	31058.73
738.723	31148.67
739.063	31045.4
739.404	31120.65
739.744	31076.13
740.084	31013.99
740.424	31056.92
740.764	30999.3
741.104	31151.84
741.444	30980.54
741.784	30996.13
742.124	31012.86
742.464	31048.56
742.804	31157.03
743.143	31029.58
743.483	31068.9
743.823	30976.47
744.162	31022.57
744.502	31099.41
744.841	31106.87
745.181	31405.16
745.52	31124.04
745.86	31236.35
746.199	31176.02
746.538	31150.03
746.877	31488.1
747.216	31295.34
747.556	31309.8
747.895	31345.28
748.234	31366.97
748.573	31314.09
748.911	31323.58
749.25	31535.55
749.589	31488.32
749.928	31558.83
750.267	31601.54
750.605	31544.14
750.944	31699.62
751.283	31658.26
751.621	31865.72
751.96	31736.91
752.298	31791.14
752.636	31888.77
752.975	31835.89
753.313	31789.33
753.651	32060.74
753.989	31890.12
754.327	32026.39
754.666	31896.22
755.004	31900.07
755.342	32124.01
