Data from 19-2025_FLMS001491_003.txt Node
Date: Thu Apr 19 16:34:45 BST 2018
User: hsy
Spectrometer: FLMS00149
Trigger mode: 0
Integration Time (sec): 1.000000E-2
Scans to average: 10
Electric dark correction enabled: true
Nonlinearity correction enabled: false
Boxcar width: 0
XAxis mode: Wavelengths
Number of Pixels in Spectrum: 2048
>>>>>Begin Spectral Data<<<<<
341.393	-24.89
341.776	-24.89
342.16	-24.89
342.543	-75.28
342.927	-85.45
343.31	-85.45
343.693	-77.77
344.077	-70.08
344.46	-54.49
344.843	-59.91
345.226	-51.1
345.61	-36.19
345.993	-13.36
346.376	4.27
346.759	11.04
347.142	31.84
347.525	47.2
347.908	53.08
348.291	79.97
348.674	102.12
349.057	118.84
349.44	127.2
349.823	130.82
350.206	166.75
350.588	197.25
350.971	223.47
351.354	255.56
351.737	268.44
352.119	274.99
352.502	282.45
352.884	313.86
353.267	322.45
353.65	310.47
354.032	340.08
354.414	338.49
354.797	346.4
355.179	345.95
355.562	331.71
355.944	370.13
356.326	363.35
356.709	355.89
357.091	375.78
357.473	375.33
357.855	387.53
358.238	365.84
358.62	353.41
359.002	380.07
359.384	373.75
359.766	364.03
360.148	376.69
360.53	373.3
360.912	369
361.294	386.63
361.676	369.23
362.057	366.52
362.439	363.8
362.821	371.26
363.203	382.11
363.584	347.99
363.966	353.86
364.348	370.36
364.729	383.46
365.111	368.1
365.493	347.31
365.874	359.06
366.256	348.44
366.637	352.05
367.019	369.45
367.4	364.48
367.781	353.63
368.163	386.63
368.544	368.1
368.925	352.05
369.306	351.6
369.688	355.22
370.069	352.5
370.45	364.03
370.831	369.91
371.212	374.88
371.593	360.41
371.974	348.44
372.355	379.4
372.736	406.29
373.117	378.49
373.498	381.66
373.879	373.3
374.26	362.45
374.641	378.49
375.021	385.72
375.402	392.28
375.783	376.23
376.163	390.24
376.544	418.94
376.925	398.61
377.305	394.31
377.686	390.7
378.066	408.32
378.447	405.84
378.827	416.91
379.208	405.16
379.588	394.31
379.968	400.87
380.349	435.89
380.729	432.05
381.109	414.2
381.489	408.32
381.87	422.56
382.25	422.56
382.63	431.82
383.01	428.89
383.39	438.6
383.77	433.86
384.15	433.86
384.53	439.28
384.91	455.1
385.29	434.99
385.67	441.54
386.049	430.47
386.429	448.55
386.809	449
387.189	483.57
387.568	460.52
387.948	480.64
388.328	477.02
388.707	460.98
389.087	476.57
389.466	470.24
389.846	472.73
390.225	489.9
390.605	492.84
390.984	507.53
391.363	487.64
391.743	494.2
392.122	510.47
392.501	507.98
392.881	500.98
393.26	513.86
393.639	536.23
394.018	509.79
394.397	547.98
394.776	542.78
395.155	539.39
395.534	528.55
395.913	533.07
396.292	545.49
396.671	569.67
397.05	567.64
397.429	561.76
397.808	559.96
398.186	559.96
398.565	561.54
398.944	570.8
399.323	574.87
399.701	560.86
400.08	564.48
400.458	586.85
400.837	616
401.215	625.94
401.594	592.72
401.972	603.12
402.351	609.45
402.729	620.75
403.107	615.32
403.486	621.65
403.864	630.92
404.242	624.36
404.62	626.17
404.999	640.41
405.377	670.46
405.755	650.8
406.133	654.19
406.511	687.86
406.889	672.27
407.267	678.37
407.645	704.59
408.023	688.99
408.401	693.74
408.779	725.15
409.156	717.69
409.534	709.56
409.912	743.91
410.29	739.61
410.667	758.14
411.045	778.26
411.422	771.02
411.8	762.89
412.178	801.08
412.555	800.85
412.933	805.37
413.31	808.54
413.687	820.74
414.065	803.34
414.442	823.23
414.819	856.22
415.197	848.09
415.574	862.1
415.951	899.84
416.328	871.36
416.705	874.07
417.082	890.57
417.46	894.19
417.837	900.74
418.214	895.09
418.591	910
418.967	947.07
419.344	935.54
419.721	922.66
420.098	934.86
420.475	941.19
420.852	922.43
421.228	943.68
421.605	957.91
421.982	966.73
422.358	978.25
422.735	963.79
423.111	1026.16
423.488	999.72
423.864	1005.14
424.241	1047.85
424.617	1027.06
424.994	1030.68
425.37	1063.67
425.746	1049.21
426.123	1081.07
426.499	1090.11
426.875	1099.15
427.251	1102.99
427.627	1151.35
428.003	1150.68
428.379	1145.7
428.756	1155.87
429.132	1157.68
429.507	1191.13
429.883	1176.44
430.259	1213.95
430.635	1206.49
431.011	1214.4
431.387	1300.95
431.763	1299.15
432.138	1315.42
432.514	1320.16
432.89	1341.18
433.265	1375.08
433.641	1362.65
434.016	1355.87
434.392	1382.76
434.767	1408.52
435.143	1400.84
435.518	1447.84
435.894	1475.87
436.269	1477.9
436.644	1473.61
437.02	1503.66
437.395	1486.71
437.77	1526.03
438.145	1504.79
438.52	1537.33
438.895	1602.64
439.271	1581.85
439.646	1590.66
440.021	1603.09
440.395	1613.26
440.77	1609.19
441.145	1621.62
441.52	1641.96
441.895	1665.46
442.27	1698.23
442.645	1675.86
443.019	1690.55
443.394	1701.85
443.769	1689.87
444.143	1709.76
444.518	1726.71
444.892	1730.1
445.267	1738.91
445.641	1747.04
446.016	1784.78
446.39	1793.14
446.764	1785.69
447.139	1789.08
447.513	1803.54
447.887	1816.87
448.262	1821.39
448.636	1839.25
449.01	1863.88
449.384	1871.56
449.758	1880.37
450.132	1913.37
450.506	1928.28
450.88	1927.15
451.254	1934.16
451.628	1955.63
452.002	1995.4
452.376	1984.33
452.75	2018.9
453.123	2019.35
453.497	2066.58
453.871	2057.32
454.244	2148.16
454.618	2139.58
454.992	2185.9
455.365	2175.96
455.739	2249.86
456.112	2251.66
456.486	2250.99
456.859	2269.29
457.232	2278.78
457.606	2308.61
457.979	2361.49
458.352	2392
458.725	2418.21
459.099	2434.94
459.472	2470.42
459.845	2489.17
460.218	2520.13
460.591	2540.02
460.964	2580.69
461.337	2625.89
461.71	2661.6
462.083	2665.66
462.456	2718.09
462.829	2690.3
463.201	2749.96
463.574	2777.53
463.947	2794.93
464.32	2854.81
464.692	2885.32
465.065	2874.47
465.438	2930.97
465.81	2966.9
466.183	2920.57
466.555	3061.36
466.928	3044.19
467.3	3060.46
467.672	3095.26
468.045	3183.16
468.417	3142.26
468.789	3198.08
469.161	3228.14
469.534	3249.6
469.906	3324.18
470.278	3358.98
470.65	3390.62
471.022	3407.11
471.394	3491.18
471.766	3518.75
472.138	3571.18
472.51	3609.37
472.882	3669.25
473.253	3769.82
473.625	3747.44
473.997	3838.29
474.369	3838.51
474.74	3900.66
475.112	3970.49
475.484	4002.8
475.855	4058.62
476.227	4119.86
476.598	4257.03
476.97	4243.7
477.341	4365.28
477.713	4376.58
478.084	4429.69
478.455	4537.48
478.827	4560.3
479.198	4662.67
479.569	4704.25
479.94	4896.34
480.311	4948.99
480.682	5067.18
481.053	5100.4
481.424	5179.72
481.795	5210
482.166	5377.91
482.537	5409.1
482.908	5455.65
483.279	5524.12
483.65	5647.05
484.021	5744.68
484.391	5841.4
484.762	5898.35
485.133	5911
485.503	6025.12
485.874	6154.61
486.244	6225.57
486.615	6359.58
486.985	6423.98
487.356	6492.68
487.726	6591.89
488.097	6737.65
488.467	6777.42
488.837	6862.62
489.207	7033.23
489.578	7061.71
489.948	7207.92
490.318	7272.55
490.688	7380.34
491.058	7463.5
491.428	7548.93
491.798	7662.82
492.168	7807.9
492.538	7820.78
492.908	7891.74
493.278	7991.63
493.648	8025.75
494.017	8203.6
494.387	8235.24
494.757	8308.45
495.126	8366.31
495.496	8475.23
495.866	8521.78
496.235	8624.83
496.605	8732.85
496.974	8774.43
497.344	8851.26
497.713	8910.47
498.082	8977.36
498.452	8985.27
498.821	9013.07
499.19	9103.69
499.559	9257.36
499.928	9305.04
500.298	9357.01
500.667	9406.96
501.036	9455.32
501.405	9504.13
501.774	9475.65
502.143	9630
502.512	9636.33
502.88	9762.65
503.249	9759.26
503.618	9888.98
503.987	9912.93
504.356	9886.72
504.724	10039.93
505.093	10080.61
505.462	10088.75
505.83	10184.56
506.199	10197.67
506.567	10351.56
506.936	10350.43
507.304	10420.26
507.672	10485.57
508.041	10610.31
508.409	10596.98
508.777	10772.12
509.145	10828.84
509.514	10798.56
509.882	10952.9
510.25	11060.7
510.618	11112.22
510.986	11031.09
511.354	11199.23
511.722	11295.49
512.09	11406
512.458	11344.31
512.826	11448.26
513.193	11531.87
513.561	11575.26
513.929	11743.39
514.297	11821.13
514.664	11871.07
515.032	11894.35
515.4	11991.75
515.767	12047.79
516.135	12174.57
516.502	12144.74
516.869	12292.08
517.237	12421.11
517.604	12311.51
517.972	12615.69
518.339	12608
518.706	12717.83
519.073	12805.51
519.44	12891.61
519.808	13078.27
520.175	13092.73
520.542	13187.87
520.909	13396.23
521.276	13458.37
521.643	13577.92
522.009	13601.87
522.376	13763.23
522.743	13800.96
523.11	14047.51
523.477	14169.77
523.843	14200.73
524.21	14462.87
524.577	14531.34
524.943	14616.76
525.31	14710.32
525.676	14901.73
526.043	14979.92
526.409	15134.26
526.776	15324.77
527.142	15437.31
527.508	15424.42
527.874	15614.7
528.241	15770.18
528.607	15712.78
528.973	16057.18
529.339	16036.61
529.705	16243.16
530.071	16384.63
530.437	16417.85
530.803	16534.9
531.169	16699.65
531.535	16709.81
531.901	16773.54
532.267	17006.98
532.632	17202.23
532.998	17272.96
533.364	17362
533.73	17402.68
534.095	17511.6
534.461	17612.62
534.826	17683.12
535.192	17754.53
535.557	17995.88
535.923	17962.21
536.288	18140.29
536.653	18187.06
537.019	18199.72
537.384	18350.45
537.749	18273.16
538.114	18382.99
538.479	18373.5
538.845	18524
539.21	18539.6
539.575	18679.25
539.94	18782.3
540.305	18885.8
540.67	18891.45
541.034	19016.42
541.399	19001.73
541.764	19189.3
542.129	19093.26
542.494	19261.61
542.858	19357.88
543.223	19363.3
543.587	19519.91
543.952	19542.28
544.316	19684.65
544.681	19581.38
545.045	19771.88
545.41	19798.77
545.774	19798.55
546.138	19841.03
546.503	20080.35
546.867	20000.8
547.231	20096.84
547.595	20054.36
547.959	20276.27
548.324	20285.54
548.688	20448.93
549.052	20494.8
549.416	20387.46
549.779	20545.87
550.143	20665.64
550.507	20832.87
550.871	20897.5
551.235	20897.28
551.599	21107.89
551.962	21149.7
552.326	21160.55
552.689	21179.08
553.053	21209.36
553.417	21375.91
553.78	21610.48
554.143	21594.43
554.507	21797.36
554.87	21792.62
555.234	21976.34
555.597	21956.68
555.96	22050.24
556.323	22134.31
556.686	22219.95
557.05	22465.14
557.413	22464.69
557.776	22616.55
558.139	22710.79
558.502	22825.36
558.865	22841.41
559.228	23041.4
559.59	23219.93
559.953	23128.4
560.316	23481.61
560.679	23538.11
561.041	23733.58
561.404	23993.69
561.767	24114.82
562.129	24104.2
562.492	24462.83
562.854	24353.23
563.217	24555.26
563.579	24649.49
563.941	24950.73
564.304	25024.62
564.666	25390.26
565.028	25336.71
565.39	25572.18
565.753	25752.74
566.115	25877.48
566.477	26236.57
566.839	26330.35
567.201	26648.54
567.563	26612.15
567.925	26833.16
568.287	27013.05
568.648	27172.59
569.01	27438.8
569.372	27738.9
569.734	27688.28
570.095	27991.55
570.457	28282.17
570.819	28363.29
571.18	28479.22
571.542	28848.03
571.903	28876.95
572.265	29189.49
572.626	29514.68
572.987	29449.14
573.349	29904.5
573.71	29972.07
574.071	30146.75
574.432	30384.71
574.794	30694.31
575.155	30881.87
575.516	30837.58
575.877	31013.17
576.238	31198.02
576.599	31399.82
576.96	31499.26
577.32	31681.4
577.681	31887.04
578.042	32138.34
578.403	32132.01
578.763	32276.41
579.124	32364.32
579.485	32717.3
579.845	32795.72
580.206	32826
580.566	32786.91
580.927	32979.44
581.287	33118.65
581.648	33158.42
582.008	33423.05
582.368	33413.1
582.728	33506.89
583.089	33494.46
583.449	33743.72
583.809	33781
584.169	33938.74
584.529	33975.12
584.889	34266.87
585.249	34062.58
585.609	33904.62
585.969	34309.58
586.329	34348.45
586.688	34456.69
587.048	34444.26
587.408	34502.57
587.768	34683.81
588.127	34747.76
588.487	34784.14
588.846	35095.32
589.206	35056.45
589.565	35094.64
589.925	35423.9
590.284	35361.53
590.643	35424.58
591.003	35547.96
591.362	35916.54
591.721	35987.05
592.08	36090.77
592.44	36436.08
592.799	36241.28
593.158	36388.17
593.517	36409.86
593.876	36762.62
594.235	36703.87
594.593	36787.93
594.952	37043.07
595.311	37110.86
595.67	37383.17
596.029	37571.64
596.387	37803.27
596.746	37963.95
597.104	37901.8
597.463	37836.72
597.822	38258.4
598.18	38200.55
598.538	38374.1
598.897	38744.94
599.255	38628.11
599.613	39180.64
599.972	39013.18
600.33	39183.8
600.688	39236.23
601.046	39433.51
601.404	39693.39
601.762	39737.01
602.12	40014.96
602.478	40214.28
602.836	40203.89
603.194	40034.4
603.552	40173.38
603.91	40388.74
604.268	40559.81
604.625	40642.52
604.983	40950.08
605.341	40826.92
605.698	41085.22
606.056	41434.36
606.413	41246.8
606.771	41701.7
607.128	41668.93
607.485	41603.62
607.843	41674.58
608.2	41970.17
608.557	42211.74
608.914	42016.95
609.272	42391.4
609.629	42567.89
609.986	42607.44
610.343	42676.14
610.7	43014.89
611.057	42932.18
611.414	43003.81
611.771	43053.3
612.127	43227.99
612.484	43376.01
612.841	43577.13
613.198	43413.52
613.554	43372.62
613.911	43701.2
614.267	43838.82
614.624	43712.72
614.98	44007.4
615.337	44101.19
615.693	44145.25
616.05	44108.42
616.406	44306.38
616.762	44239.94
617.118	44375.75
617.475	44305.7
617.831	44602.41
618.187	44649.65
618.543	44730.55
618.899	44933.71
619.255	44897.32
619.611	44892.35
619.967	45172.34
620.323	45302.51
620.678	45101.61
621.034	45036.3
621.39	45077.88
621.746	45246.01
622.101	45618.21
622.457	45326.92
622.812	45514.93
623.168	45424.99
623.523	45532.79
623.879	45649.17
624.234	45404.88
624.589	45598.09
624.945	45553.8
625.3	45686.23
625.655	45623.18
626.01	45692.33
626.365	45774.14
626.72	45594.71
627.075	45606
627.43	45619.56
627.785	45643.07
628.14	45631.54
628.495	45709.05
628.85	45840.57
629.205	45722.61
629.559	45820.46
629.914	45451.66
630.269	45712.67
630.623	45381.83
630.978	45408.72
631.332	45682.16
631.687	45581.15
632.041	45424.54
632.396	45493.24
632.75	45375.05
633.104	45625.66
633.459	45406.46
633.813	45339.57
634.167	45316.52
634.521	45265.67
634.875	45380.02
635.229	45292.79
635.583	44982.29
635.937	45110.42
636.291	45007.15
636.645	45063.19
636.999	44773.26
637.352	44828.85
637.706	44613.26
638.06	44712.92
638.413	44687.38
638.767	44621.17
639.121	44718.57
639.474	44412.82
639.828	44444.9
640.181	44321.52
640.534	44544.34
640.888	44331.46
641.241	44120.85
641.594	44198.36
641.947	44286.72
642.301	44100.73
642.654	44109.77
643.007	43980.51
643.36	44168.75
643.713	44023
644.066	44144.8
644.419	43860.51
644.771	43471.82
645.124	43136.24
645.477	43104.6
645.83	43077.48
646.182	42948.45
646.535	42743.03
646.888	42891.73
647.24	42790.94
647.593	42977.37
647.945	42896.24
648.298	42782.58
648.65	42451.74
649.002	42153.44
649.355	42270.27
649.707	42074.8
650.059	42026.66
650.411	42535.8
650.763	42911.61
651.115	43411.03
651.467	43342.11
651.819	43309.79
652.171	43219.17
652.523	43084.71
652.875	43142.57
653.227	42969.92
653.578	43332.84
653.93	43141.21
654.282	42953.87
654.633	43039.74
654.985	43047.2
655.337	43041.33
655.688	43056.92
656.039	43083.81
656.391	42656.03
656.742	42783.25
657.094	42834.78
657.445	42810.6
657.796	42939.18
658.147	42896.7
658.498	42901.22
658.849	42949.8
659.2	42950.71
659.551	42627.1
659.902	42988.45
660.253	42859.18
660.604	42990.93
660.955	42799.07
661.306	42962.01
661.656	42740.09
662.007	42829.81
662.358	42892.63
662.708	42930.82
663.059	42855.12
663.409	42713.88
663.76	42835.46
664.11	42907.09
664.461	42985.73
664.811	43066.41
665.161	43001.33
665.511	42947.54
665.862	42947.09
666.212	42979.86
666.562	42945.96
666.912	42932.85
667.262	42766.08
667.612	42842.46
667.962	42857.83
668.312	42941.22
668.662	43045.62
669.011	43047.65
669.361	42937.15
669.711	43023.93
670.06	42869.13
670.41	42796.13
670.76	42822.8
671.109	43008.78
671.459	42958.39
671.808	42829.13
672.157	42859.64
672.507	42675.46
672.856	42790.03
673.205	42762.46
673.554	42920.88
673.904	42573.54
674.253	42911.61
674.602	42613.31
674.951	42190.95
675.3	41962.26
675.649	42650.6
675.998	42555.01
676.346	42621.9
676.695	42587.33
677.044	42496.93
677.393	42491.06
677.741	42590.49
678.09	42499.19
678.438	42499.19
678.787	42446.31
679.135	42407.9
679.484	42070.28
679.832	42311.63
680.181	42161.12
680.529	42158.64
680.877	42018.3
681.225	41823.5
681.573	42176.04
681.922	41891.75
682.27	41782.6
682.618	41718.42
682.966	41614.47
683.314	41839.55
683.661	41514.59
684.009	41498.32
684.357	41238.21
684.705	41241.15
685.053	41245.67
685.4	41029.85
685.748	40997.31
686.095	40943.53
686.443	40793.48
686.79	40752.8
687.138	40892
687.485	40809.75
687.832	40468.51
688.18	40493.14
688.527	40379.93
688.874	40448.63
689.221	40214.73
689.568	40118.69
689.915	39905.14
690.262	40024.46
690.609	39901.97
690.956	39791.92
691.303	39754.86
691.65	39629.66
691.997	39548.54
692.344	39203.46
692.69	39200.75
693.037	39297.47
693.383	38899.97
693.73	38931.6
694.077	38719.86
694.423	38705.39
694.769	38568.45
695.116	38504.72
695.462	38441.45
695.808	38268.12
696.155	38226.76
696.501	37910.84
696.847	37984.51
697.193	37603.5
697.539	37740.22
697.885	37446.22
698.231	37408.03
698.577	37335.26
698.923	37257.52
699.269	37018.89
699.614	36867.93
699.96	36767.82
700.306	36829.74
700.651	36558.33
700.997	36359.02
701.342	36326.02
701.688	36201.05
702.033	36060.27
702.379	36129.87
702.724	35916.32
703.069	35902.76
703.415	35573.95
703.76	35481.52
704.105	35345.03
704.45	35374.63
704.795	35135.32
705.14	35026.62
705.485	35067.07
705.83	34898.26
706.175	35040.41
706.52	34698.04
706.865	34736.69
707.209	34482.23
707.554	34425.51
707.899	34578.27
708.243	34202.01
708.588	34356.36
708.932	33974.45
709.277	34067.55
709.621	33724.28
709.966	33619.43
710.31	33699.42
710.654	33489.94
710.998	33654.23
711.342	33540.33
711.687	33435.48
712.031	33211.3
712.375	33074.36
712.719	33143.73
713.063	32986.9
713.407	33150.51
713.75	32966.56
714.094	32922.27
714.438	32766.79
714.782	32823.52
715.125	32631.88
715.469	32882.5
715.812	32543.75
716.156	32568.15
716.499	32508.5
716.843	32567.03
717.186	32407.93
717.53	32638.89
717.873	32551.21
718.216	32356.86
718.559	32317.31
718.902	32066.93
719.246	32180.14
719.589	32129.3
719.932	31853.6
720.275	32040.03
720.617	32068.06
720.96	31826.25
721.303	31909.64
721.646	32023.08
721.989	31694.05
722.331	31866.48
722.674	31700.61
723.016	31741.96
723.359	31561.18
723.701	31614.96
724.044	31571.8
724.386	31396.43
724.729	31612.47
725.071	31449.31
725.413	31413.84
725.755	31407.51
726.097	31336.32
726.439	31386.94
726.782	31223.11
727.124	31462.2
727.465	31310.33
727.807	31176.1
728.149	31231.92
728.491	31220.62
728.833	31193.05
729.175	31087.29
729.516	31106.72
729.858	31115.76
730.199	31099.49
730.541	31050.45
730.882	30956.67
731.224	30918.71
731.565	30925.94
731.906	30939.5
732.248	31024.47
732.589	30890.91
732.93	30825.6
733.271	30834.19
733.612	31011.13
733.953	30946.28
734.294	30932.49
734.635	30727.53
734.976	31014.07
735.317	30936.11
735.658	30811.59
735.999	30723.46
736.339	30726.62
736.68	30791.03
737.021	30697.47
737.361	30762.55
737.702	31070.34
738.042	30899.72
738.383	30866.96
738.723	31012.94
739.063	30910.12
739.404	31105.59
739.744	30985.82
740.084	30965.26
740.424	31089.78
740.764	31031.47
741.104	31108.76
741.444	30970.91
741.784	30944.02
742.124	31178.59
742.464	31183.78
742.804	31024.24
743.143	31027.86
743.483	31139.94
743.823	31134.29
744.162	31029.89
744.502	31163.67
744.841	31118.93
745.181	31342.42
745.52	31283.44
745.86	31407.06
746.199	31313.5
746.538	31454.51
746.877	31530.44
747.216	31574.73
747.556	31568.41
747.895	31576.99
748.234	31594.62
748.573	31612.47
748.911	31636.65
749.25	31640.04
749.589	31557.79
749.928	31947.15
750.267	31923.88
750.605	31886.82
750.944	31887.49
751.283	31853.37
751.621	31957.32
751.96	31899.47
752.298	32074.61
752.636	32065.34
752.975	32024.89
753.313	32103.31
753.651	32274.38
753.989	32211.33
754.327	32161.84
754.666	32044.33
755.004	32301.04
755.342	32353.47
755.679	32350.31
