Data from 19-2025_FLMS001491_001.txt Node
Date: Thu Apr 19 16:34:38 BST 2018
User: hsy
Spectrometer: FLMS00149
Trigger mode: 0
Integration Time (sec): 1.000000E-2
Scans to average: 10
Electric dark correction enabled: true
Nonlinearity correction enabled: false
Boxcar width: 0
XAxis mode: Wavelengths
Number of Pixels in Spectrum: 2048
>>>>>Begin Spectral Data<<<<<
341.393	-20.78
341.776	-20.78
342.16	-20.78
342.543	-59.42
342.927	-66.65
343.31	-54.67
343.693	-89.48
344.077	-74.56
344.46	-79.98
344.843	-45.86
345.226	-28.01
345.61	-37.27
345.993	-3.15
346.376	-21.45
346.759	-1.79
347.142	28.94
347.525	30.97
347.908	57.64
348.291	102.61
348.674	93.8
349.057	122.27
349.44	121.37
349.823	148.03
350.206	186.68
350.588	207.01
350.971	241.14
351.354	253.79
351.737	275.49
352.119	284.98
352.502	299.89
352.884	289.72
353.267	308.93
353.65	320.91
354.032	335.6
354.414	338.31
354.797	343.73
355.179	360.91
355.562	368.37
355.944	343.06
356.326	355.03
356.709	365.2
357.091	373.79
357.473	374.69
357.855	375.82
358.238	399.55
358.62	384.86
359.002	389.83
359.384	394.58
359.766	378.54
360.148	363.17
360.53	389.16
360.912	365.65
361.294	375.37
361.676	381.47
362.057	374.02
362.439	379.44
362.821	388.7
363.203	383.51
363.584	376.95
363.966	362.26
364.348	377.63
364.729	357.07
365.111	369.27
365.493	385.54
365.874	369.95
366.256	369.04
366.637	370.17
367.019	370.4
367.4	366.11
367.781	371.98
368.163	368.37
368.544	362.49
368.925	369.72
369.306	350.97
369.688	360.68
370.069	390.51
370.45	375.37
370.831	381.92
371.212	382.83
371.593	366.11
371.974	357.74
372.355	374.47
372.736	366.11
373.117	399.55
373.498	393.9
373.879	387.12
374.26	376.73
374.641	369.5
375.021	387.35
375.402	392.77
375.783	408.82
376.163	400.46
376.544	409.27
376.925	411.75
377.305	391.42
377.686	419.66
378.066	410.4
378.447	406.33
378.827	392.77
379.208	437.06
379.588	411.75
379.968	409.27
380.349	400.68
380.729	432.32
381.109	428.93
381.489	417.86
381.87	439.32
382.25	432.77
382.63	453.56
383.01	433.9
383.39	435.03
383.77	439.55
384.15	425.31
384.53	467.8
384.91	469.83
385.29	438.65
385.67	451.53
386.049	478.19
386.429	467.8
386.809	472.32
387.189	468.48
387.568	503.5
387.948	472.77
388.328	486.56
388.707	482.94
389.087	470.74
389.466	481.58
389.846	489.94
390.225	501.47
390.605	517.74
390.984	522.49
391.363	515.71
391.743	525.65
392.122	519.77
392.501	525.65
392.881	540.79
393.26	543.28
393.639	551.64
394.018	535.14
394.397	548.47
394.776	559.32
395.155	554.12
395.534	526.78
395.913	568.13
396.292	549.6
396.671	535.14
397.05	572.88
397.429	599.09
397.808	602.48
398.186	567
398.565	594.35
398.944	581.69
399.323	597.96
399.701	585.99
400.08	603.16
400.458	618.75
400.837	625.53
401.215	617.17
401.594	601.58
401.972	608.59
402.351	622.14
402.729	623.05
403.107	658.53
403.486	640
403.864	642.71
404.242	665.08
404.62	682.93
404.999	657.4
405.377	680.9
405.755	680.45
406.133	666.66
406.511	688.81
406.889	700.79
407.267	704.63
407.645	703.05
408.023	700.33
408.401	729.26
408.779	732.2
409.156	740.11
409.534	748.47
409.912	740.79
410.29	757.28
410.667	809.94
411.045	795.25
411.422	811.07
411.8	780.78
412.178	811.97
412.555	816.04
412.933	822.59
413.31	801.12
413.687	858.75
414.065	844.51
414.442	868.92
414.819	863.04
415.197	871.4
415.574	889.03
415.951	871.63
416.328	923.38
416.705	888.35
417.082	891.97
417.46	911.18
417.837	914.57
418.214	945.53
418.591	958.63
418.967	939.2
419.344	952.53
419.721	970.38
420.098	948.46
420.475	974
420.852	979.42
421.228	987.78
421.605	1005.64
421.982	1005.86
422.358	1031.17
422.735	1021
423.111	1036.6
423.488	1059.65
423.864	1041.12
424.241	1045.86
424.617	1068.01
424.994	1075.01
425.37	1113.21
425.746	1076.6
426.123	1105.07
426.499	1113.88
426.875	1124.5
427.251	1141.45
427.627	1166.31
428.003	1164.73
428.379	1171.73
428.756	1214.67
429.132	1234.33
429.507	1223.48
429.883	1259.19
430.259	1248.57
430.635	1252.86
431.011	1270.04
431.387	1310.26
431.763	1342.35
432.138	1351.17
432.514	1365.18
432.89	1366.08
433.265	1406.08
433.641	1417.83
434.016	1432.29
434.392	1440.65
434.767	1494.44
435.143	1457.6
435.518	1468.22
435.894	1508.22
436.269	1524.95
436.644	1521.78
437.02	1571.5
437.395	1571.5
437.77	1591.61
438.145	1604.72
438.52	1620.54
438.895	1622.57
439.271	1596.81
439.646	1680.65
440.021	1675
440.395	1662.12
440.77	1677.94
441.145	1705.96
441.52	1723.58
441.895	1739.86
442.27	1741.21
442.645	1729.46
443.019	1740.76
443.394	1749.12
443.769	1751.38
444.143	1772.4
444.518	1796.58
444.892	1790.02
445.267	1783.92
445.641	1833.19
446.016	1828.89
446.39	1839.29
446.764	1845.16
447.139	1870.02
447.513	1902.56
447.887	1891.94
448.262	1920.42
448.636	1911.6
449.01	1943.92
449.384	1962.22
449.758	1947.08
450.132	1974.2
450.506	2003.58
450.88	2045.61
451.254	1983.69
451.628	2039.96
452.002	2051.71
452.376	2084.93
452.75	2152.73
453.123	2132.16
453.497	2171.03
453.871	2158.6
454.244	2196.11
454.618	2234.76
454.992	2257.81
455.365	2273.4
455.739	2303.68
456.112	2336.45
456.486	2336.45
456.859	2388.65
457.232	2425.71
457.606	2448.54
457.979	2429.1
458.352	2490.8
458.725	2562.88
459.099	2560.4
459.472	2602.43
459.845	2659.15
460.218	2667.29
460.591	2679.27
460.964	2707.51
461.337	2717.68
461.71	2787.06
462.083	2821.18
462.456	2825.02
462.829	2817.12
463.201	2899.6
463.574	2912.03
463.947	2924.01
464.32	3018.24
464.692	3013.95
465.065	3013.72
465.438	3043.78
465.81	3086.49
466.183	3093.94
466.555	3181.85
466.928	3218.01
467.3	3189.31
467.672	3264.56
468.045	3313.83
468.417	3336.65
468.789	3309.31
469.161	3405.12
469.534	3465.91
469.906	3507.04
470.278	3502.52
470.65	3598.34
471.022	3627.26
471.394	3653.48
471.766	3661.16
472.138	3733.93
472.51	3837.43
472.882	3906.58
473.253	3916.97
473.625	3940.93
473.997	4007.37
474.369	4035.84
474.74	4115.39
475.112	4174.37
475.484	4254.82
475.855	4308.15
476.227	4328.49
476.598	4470.41
476.97	4455.04
477.341	4578.42
477.713	4659.78
478.084	4679.89
478.455	4774.35
478.827	4861.36
479.198	4956.27
479.569	4993.78
479.94	5178.18
480.311	5181.35
480.682	5297.5
481.053	5375.69
481.424	5469.7
481.795	5505.86
482.166	5634.67
482.537	5643.71
482.908	5824.49
483.279	5902.91
483.65	5986.07
484.021	6102.23
484.391	6125.05
484.762	6262.9
485.133	6276.01
485.503	6357.81
485.874	6555.77
486.244	6558.71
486.615	6740.4
486.985	6835.54
487.356	6934.75
487.726	6966.84
488.097	7134.29
488.467	7193.05
488.837	7340.84
489.207	7375.64
489.578	7554.62
489.948	7617.89
490.318	7701.51
490.688	7779.24
491.058	7853.37
491.428	8037.09
491.798	8080.03
492.168	8312.34
492.538	8299.68
492.908	8437.98
493.278	8583.52
493.648	8548.04
494.017	8736.51
494.387	8830.29
494.757	8811.31
495.126	8912.32
495.496	8954.81
495.866	9120.23
496.235	9151.41
496.605	9258.3
496.974	9249.26
497.344	9347.56
497.713	9451.52
498.082	9512.98
498.452	9633.66
498.821	9726.76
499.19	9659.87
499.559	9779.87
499.928	9821.45
500.298	9949.81
500.667	9994.78
501.036	9998.4
501.405	10039.98
501.774	10099.41
502.143	10196.13
502.512	10323.36
502.88	10387.76
503.249	10353.19
503.618	10505.27
503.987	10531.49
504.356	10531.71
504.724	10658.94
505.093	10667.53
505.462	10713.4
505.83	10788.66
506.199	10910.69
506.567	11047.41
506.936	10942.55
507.304	11145.94
507.672	11176.9
508.041	11174.18
508.409	11341.41
508.777	11411.47
509.145	11457.11
509.514	11474.29
509.882	11562.87
510.25	11688.07
510.618	11793.15
510.986	11749.76
511.354	11880.61
511.722	12020.72
512.09	12069.75
512.458	12069.3
512.826	12150.66
513.193	12199.47
513.561	12324.66
513.929	12378.9
514.297	12493.24
514.664	12604.43
515.032	12684.65
515.4	12801.71
515.767	12880.81
516.135	12893.01
516.502	12898.43
516.869	13097.07
517.237	13215.94
517.604	13145.43
517.972	13323.96
518.339	13366.89
518.706	13492.77
519.073	13489.6
519.44	13603.27
519.808	13838.07
520.175	13928.69
520.542	14041.9
520.909	14188.34
521.276	14158.29
521.643	14341.78
522.009	14390.14
522.376	14547.43
522.743	14735.45
523.11	14833.3
523.477	15079.62
523.843	15050.69
524.21	15297.24
524.577	15368.2
524.943	15471.47
525.31	15617
525.676	15780.16
526.043	15881.18
526.409	15997.79
526.776	16152.13
527.142	16092.47
527.508	16315.97
527.874	16492.69
528.241	16605.45
528.607	16678.67
528.973	16929.74
529.339	17022.84
529.705	17162.27
530.071	17306.45
530.437	17404.75
530.803	17503.73
531.169	17738.53
531.535	17609.27
531.901	17803.61
532.267	17819.43
532.632	18064.85
532.998	18095.81
533.364	18225.3
533.73	18325.18
534.095	18554.33
534.461	18600.43
534.826	18595.68
535.192	18739.63
535.557	18993.41
535.923	18923.58
536.288	19021.43
536.653	19160.41
537.019	19114.54
537.384	19314.99
537.749	19289.9
538.114	19519.27
538.479	19384.82
538.845	19567.64
539.21	19612.15
539.575	19690.57
539.94	19747.07
540.305	19949.32
540.67	19825.03
541.034	19977.57
541.399	19999.04
541.764	20175.3
542.129	20199.48
542.494	20278.35
542.858	20275.87
543.223	20349.76
543.587	20490.55
543.952	20496.42
544.316	20593.14
544.681	20704.33
545.045	20834.04
545.41	20907.71
545.774	20851.22
546.138	20993.59
546.503	21041.04
546.867	20951.55
547.231	21208.72
547.595	21209.17
547.959	21255.05
548.324	21392.45
548.688	21336.18
549.052	21467.02
549.416	21471.99
549.779	21589.5
550.143	21758.54
550.507	21770.29
550.871	21974.35
551.235	21930.51
551.599	22104.07
551.962	22089.83
552.326	22194.46
552.689	22317.17
553.053	22132.31
553.417	22328.47
553.78	22670.6
554.143	22607.78
554.507	22801.67
554.87	22877.6
555.234	23019.97
555.597	22940.88
555.96	23125.96
556.323	23164.38
556.686	23336.8
557.05	23434.88
557.413	23595.78
557.776	23568.43
558.139	23821.31
558.502	23921.19
558.865	23925.49
559.228	24207.06
559.59	24195.31
559.953	24336.78
560.316	24662.42
560.679	24716.43
561.041	24859.02
561.404	24890.89
561.767	25080.48
562.129	25183.98
562.492	25390.08
562.854	25444.77
563.217	25538.78
563.579	25867.81
563.941	26033
564.304	26082.27
564.666	26372.65
565.028	26450.17
565.39	26627.34
565.753	26883.6
566.115	26958.4
566.477	27196.59
566.839	27432.97
567.201	27665.05
567.563	27654.65
567.925	27934.65
568.287	28126.96
568.648	28256.9
569.01	28552.26
569.372	28733.5
569.734	28784.12
570.095	29149.53
570.457	29420.48
570.819	29577.54
571.18	29646.69
571.542	29885.78
571.903	29975.05
572.265	30295.04
572.626	30523.51
572.987	30476.5
573.349	30895.47
573.71	31061.57
574.071	31240.1
574.432	31443.93
574.794	31870.14
575.155	31815
575.516	31900.42
575.877	32175.44
576.238	32264.02
576.599	32459.05
576.96	32606.39
577.32	32640.96
577.681	32907.4
578.042	33213.83
578.403	33288.18
578.763	33339.93
579.124	33463.54
579.485	33753.02
579.845	33825.79
580.206	33724.1
580.566	33771.78
580.927	33921.16
581.287	34214.93
581.648	34279.56
582.008	34269.62
582.368	34488.82
582.728	34588.94
583.089	34576.28
583.449	34608.82
583.809	34875.26
584.169	34925.42
584.529	34901.24
584.889	35405.41
585.249	35033.22
585.609	35166.55
585.969	35284.96
586.329	35299.88
586.688	35571.51
587.048	35600.66
587.408	35785.97
587.768	35762.69
588.127	35861.44
588.487	36030.93
588.846	36325.39
589.206	36027.09
589.565	36250.59
589.925	36591.59
590.284	36528.77
590.643	36687.64
591.003	36930.34
591.362	37222.76
591.721	37208.3
592.08	37384.12
592.44	37594.51
592.799	37626.6
593.158	37742.98
593.517	37820.49
593.876	38060.26
594.235	38122.85
594.593	38179.35
594.952	38455.27
595.311	38429.96
595.67	38715.38
596.029	39055.26
596.387	39140.68
596.746	39194.92
597.104	39133.22
597.463	39264.07
597.822	39760.78
598.18	39602.14
598.538	39807.78
598.897	40193.53
599.255	39881.23
599.613	40499.74
599.972	40400.76
600.33	40433.98
600.688	40675.33
601.046	40770.47
601.404	41160.06
601.762	41309.89
602.12	41444.12
602.478	41339.04
602.836	41457
603.194	41468.98
603.552	41803.66
603.91	41737.9
604.268	41949.42
604.625	41997.55
604.983	42220.6
605.341	42092.92
605.698	42460.37
606.056	42704.2
606.413	42714.37
606.771	42984.87
607.128	42775.61
607.485	42844.99
607.843	43030.07
608.2	43301.93
608.557	43651.52
608.914	43472.32
609.272	43600
609.629	43795.02
609.986	43929.03
610.343	44058.97
610.7	44290.15
611.057	44241.11
611.414	44185.97
611.771	44531.05
612.127	44629.8
612.484	44674.55
612.841	44802.45
613.198	44697.82
613.554	44810.59
613.911	45092.16
614.267	45199.73
614.624	45298.48
614.98	45403.11
615.337	45631.81
615.693	45565.82
616.05	45616.67
616.406	45809.21
616.762	45740.96
617.118	45877
617.475	45795.65
617.831	46042.42
618.187	45987.73
618.543	46121.06
618.899	46338.46
619.255	46294.39
619.611	46292.58
619.967	46484.67
620.323	46712.46
620.678	46354.28
621.034	46377.78
621.39	46413.26
621.746	46604.44
622.101	47034.94
622.457	46690.99
622.812	46921.27
623.168	46888.72
623.523	46764.21
623.879	46967.59
624.234	46780.03
624.589	46885.34
624.945	46958.78
625.3	46933.02
625.655	47168.04
626.01	47106.57
626.365	47038.33
626.72	46860.7
627.075	46850.08
627.43	46890.76
627.785	46937.76
628.14	46946.12
628.495	47056.18
628.85	47045.78
629.205	46952
629.559	47066.57
629.914	46927.14
630.269	46954.49
630.623	46746.81
630.978	46697.77
631.332	46960.14
631.687	46890.76
632.041	46740.25
632.396	46781.16
632.75	46636.75
633.104	46738.9
633.459	46514.72
633.813	46594.5
634.167	46618
634.521	46505.46
634.875	46540.03
635.229	46399.92
635.583	46277.89
635.937	46201.51
636.291	46202.19
636.645	46165.58
636.999	46066.6
637.352	46255.07
637.706	45915.42
638.06	46202.87
638.413	45896.89
638.767	46013.95
639.121	45874.29
639.474	45867.06
639.828	45855.53
640.181	45741.64
640.534	45891.24
640.888	45638.59
641.241	45495.54
641.594	45527.18
641.947	45588.19
642.301	45364.02
642.654	45542.09
643.007	45369.89
643.36	45482.89
643.713	45399.05
644.066	45510
644.419	45263.23
644.771	44758.84
645.124	44420.54
645.477	44446.53
645.83	44273.43
646.182	44351.16
646.535	44230.72
646.888	44245.63
647.24	44345.97
647.593	44354.33
647.945	44270.71
648.298	44055.13
648.65	43920.67
649.002	43635.25
649.355	43397.52
649.707	43322.94
650.059	43537.4
650.411	44031.85
650.763	44328.79
651.115	44795.67
651.467	44630.48
651.819	44581.89
652.171	44465.29
652.523	44417.6
652.875	44634.55
653.227	44232.52
653.578	44632.96
653.93	44418.06
654.282	44318.62
654.633	44267.55
654.985	44363.37
655.337	44372.41
655.688	44220.55
656.039	44384.61
656.391	44023.94
656.742	44087.89
657.094	44086.09
657.445	44197.95
657.796	44238.62
658.147	44054.67
658.498	44338.51
658.849	44252.41
659.2	44196.14
659.551	44025.98
659.902	44282.69
660.253	44132.64
660.604	44214.67
660.955	44046.77
661.306	44165.41
661.656	44024.62
662.007	43948.01
662.358	44069.14
662.708	44152.98
663.059	44070.72
663.409	43875.92
663.76	44220.77
664.11	44232.98
664.461	44308.23
664.811	44190.26
665.161	44163.37
665.511	44112.98
665.862	44364.27
666.212	44343.71
666.562	44338.06
666.912	44081.57
667.262	43968.8
667.612	44088.8
667.962	44212.41
668.312	44161.34
668.662	44252.41
669.011	44333.99
669.361	44198.85
669.711	44107.55
670.06	44024.17
670.41	44048.57
670.76	44075.47
671.109	44200.66
671.459	44049.48
671.808	43977.16
672.157	44256.25
672.507	43909.59
672.856	43900.78
673.205	43921.12
673.554	44115.01
673.904	43824.85
674.253	44089.25
674.602	43818.3
674.951	43291.76
675.3	43165.21
675.649	43800.67
675.998	43668.47
676.346	43710.5
676.695	43760.67
677.044	43550.06
677.393	43650.62
677.741	43705.76
678.09	43690.39
678.438	43522.94
678.787	43544.41
679.135	43435.26
679.484	43245.2
679.832	43505.76
680.181	43218.54
680.529	43270.29
680.877	43078.88
681.225	43178.77
681.573	43440.23
681.922	43054.7
682.27	43068.03
682.618	43001.14
682.966	42965.89
683.314	42906.46
683.661	42815.39
684.009	42612.9
684.357	42524.77
684.705	42384.89
685.053	42612
685.4	42300.6
685.748	42284.33
686.095	42230.99
686.443	42050.89
686.79	41920.95
687.138	42056.08
687.485	41895.64
687.832	41702.19
688.18	41719.37
688.527	41563.44
688.874	41453.84
689.221	41506.27
689.568	41359.6
689.915	40998.26
690.262	41312.6
690.609	41147.63
690.956	40897.7
691.303	40926.4
691.65	40838.71
691.997	40727.76
692.344	40513.98
692.69	40438.72
693.037	40426.52
693.383	40211.61
693.73	40209.58
694.077	39875.8
694.423	39833.54
694.769	39814.56
695.116	39800.78
695.462	39450.73
695.808	39327.79
696.155	39504.06
696.501	39134.58
696.847	39219.55
697.193	38894.81
697.539	38971.64
697.885	38631.99
698.231	38545.44
698.577	38492.79
698.923	38454.82
699.269	38110.42
699.614	38090.76
699.96	37921.05
700.306	37950.2
700.651	37728.51
700.997	37656.43
701.342	37429.09
701.688	37369.65
702.033	37230
702.379	37190.9
702.724	36967.63
703.069	36978.48
703.415	36682.89
703.76	36697.58
704.105	36687.64
704.45	36573.29
704.795	36295.56
705.14	36120.87
705.485	36167.2
705.83	35995
706.175	36067.99
706.52	35825.06
706.865	35680.21
707.209	35660.32
707.554	35538.97
707.899	35545.52
708.243	35357.5
708.588	35257.17
708.932	35103.72
709.277	35030.96
709.621	34803.39
709.966	34574.92
710.31	34873.45
710.654	34523.17
710.998	34567.69
711.342	34590.07
711.687	34353.24
712.031	34304.42
712.375	34341.03
712.719	34192.11
713.063	34106.91
713.407	34155.5
713.75	33953.02
714.094	33900.59
714.438	33833.02
714.782	33772.69
715.125	33703.99
715.469	33857.2
715.812	33573.82
716.156	33467.38
716.499	33446.59
716.843	33473.71
717.186	33451.34
717.53	33658.34
717.873	33602.07
718.216	33389.87
718.559	33338.35
718.902	33018.81
719.246	33062.2
719.589	33034.4
719.932	32864.69
720.275	32986.49
720.617	32953.27
720.96	32933.61
721.303	32876.44
721.646	32892.03
721.989	32774.97
722.331	32822.65
722.674	32639.61
723.016	32749.21
723.359	32680.28
723.701	32726.61
724.044	32593.73
724.386	32513.74
724.729	32629.89
725.071	32404.81
725.413	32525.71
725.755	32475.54
726.097	32235.1
726.439	32377.69
726.782	32223.8
727.124	32339.73
727.465	32291.59
727.807	32255.66
728.149	32207.3
728.491	32138.15
728.833	32307.64
729.175	32158.49
729.516	32104.48
729.858	32066.97
730.199	32181.99
730.541	32088.21
730.882	31945.84
731.224	32039.62
731.565	31963.02
731.906	31994.43
732.248	32032.62
732.589	31959.4
732.93	31868.78
733.271	31979.06
733.612	31932.96
733.953	32046.86
734.294	31978.83
734.635	31794.66
734.976	31944.26
735.317	31843.02
735.658	31841.44
735.999	31824.04
736.339	31889.8
736.68	31795.34
737.021	31860.65
737.361	31757.6
737.702	31951.72
738.042	31793.98
738.383	31808.44
738.723	31865.39
739.063	31833.3
739.404	31970.02
739.744	31709.69
740.084	31890.7
740.424	31955.33
740.764	31904.03
741.104	32026.06
741.444	31822.45
741.784	31840.76
742.124	31985.61
742.464	31963.02
742.804	32010.7
743.143	32058.61
743.483	32126.18
743.823	31905.39
744.162	31948.55
744.502	32033.07
744.841	32088.44
745.181	32141.99
745.52	32031.94
745.86	32202.33
746.199	32204.82
746.538	32237.81
746.877	32431.48
747.216	32388.99
747.556	32426.73
747.895	32374.53
748.234	32330.01
748.573	32423.34
748.911	32447.07
749.25	32386.96
749.589	32208.66
749.928	32582.66
750.267	32716.44
750.605	32550.34
750.944	32567.29
751.283	32667.63
751.621	32714.41
751.96	32720.96
752.298	32744.01
752.636	32867.85
752.975	32823.78
753.313	32835.76
753.651	32966.83
753.989	32915.98
754.327	33012.03
754.666	32801.64
755.004	32941.97
