Data from 19-2025_FLMS001491_006.txt Node
Date: Thu Apr 19 16:34:52 BST 2018
User: hsy
Spectrometer: FLMS00149
Trigger mode: 0
Integration Time (sec): 1.000000E-2
Scans to average: 10
Electric dark correction enabled: true
Nonlinearity correction enabled: false
Boxcar width: 0
XAxis mode: Wavelengths
Number of Pixels in Spectrum: 2048
>>>>>Begin Spectral Data<<<<<
341.393	-5.56
341.776	-5.56
342.16	-5.56
342.543	-40.37
342.927	-44.66
343.31	-51.21
343.693	-76.07
344.077	-78.78
344.46	-66.81
344.843	-57.31
345.226	-29.52
345.61	-27.49
345.993	-8.05
346.376	-4.21
346.759	-6.24
347.142	30.59
347.525	43.93
347.908	46.41
348.291	68.33
348.674	106.3
349.057	110.14
349.44	127.09
349.823	133.87
350.206	175.22
350.588	219.06
350.971	245.95
351.354	242.56
351.737	282.79
352.119	284.82
352.502	293.18
352.884	299.96
353.267	331.15
353.65	337.25
354.032	345.84
354.414	334.99
354.797	345.39
355.179	354.88
355.562	368.66
355.944	352.39
356.326	366.4
356.709	368.21
357.091	371.6
357.473	369.34
357.855	368.44
358.238	389.68
358.62	372.05
359.002	376.35
359.384	356.69
359.766	378.38
360.148	368.44
360.53	405.5
360.912	383.8
361.294	384.71
361.676	387.19
362.057	371.37
362.439	365.5
362.821	384.48
363.203	359.85
363.584	377.02
363.966	385.84
364.348	381.77
364.729	384.48
365.111	364.82
365.493	367.76
365.874	365.5
366.256	356.46
366.637	405.05
367.019	395.55
367.4	374.09
367.781	363.92
368.163	360.3
368.544	383.58
368.925	378.83
369.306	373.86
369.688	372.5
370.069	380.41
370.45	390.81
370.831	397.59
371.212	382.45
371.593	373.63
371.974	372.28
372.355	353.97
372.736	392.16
373.117	371.83
373.498	369.11
373.879	386.52
374.26	382.9
374.641	363.69
375.021	383.13
375.402	403.01
375.783	373.86
376.163	430.36
376.544	411.37
376.925	410.02
377.305	401.88
377.686	430.36
378.066	412.96
378.447	429.23
378.827	441.43
379.208	421.09
379.588	399.4
379.968	412.73
380.349	419.96
380.729	437.59
381.109	413.63
381.489	441.66
381.87	424.71
382.25	431.03
382.63	425.61
383.01	444.37
383.39	432.84
383.77	464.48
384.15	432.84
384.53	460.86
384.91	456.34
385.29	438.04
385.67	452.5
386.049	451.15
386.429	475.78
386.809	453.63
387.189	469.45
387.568	484.59
387.948	491.82
388.328	490.24
388.707	474.42
389.087	492.05
389.466	491.37
389.846	489.11
390.225	498.38
390.605	506.51
390.984	510.13
391.363	511.03
391.743	518.94
392.122	491.82
392.501	505.16
392.881	523.01
393.26	529.79
393.639	541.77
394.018	522.78
394.397	537.7
394.776	538.6
395.155	544.48
395.534	531.82
395.913	536.34
396.292	569.79
396.671	556
397.05	579.73
397.429	558.04
397.808	570.24
398.186	563.91
398.565	571.37
398.944	570.24
399.323	582.44
399.701	592.61
400.08	594.65
400.458	589.67
400.837	607.98
401.215	609.33
401.594	608.43
401.972	631.48
402.351	617.7
402.729	618.6
403.107	611.59
403.486	637.36
403.864	641.42
404.242	648.2
404.62	626.96
404.999	669.22
405.377	659.95
405.755	660.86
406.133	704.47
406.511	673.06
406.889	671.03
407.267	697.92
407.645	697.92
408.023	719.61
408.401	719.16
408.779	732.27
409.156	736.34
409.534	737.47
409.912	751.93
410.29	727.75
410.667	759.16
411.045	770.91
411.422	771.59
411.8	785.37
412.178	789.44
412.555	796.9
412.933	800.97
413.31	808.43
413.687	836.22
414.065	834.87
414.442	826.28
414.819	830.8
415.197	836.45
415.574	852.72
415.951	883.68
416.328	901.08
416.705	883.68
417.082	900.85
417.46	885.49
417.837	922.32
418.214	931.36
418.591	916.22
418.967	933.85
419.344	937.91
419.721	941.98
420.098	966.39
420.475	953.28
420.852	953.28
421.228	981.08
421.605	978.14
421.982	1009.32
422.358	1010.68
422.735	1028.53
423.111	1016.56
423.488	1021.3
423.864	1030.79
424.241	1035.99
424.617	1063.56
424.994	1080.06
425.37	1060.85
425.746	1080.96
426.123	1128.42
426.499	1104.91
426.875	1095.65
427.251	1129.77
427.627	1167.74
428.003	1167.96
428.379	1181.52
428.756	1188.75
429.132	1197.79
429.507	1181.3
429.883	1212.26
430.259	1242.99
430.635	1260.39
431.011	1254.52
431.387	1295.42
431.763	1299.26
432.138	1302.65
432.514	1330.67
432.89	1335.87
433.265	1367.73
433.641	1392.59
434.016	1369.77
434.392	1423.32
434.767	1424
435.143	1421.74
435.518	1458.58
435.894	1462.19
436.269	1500.16
436.644	1522.53
437.02	1537.9
437.395	1546.26
437.77	1566.82
438.145	1559.37
438.52	1591.46
438.895	1595.52
439.271	1616.09
439.646	1629.87
440.021	1628.52
440.395	1622.87
440.77	1613.6
441.145	1639.82
441.52	1672.36
441.895	1679.14
442.27	1725.24
442.645	1716.65
443.019	1711
443.394	1713.94
443.769	1743.32
444.143	1750.77
444.518	1757.1
444.892	1754.84
445.267	1762.07
445.641	1780.38
446.016	1763.2
446.39	1823.09
446.764	1844.1
447.139	1807.27
447.513	1861.96
447.887	1839.13
448.262	1835.06
448.636	1867.15
449.01	1887.94
449.384	1876.65
449.758	1919.36
450.132	1916.42
450.506	1967.04
450.88	1974.72
451.254	1953.25
451.628	1996.87
452.002	2023.53
452.376	2040.26
452.75	2069.86
453.123	2092.91
453.497	2089.52
453.871	2093.82
454.244	2159.35
454.618	2160.03
454.992	2197.99
455.365	2199.12
455.739	2260.82
456.112	2278.89
456.486	2294.04
456.859	2296.75
457.232	2348.95
457.606	2330.87
457.979	2412
458.352	2428.04
458.725	2470.08
459.099	2445.9
459.472	2521.83
459.845	2546.46
460.218	2576.74
460.591	2605.89
460.964	2614.93
461.337	2653.8
461.71	2682.05
462.083	2767.47
462.456	2723.18
462.829	2753.46
463.201	2797.98
463.574	2784.64
463.947	2859.22
464.32	2913
464.692	2910.74
465.065	2913.23
465.438	2966.33
465.81	2979.67
466.183	3031.42
466.555	3081.59
466.928	3080.23
467.3	3083.39
467.672	3175.82
468.045	3177.85
468.417	3195.71
468.789	3225.31
469.161	3250.39
469.534	3318.19
469.906	3418.53
470.278	3387.34
470.65	3450.62
471.022	3529.48
471.394	3574.91
471.766	3566.09
472.138	3662.36
472.51	3682.47
472.882	3736.48
473.253	3757.05
473.625	3820.55
473.997	3897.16
474.369	3914.33
474.74	3957.49
475.112	4032.3
475.484	4069.58
475.855	4180.54
476.227	4217.83
476.598	4301.67
476.97	4325.62
477.341	4453.53
477.713	4471.38
478.084	4492.85
478.455	4634.09
478.827	4668.44
479.198	4823.23
479.569	4829.79
479.94	4948.88
480.311	4977.58
480.682	5126.28
481.053	5153.85
481.424	5245.82
481.795	5294.18
482.166	5425.25
482.537	5474.74
482.908	5538.02
483.279	5638.35
483.65	5747.5
484.021	5874.96
484.391	5917.44
484.762	6076.99
485.133	6085.8
485.503	6176.87
485.874	6310.2
486.244	6416.64
486.615	6452.57
486.985	6538.67
487.356	6634.94
487.726	6731.66
488.097	6894.14
488.467	6919.9
488.837	7104.98
489.207	7170.74
489.578	7202.83
489.948	7285.09
490.318	7447.8
490.688	7483.5
491.058	7630.84
491.428	7773.21
491.798	7759.2
492.168	8005.07
492.538	8044.39
492.908	8143.6
493.278	8181.34
493.648	8255.23
494.017	8374.55
494.387	8450.03
494.757	8466.75
495.126	8605.73
495.496	8638.05
495.866	8717.37
496.235	8791.94
496.605	8876.91
496.974	8958.04
497.344	9037.59
497.713	9175.89
498.082	9164.82
498.452	9270.35
498.821	9334.08
499.19	9343.12
499.559	9497.24
499.928	9494.98
500.298	9590.79
500.667	9668.53
501.036	9577.01
501.405	9753.5
501.774	9739.72
502.143	9849.32
502.512	9883.44
502.88	10059.93
503.249	9988.75
503.618	10151.23
503.987	10118.91
504.356	10162.98
504.724	10246.82
505.093	10304.67
505.462	10380.6
505.83	10422.64
506.199	10518
506.567	10572.91
506.936	10632.12
507.304	10724.55
507.672	10811.1
508.041	10835.05
508.409	10988.27
508.777	11012.22
509.145	11090.19
509.514	11094.93
509.882	11194.59
510.25	11231.65
510.618	11328.83
510.986	11434.59
511.354	11485.66
511.722	11583.73
512.09	11636.61
512.458	11700.79
512.826	11821.02
513.193	11837.51
513.561	11841.81
513.929	11992.09
514.297	12114.12
514.664	12210.16
515.032	12257.16
515.4	12373.54
515.767	12398.85
516.135	12531.28
516.502	12436.14
516.869	12736.02
517.237	12735.8
517.604	12748.68
517.972	13041.32
518.339	13029.35
518.706	13057.59
519.073	13150.02
519.44	13245.39
519.808	13350.69
520.175	13454.19
520.542	13656.67
520.909	13695.54
521.276	13853.96
521.643	13952.26
522.009	14065.48
522.376	14237.45
522.743	14225.25
523.11	14439.25
523.477	14537.56
523.843	14680.15
524.21	14825.23
524.577	14921.5
524.943	14946.58
525.31	15142.06
525.676	15344.09
526.043	15455.72
526.409	15536.17
526.776	15741.82
527.142	15745.89
527.508	15924.19
527.874	16133.22
528.241	16127.12
528.607	16279.88
528.973	16443.95
529.339	16403.5
529.705	16668.12
530.071	16839.64
530.437	16888.45
530.803	17001.67
531.169	17172.06
531.535	17262
531.901	17326.41
532.267	17324.83
532.632	17512.17
532.998	17621.99
533.364	17760.07
533.73	17835.55
534.095	18019.72
534.461	18125.71
534.826	18133.39
535.192	18237.8
535.557	18281.86
535.923	18518.92
536.288	18559.37
536.653	18581.74
537.019	18659.26
537.384	18693.15
537.749	18935.18
538.114	18848.18
538.479	18872.36
538.845	19042.3
539.21	19074.61
539.575	19181.73
539.94	19233.25
540.305	19366.81
540.67	19409.07
541.034	19474.37
541.399	19607.7
541.764	19660.36
542.129	19681.38
542.494	19789.39
542.858	19828.72
543.223	19875.04
543.587	19981.25
543.952	20068.71
544.316	20105.09
544.681	20047.69
545.045	20259.21
545.41	20319.1
545.774	20310.51
546.138	20288.36
546.503	20563.39
546.867	20512.09
547.231	20687.45
547.595	20719.31
547.959	20899.2
548.324	20847.22
548.688	20871.4
549.052	20981
549.416	21067.1
549.779	21147.55
550.143	21225.74
550.507	21350.03
550.871	21385.51
551.235	21432.06
551.599	21644.49
551.962	21703.47
552.326	21810.58
552.689	21949.79
553.053	21822.56
553.417	21956.8
553.78	22227.52
554.143	22225.26
554.507	22223.91
554.87	22298.71
555.234	22611.92
555.597	22450.12
555.96	22634.74
556.323	22717.45
556.686	22735.98
557.05	23107.73
557.413	23028.86
557.776	23029.54
558.139	23347.95
558.502	23378.91
558.865	23478.11
559.228	23776.41
559.59	23839.23
559.953	23835.16
560.316	24253.23
560.679	24087.36
561.041	24300.69
561.404	24588.59
561.767	24682.6
562.129	24700
562.492	25025.87
562.854	25010.27
563.217	25057.28
563.579	25279.19
563.941	25483.93
564.304	25655.23
564.666	25864.04
565.028	26029.91
565.39	26120.53
565.753	26332.73
566.115	26562.32
566.477	26815.88
566.839	26870.56
567.201	27220.16
567.563	27323.89
567.925	27354.85
568.287	27613.82
568.648	27774.27
569.01	28077.09
569.372	28386.68
569.734	28463.97
570.095	28709.61
570.457	28811.3
570.819	28941.7
571.18	29016.95
571.542	29321.12
571.903	29611.06
572.265	29656.71
572.626	29894.44
572.987	30075.23
573.349	30278.38
573.71	30462.56
574.071	30717.47
574.432	30945.94
574.794	31195.2
575.155	31275.87
575.516	31364.23
575.877	31620.72
576.238	31599.71
576.599	32019.81
576.96	32055.74
577.32	32219.35
577.681	32280.82
578.042	32417.99
578.403	32580.25
578.763	32754.03
579.124	32836.74
579.485	33069.95
579.845	33198.76
580.206	33244.63
580.566	33263.62
580.927	33396.27
581.287	33507.68
581.648	33572.99
582.008	33664.28
582.368	33861.34
582.728	33931.85
583.089	34015.24
583.449	34077.61
583.809	34116.48
584.169	34257.49
584.529	34081.67
584.889	34528.22
585.249	34381.1
585.609	34434.21
585.969	34670.13
586.329	34641.21
586.688	34917.13
587.048	34839.62
587.408	34989.22
587.768	34983.12
588.127	35097.24
588.487	35232.38
588.846	35473.05
589.206	35388.08
589.565	35480.96
589.925	35824.68
590.284	35830.78
590.643	35956.2
591.003	36047.27
591.362	36425.12
591.721	36298.11
592.08	36516.19
592.44	36729.06
592.799	36623.75
593.158	36789.4
593.517	36961.82
593.876	37125.44
594.235	37022.16
594.593	37268.94
594.952	37400.23
595.311	37536.72
595.67	37741.01
596.029	37918.18
596.387	38150.49
596.746	38232.3
597.104	38125.41
597.463	38324.5
597.822	38579.86
598.18	38601.78
598.538	38778.5
598.897	39079.51
599.255	38913.41
599.613	39513.4
599.972	39457.8
600.33	39658.03
600.688	39575.77
601.046	39757.01
601.404	40129.2
601.762	40060.05
602.12	40405.8
602.478	40400.15
602.836	40457.78
603.194	40309.76
603.552	40767.15
603.91	40619.13
604.268	41036.75
604.625	41003.75
604.983	41152.68
605.341	40984.77
605.698	41422.72
606.056	41661.81
606.413	41478.09
606.771	41800.79
607.128	41893.9
607.485	41759.44
607.843	41865.2
608.2	42080.56
608.557	42317.16
608.914	42324.85
609.272	42582.24
609.629	42682.13
609.986	42884.61
610.343	42899.52
610.7	43216.12
611.057	43083.92
611.414	43146.97
611.771	43421.32
612.127	43616.79
612.484	43621.76
612.841	43845.03
613.198	43756.67
613.554	43603.46
613.911	44087.74
614.267	44139.26
614.624	44151.47
614.98	44122.09
615.337	44382.87
615.693	44453.83
616.05	44308.07
616.406	44701.28
616.762	44633.04
617.118	44677.78
617.475	44758.91
617.831	44949.19
618.187	44996.87
618.543	45031.44
618.899	45277.54
619.255	45208.61
619.611	45145.11
619.967	45514.37
620.323	45516.85
620.678	45422.85
621.034	45481.15
621.39	45463.97
621.746	45419.91
622.101	45797.98
622.457	45488.83
622.812	45737.64
623.168	45760.69
623.523	45639.56
623.879	45829.16
624.234	45705.78
624.589	45854.92
624.945	45778.77
625.3	45807.02
625.655	45847.69
626.01	45933.79
626.365	45995.71
626.72	45869.84
627.075	45813.34
627.43	45806.56
627.785	45969.5
628.14	45944.64
628.495	45974.7
628.85	45924.53
629.205	45884.08
629.559	46012.66
629.914	45787.36
630.269	45917.07
630.623	45634.14
630.978	45592.33
631.332	45782.61
631.687	45913.68
632.041	45573.8
632.396	45792.1
632.75	45682.27
633.104	45759.79
633.459	45572.67
633.813	45448.38
634.167	45421.04
634.521	45420.81
634.875	45382.17
635.229	45312.57
635.583	45154.38
635.937	45105.11
636.291	45145.56
636.645	45148.95
636.999	44853.14
637.352	45055.17
637.706	44910.77
638.06	45067.37
638.413	45038.22
638.767	44718.23
639.121	44766.14
639.474	44455.19
639.828	44666.93
640.181	44459.48
640.534	44651.57
640.888	44344
641.241	44202.54
641.594	44388.75
641.947	44557.33
642.301	44276.89
642.654	44246.38
643.007	44148.53
643.36	44314.17
643.713	44144.01
644.066	44292.48
644.419	44052.26
644.771	43617.24
645.124	43222.45
645.477	43220.19
645.83	43144.71
646.182	43110.14
646.535	42952.18
646.888	43173.41
647.24	43094.54
647.593	43284.14
647.945	43074.43
648.298	42934.78
648.65	42760.32
649.002	42518.06
649.355	42412.75
649.707	42155.36
650.059	42194.91
650.411	42882.57
650.763	43078.95
651.115	43657.47
651.467	43507.87
651.819	43552.61
652.171	43417.47
652.523	43316.23
652.875	43445.95
653.227	43176.35
653.578	43468.55
653.93	43275.56
654.282	43076.47
654.633	43078.5
654.985	43171.6
655.337	43059.07
655.688	43132.51
656.039	43279.17
656.391	42827.89
656.742	42946.75
657.094	42945.85
657.445	43027.88
657.796	43170.02
658.147	42866.53
658.498	43074.43
658.849	43198.5
659.2	42866.98
659.551	42821.11
659.902	43063.81
660.253	42934.55
660.604	43074.21
660.955	42890.03
661.306	43011.84
661.656	42871.73
662.007	42938.16
662.358	42993.3
662.708	43117.14
663.059	43021.55
663.409	42673.99
663.76	43033.08
664.11	43014.77
664.461	43080.08
664.811	43086.18
665.161	43051.38
665.511	42930.93
665.862	42969.58
666.212	42990.14
666.562	42978.84
666.912	43029.46
667.262	42976.81
667.612	43032.63
667.962	42986.3
668.312	42801.22
668.662	43177.93
669.011	43031.72
669.361	43017.26
669.711	42829.02
670.06	42842.8
670.41	42820.2
670.76	42814.1
671.109	43012.97
671.459	42883.48
671.808	42787.66
672.157	42901.33
672.507	42600.77
672.856	42725.74
673.205	42838.73
673.554	42748.79
673.904	42744.5
674.253	43079.18
674.602	42688.45
674.951	42193.55
675.3	41993.56
675.649	42664.95
675.998	42744.05
676.346	42716.02
676.695	42650.49
677.044	42559.87
677.393	42572.52
677.741	42777.27
678.09	42466.31
678.438	42483.94
678.787	42583.15
679.135	42551.28
679.484	42132.54
679.832	42494.79
680.181	42334.11
680.529	42375.02
680.877	42161.91
681.225	42116.27
681.573	42230.16
681.922	41976.83
682.27	42047.11
682.618	41890.51
682.966	41821.81
683.314	41892.32
683.661	41771.64
684.009	41526
684.357	41454.81
684.705	41348.83
685.053	41304.08
685.4	41152.22
685.748	41114.03
686.095	41218.89
686.443	40966.01
686.79	40813.47
687.138	41011.21
687.485	40979.57
687.832	40788.84
688.18	40622.07
688.527	40513.6
688.874	40500.26
689.221	40418.68
689.568	40301.17
689.915	40106.6
690.262	40096.88
690.609	40027.96
690.956	39848.3
691.303	39740.51
691.65	39516.56
691.997	39571.02
692.344	39314.08
692.69	39197.7
693.037	39181.65
693.383	38869.35
693.73	38943.47
694.077	38735.79
694.423	38661.67
694.769	38590.03
695.116	38476.81
695.462	38401.56
695.808	38197.05
696.155	38293.77
696.501	37905.75
696.847	37929.93
697.193	37582.37
697.539	37832.76
697.885	37493.79
698.231	37397.75
698.577	37315.49
698.923	37511.19
699.269	37059.68
699.614	36875.27
699.96	36670.08
700.306	36687.71
700.651	36663.75
700.997	36475.96
701.342	36398.45
701.688	36267.83
702.033	36333.82
702.379	36152.35
702.724	35759.6
703.069	36016.54
703.415	35532.48
703.76	35555.76
704.105	35591.47
704.45	35344.24
704.795	35238.93
705.14	35212.49
705.485	35070.35
705.83	34831.49
706.175	34918.71
706.52	34934.99
706.865	34612.96
707.209	34547.88
707.554	34507.65
707.899	34518.5
708.243	34168.68
708.588	34142.24
708.932	34081.45
709.277	34319.18
709.621	34016.59
709.966	33687.11
710.31	33875.13
710.654	33562.59
710.998	33749.03
711.342	33634.45
711.687	33536.6
712.031	33485.53
712.375	33231.75
712.719	33260.45
713.063	33127.35
713.407	33208.93
713.75	33041.93
714.094	33142.49
714.438	33001.02
714.782	32967.58
715.125	32802.16
715.469	32824.08
715.812	32653.69
716.156	32540.92
716.499	32594.03
716.843	32693.01
717.186	32434.03
717.53	32533.24
717.873	32593.35
718.216	32331.66
718.559	32355.39
718.902	32100.26
719.246	32214.15
719.589	32043.54
719.932	31945.46
720.275	32048.06
720.617	31946.59
720.96	31966.93
721.303	31990.88
721.646	32046.47
721.989	31641.29
722.331	31776.2
722.674	31723.54
723.016	31749.98
723.359	31567.39
723.701	31672.02
724.044	31579.82
724.386	31420.73
724.729	31583.21
725.071	31522.19
725.413	31460.73
725.755	31414.63
726.097	31340.5
726.439	31356.55
726.782	31145.93
727.124	31464.12
727.465	31199.94
727.807	31173.28
728.149	31245.59
728.491	31104.58
728.833	31221.64
729.175	31201.07
729.516	31168.76
729.858	31141.86
730.199	31222.54
730.541	31095.09
730.882	30910.91
731.224	31142.77
731.565	31010.57
731.906	30856.45
732.248	31110.45
732.589	31074.75
732.93	30867.75
733.271	30901.42
733.612	31013.05
733.953	31082.88
734.294	30974.41
734.635	30910.23
734.976	31118.14
735.317	30966.28
735.658	30920.63
735.999	30935.77
736.339	30907.29
736.68	30986.16
737.021	30924.02
737.361	30849.67
737.702	31054.86
738.042	30961.98
738.383	31046.95
738.723	31069.78
739.063	30871.14
739.404	31039.95
739.744	31034.07
740.084	30963.79
740.424	31056.9
740.764	31057.57
741.104	31180.96
741.444	30944.36
741.784	31014.18
742.124	31312.93
742.464	31145.03
742.804	31020.74
743.143	31088.53
743.483	31287.17
743.823	31100.06
744.162	31347.06
744.502	31267.51
744.841	31217.57
745.181	31382.31
745.52	31306.38
745.86	31403.33
746.199	31404
746.538	31459.6
746.877	31517.67
747.216	31590.67
747.556	31487.62
747.895	31601.74
748.234	31597.9
748.573	31612.13
748.911	31537.79
749.25	31601.97
749.589	31566.26
749.928	31619.59
750.267	31743.66
750.605	31818.68
750.944	31806.93
751.283	31821.85
751.621	31867.27
751.96	31806.03
752.298	32015.06
752.636	31951.79
752.975	31859.59
753.313	31972.58
753.651	32113.59
753.989	31978
754.327	32062.07
754.666	31938.68
755.004	32252.34
