Data from 19-2025_FLMS001491_010.txt Node
Date: Thu Apr 19 16:35:01 BST 2018
User: hsy
Spectrometer: FLMS00149
Trigger mode: 0
Integration Time (sec): 1.000000E-2
Scans to average: 10
Electric dark correction enabled: true
Nonlinearity correction enabled: false
Boxcar width: 0
XAxis mode: Wavelengths
Number of Pixels in Spectrum: 2048
>>>>>Begin Spectral Data<<<<<
341.393	-14.49
341.776	-14.49
342.16	-14.49
342.543	-72.12
342.927	-68.28
343.31	-62.17
343.693	-75.73
344.077	-75.73
344.46	-54.94
344.843	-48.61
345.226	-44.32
345.61	-27.82
345.993	-16.3
346.376	-8.39
346.759	13.76
347.142	23.7
347.525	48.11
347.908	51.72
348.291	71.16
348.674	90.14
349.057	115.45
349.44	133.08
349.823	126.97
350.206	154.54
350.588	229.8
350.971	237.48
351.354	250.13
351.737	269.8
352.119	299.17
352.502	291.26
352.884	292.85
353.267	292.85
353.65	321.09
354.032	342.56
354.414	340.98
354.797	357.7
355.179	338.49
355.562	353.63
355.944	362
356.326	358.38
356.709	370.58
357.091	375.56
357.473	376.01
357.855	394.99
358.238	371.71
358.62	381.2
359.002	373.75
359.384	370.36
359.766	383.92
360.148	392.96
360.53	367.65
360.912	360.64
361.294	379.17
361.676	364.26
362.057	379.17
362.439	343.47
362.821	373.07
363.203	352.05
363.584	342.56
363.966	369.23
364.348	354.99
364.729	336.69
365.111	356.35
365.493	347.99
365.874	363.35
366.256	352.96
366.637	366.74
367.019	378.49
367.4	385.5
367.781	359.28
368.163	353.41
368.544	369
368.925	343.92
369.306	378.49
369.688	377.14
370.069	372.17
370.45	362.9
370.831	378.27
371.212	354.99
371.593	360.64
371.974	379.62
372.355	355.89
372.736	394.76
373.117	375.56
373.498	367.65
373.879	380.75
374.26	369.23
374.641	366.29
375.021	367.65
375.402	396.12
375.783	408.1
376.163	401.54
376.544	397.02
376.925	400.19
377.305	414.88
377.686	390.7
378.066	402.67
378.447	416.46
378.827	416.46
379.208	403.35
379.588	410.81
379.968	404.48
380.349	405.84
380.729	407.64
381.109	412.39
381.489	401.32
381.87	448.32
382.25	432.95
382.63	405.38
383.01	439.28
383.39	422.11
383.77	438.15
384.15	447.19
384.53	425.72
384.91	430.24
385.29	435.44
385.67	451.71
386.049	474.08
386.429	443.58
386.809	449
387.189	445.61
387.568	448.1
387.948	445.38
388.328	477.47
388.707	475.67
389.087	484.93
389.466	492.84
389.846	485.38
390.225	494.87
390.605	483.35
390.984	511.6
391.363	500.3
391.743	487.19
392.122	498.72
392.501	502.78
392.881	517.02
393.26	511.82
393.639	523.8
394.018	511.82
394.397	508.43
394.776	528.32
395.155	553.18
395.534	546.85
395.913	535.1
396.292	515.66
396.671	557.92
397.05	539.62
397.429	538.49
397.808	552.73
398.186	549.79
398.565	559.96
398.944	575.78
399.323	572.16
399.701	579.39
400.08	588.2
400.458	579.62
400.837	582.78
401.215	573.06
401.594	600.18
401.972	597.7
402.351	602.22
402.729	593.63
403.107	612.39
403.486	597.24
403.864	611.03
404.242	625.04
404.62	611.48
404.999	629.33
405.377	663.91
405.755	626.17
406.133	648.77
406.511	634.76
406.889	662.33
407.267	678.37
407.645	664.14
408.023	699.16
408.401	690.35
408.779	699.39
409.156	724.7
409.534	710.24
409.912	709.33
410.29	723.57
410.667	720.63
411.045	763.12
411.422	732.38
411.8	780.06
412.178	783.91
412.555	795.43
412.933	798.37
413.31	785.26
413.687	817.13
414.065	800.18
414.442	833.4
414.819	832.72
415.197	835.2
415.574	849.44
415.951	839.27
416.328	848.09
416.705	882.89
417.082	865.03
417.46	881.08
417.837	877.69
418.214	884.92
418.591	922.21
418.967	922.89
419.344	918.82
419.721	942.55
420.098	926.28
420.475	962.21
420.852	934.41
421.228	919.5
421.605	977.12
421.982	947.29
422.358	964.47
422.735	991.36
423.111	996.33
423.488	999.49
423.864	981.87
424.241	1018.02
424.617	1012.6
424.994	1022.77
425.37	1043.56
425.746	1049.89
426.123	1062.77
426.499	1076.1
426.875	1065.71
427.251	1097.34
427.627	1127.17
428.003	1103.22
428.379	1123.78
428.756	1138.02
429.132	1155.65
429.507	1157.91
429.883	1195.42
430.259	1203.33
430.635	1218.7
431.011	1189.32
431.387	1228.19
431.763	1246.72
432.138	1272.71
432.514	1289.43
432.89	1288.53
433.265	1311.8
433.641	1340.28
434.016	1354.74
434.392	1369.65
434.767	1378.47
435.143	1380.27
435.518	1427.05
435.894	1422.76
436.269	1434.06
436.644	1447.84
437.02	1439.48
437.395	1453.94
437.77	1466.37
438.145	1494.17
438.52	1504.34
438.895	1566.26
439.271	1507.95
439.646	1578.69
440.021	1575.07
440.395	1560.83
440.77	1555.86
441.145	1586.14
441.52	1638.12
441.895	1607.39
442.27	1653.49
442.645	1631.12
443.019	1653.04
443.394	1675.63
443.769	1670.44
444.143	1660.49
444.518	1664.11
444.892	1696.65
445.267	1709.31
445.641	1705.24
446.016	1757.67
446.39	1731
446.764	1746.14
447.139	1760.83
447.513	1755.18
447.887	1756.08
448.262	1734.39
448.636	1807.83
449.01	1854.16
449.384	1827.04
449.758	1837.66
450.132	1897.77
450.506	1880.15
450.88	1876.31
451.254	1864.78
451.628	1942.07
452.002	1929.86
452.376	1954.5
452.75	1994.72
453.123	1961.5
453.497	2025.23
453.871	2003.08
454.244	2091.22
454.618	2056.41
454.992	2092.8
455.365	2137.77
455.739	2164.66
456.112	2214.15
456.486	2217.09
456.859	2189.52
457.232	2265.67
457.606	2273.36
457.979	2317.65
458.352	2351.77
458.725	2388.84
459.099	2366.69
459.472	2443.75
459.845	2470.42
460.218	2435.39
460.591	2504.99
460.964	2511.77
461.337	2562.62
461.71	2604.88
462.083	2625.21
462.456	2617.3
462.829	2626.34
463.201	2684.42
463.574	2636.29
463.947	2679.45
464.32	2768.49
464.692	2798.77
465.065	2817.07
465.438	2836.51
465.81	2879.22
466.183	2901.82
466.555	2920.8
466.928	2976.84
467.3	2959.22
467.672	3021.59
468.045	3097.52
468.417	3077.4
468.789	3110.17
469.161	3150.4
469.534	3224.97
469.906	3236.95
470.278	3288.47
470.65	3300.68
471.022	3389.49
471.394	3400.56
471.766	3449.82
472.138	3474.91
472.51	3550.16
472.882	3587
473.253	3646.66
473.625	3671.51
473.997	3725.52
474.369	3767.78
474.74	3829.25
475.112	3864.28
475.484	3963.71
475.855	4022.92
476.227	4029.24
476.598	4106.76
476.97	4213.65
477.341	4238.5
477.713	4258.62
478.084	4332.29
478.455	4456.58
478.827	4468.33
479.198	4622
479.569	4601.43
479.94	4790.81
480.311	4826.51
480.682	4893.4
481.053	4995.77
481.424	5094.08
481.795	5124.58
482.166	5241.64
482.537	5203.9
482.908	5352.15
483.279	5379.72
483.65	5531.35
484.021	5636.21
484.391	5723.66
484.762	5792.59
485.133	5809.99
485.503	5922.08
485.874	6087.5
486.244	6128.4
486.615	6241.39
486.985	6345.12
487.356	6416.07
487.726	6482.29
488.097	6654.49
488.467	6685.67
488.837	6769.96
489.207	6878.21
489.578	7057.41
489.948	7053.12
490.318	7183.06
490.688	7244.98
491.058	7345.54
491.428	7462.6
491.798	7527.68
492.168	7651.97
492.538	7747.56
492.908	7793.21
493.278	7983.26
493.648	7950.5
494.017	8075.47
494.387	8168.57
494.757	8248.12
495.126	8315.23
495.496	8331.73
495.866	8470.71
496.235	8510.26
496.605	8592.97
496.974	8656.24
497.344	8753.19
497.713	8833.41
498.082	8869.57
498.452	8969.91
498.821	9010.36
499.19	9033.41
499.559	9141.2
499.928	9177.36
500.298	9267.52
500.667	9342.32
501.036	9350.46
501.405	9521.08
501.774	9451.02
502.143	9605.82
502.512	9580.28
502.88	9689.43
503.249	9764.01
503.618	9804.91
503.987	9808.75
504.356	9930.33
504.724	10004.23
505.093	9989.09
505.462	10037.9
505.83	10129.87
506.199	10259.14
506.567	10338.91
506.936	10316.31
507.304	10459.13
507.672	10523.99
508.041	10495.74
508.409	10631.56
508.777	10706.58
509.145	10800.14
509.514	10782.51
509.882	10905.67
510.25	10967.82
510.618	10990.42
510.986	11065.22
511.354	11185.21
511.722	11299.11
512.09	11360.58
512.458	11371.42
512.826	11472.66
513.193	11441.48
513.561	11572.1
513.929	11591.53
514.297	11753.11
514.664	11851.41
515.032	11940.22
515.4	11961.01
515.767	12092.99
516.135	12167.79
516.502	12114.68
516.869	12337.73
517.237	12364.62
517.604	12286.65
517.972	12514.22
518.339	12596.7
518.706	12695.23
519.073	12820.43
519.44	12823.14
519.808	13026.07
520.175	13042.57
520.542	13185.16
520.909	13352.84
521.276	13321.2
521.643	13513.74
522.009	13617.24
522.376	13758.48
522.743	13795.77
523.11	14029.21
523.477	14145.59
523.843	14148.98
524.21	14389.42
524.577	14555.97
524.943	14592.36
525.31	14678.68
525.676	14941.73
526.043	15009.07
526.409	15068.28
526.776	15167.93
527.142	15255.39
527.508	15416.52
527.874	15586.45
528.241	15645.89
528.607	15848.59
528.973	16071.87
529.339	15996.16
529.705	16194.35
530.071	16316.83
530.437	16454
530.803	16552.76
531.169	16626.2
531.535	16746.42
531.901	16877.04
532.267	16906.19
532.632	16985.74
532.998	17100.54
533.364	17232.96
533.73	17275.22
534.095	17492.39
534.461	17512.28
534.826	17652.61
535.192	17719.73
535.557	17811.25
535.923	17853.06
536.288	18052.38
536.653	18088.08
537.019	18170.34
537.384	18230
537.749	18326.72
538.114	18330.34
538.479	18399.49
538.845	18466.38
539.21	18565.13
539.575	18648.97
539.94	18687.62
540.305	18806.03
540.67	18751.8
541.034	18911.79
541.399	19001.05
541.764	18968.74
542.129	19081.96
542.494	19135.74
542.858	19194.04
543.223	19129.86
543.587	19434.71
543.952	19362.4
544.316	19510.42
544.681	19419.8
545.045	19680.36
545.41	19763.97
545.774	19731.88
546.138	19692.11
546.503	19783.86
546.867	19978.66
547.231	20006.45
547.595	20022.5
547.959	20233.79
548.324	20191.98
548.688	20294.35
549.052	20323.96
549.416	20358.98
549.779	20581.13
550.143	20493.22
550.507	20645.76
550.871	20711.52
551.235	20729.37
551.599	20904.51
551.962	20926.2
552.326	21044.84
552.689	21143.82
553.053	21029.7
553.417	21141.11
553.78	21469.01
554.143	21521.21
554.507	21601.66
554.87	21591.72
555.234	21870.81
555.597	21702.45
555.96	21864.03
556.323	21923.24
556.686	22069.67
557.05	22198.48
557.413	22382.43
557.776	22339.05
558.139	22595.31
558.502	22650
558.865	22701.52
559.228	22941.06
559.59	22980.38
559.953	22973.38
560.316	23367.04
560.679	23319.36
561.041	23602.51
561.404	23660.82
561.767	23783.53
562.129	23957.53
562.492	24247.47
562.854	24322.72
563.217	24250.86
563.579	24448.14
563.941	24625.99
564.304	24752.32
564.666	24967.68
565.028	25010.39
565.39	25242.25
565.753	25545.51
566.115	25586.64
566.477	25748
566.839	25972.62
567.201	26125.39
567.563	26267.76
567.925	26588.43
568.287	26604.24
568.648	26742.77
569.01	26956.55
569.372	27267.05
569.734	27293.72
570.095	27674.05
570.457	27927.37
570.819	28038.1
571.18	28087.82
571.542	28459.79
571.903	28471.54
572.265	28779.1
572.626	28893.9
572.987	29092.31
573.349	29293.66
573.71	29481.46
574.071	29608.68
574.432	29830.6
574.794	30081.89
575.155	30061.1
575.516	30149.69
575.877	30359.17
576.238	30567.98
576.599	30714.19
576.96	30859.5
577.32	30935.43
577.681	31138.14
578.042	31264.91
578.403	31348.75
578.763	31460.39
579.124	31641.85
579.485	31754.62
579.845	31923.2
580.206	32030.09
580.566	31960.04
580.927	32187.83
581.287	32360.93
581.648	32327.26
582.008	32500.13
582.368	32607.93
582.728	32622.16
583.089	32639.11
583.449	32842.05
583.809	32844.08
584.169	33042.94
584.529	33017.86
584.889	33393.44
585.249	33213.11
585.609	33116.39
585.969	33385.76
586.329	33395.93
586.688	33717.05
587.048	33616.26
587.408	33655.58
587.768	33705.3
588.127	33797.5
588.487	33961.79
588.846	34277.71
589.206	34146.42
589.565	34195
589.925	34514.77
590.284	34602.23
590.643	34597.71
591.003	34748.66
591.362	34994.31
591.721	35191.36
592.08	35215.09
592.44	35453.95
592.799	35514.29
593.158	35426.61
593.517	35711.12
593.876	35937.56
594.235	35907.95
594.593	36183.88
594.952	36311.33
595.311	36311.56
595.67	36546.81
596.029	36797.2
596.387	37024.31
596.746	37230.41
597.104	37055.27
597.463	37327.8
597.822	37591.98
598.18	37426.56
598.538	37637.85
598.897	38026.77
599.255	37765.98
599.613	38259.08
599.972	38319.42
600.33	38369.13
600.688	38490.94
601.046	38627.2
601.404	39027.19
601.762	38996.69
602.12	39166.85
602.478	39301.54
602.836	39572.26
603.194	39325.94
603.552	39541.98
603.91	39476.9
604.268	39744.01
604.625	39943.1
604.983	40111.01
605.341	40053.83
605.698	40320.27
606.056	40598
606.413	40351
606.771	40922.74
607.128	40876.19
607.485	40766.58
607.843	40940.59
608.2	41212.22
608.557	41358.43
608.914	41251.77
609.272	41567.69
609.629	41742.6
609.986	41978.98
610.343	41885.88
610.7	42184.85
611.057	42265.53
611.414	42185.53
611.771	42488.35
612.127	42686.76
612.484	42641.79
612.841	42817.83
613.198	42662.58
613.554	42729.02
613.911	43172.4
614.267	43268.21
614.624	43169.46
614.98	43286.74
615.337	43611.71
615.693	43640.18
616.05	43661.42
616.406	43773.96
616.762	43810.12
617.118	43836.79
617.475	43809.89
617.831	43987.52
618.187	44159.71
618.543	44215.08
618.899	44444.9
619.255	44469.76
619.611	44473.6
619.967	44602.64
620.323	44792.24
620.678	44567.84
621.034	44596.99
621.39	44586.82
621.746	44607.39
622.101	45047.83
622.457	44682.86
622.812	44914.05
623.168	44787.49
623.523	45013.7
623.879	45217.31
624.234	44982.29
624.589	45112.91
624.945	45041.5
625.3	45255.05
625.655	45185.9
626.01	45166.02
626.365	45287.59
626.72	45157.2
627.075	45234.49
627.43	45114.27
627.785	45112.01
628.14	45156.98
628.495	45192.68
628.85	45242.85
629.205	45081.5
629.559	45265.9
629.914	45044.89
630.269	45066.58
630.623	44867.72
630.978	44870.66
631.332	45077.2
631.687	45134.15
632.041	44958.34
632.396	44969.86
632.75	44941.16
633.104	44923.76
633.459	44809.42
633.813	44711.34
634.167	44732.81
634.521	44838.79
634.875	44811.67
635.229	44610.55
635.583	44431.35
635.937	44463.21
636.291	44444.68
636.645	44385.02
636.999	44195.42
637.352	44312.48
637.706	44122.2
638.06	44241.52
638.413	44116.33
638.767	43896.44
639.121	44090.34
639.474	43931.7
639.828	43898.03
640.181	43929.44
640.534	43979.38
640.888	43787.07
641.241	43554.53
641.594	43705.72
641.947	43782.1
642.301	43682.44
642.654	43648.54
643.007	43561.99
643.36	43577.81
643.713	43504.82
644.066	43674.76
644.419	43254.65
644.771	43006.52
645.124	42470.49
645.477	42394.11
645.83	42554.33
646.182	42478.4
646.535	42355.69
646.888	42469.14
647.24	42198.86
647.593	42458.74
647.945	42380.78
648.298	42144.63
648.65	42090.84
649.002	41778.99
649.355	41599.56
649.707	41477.75
650.059	41421.26
650.411	42114.8
650.763	42442.7
651.115	43037.26
651.467	42673.2
651.819	42827.55
652.171	42527.22
652.523	42559.53
652.875	42567.67
653.227	42435.92
653.578	42693.31
653.93	42645.86
654.282	42405.18
654.633	42496.26
654.985	42565.41
655.337	42581.45
655.688	42449.7
656.039	42658.29
656.391	42247
656.742	42447.9
657.094	42387.11
657.445	42477.72
657.796	42440.21
658.147	42370.38
658.498	42565.63
658.849	42491.74
659.2	42337.16
659.551	42268.01
659.902	42472.3
660.253	42379.65
660.604	42529.93
660.955	42292.65
661.306	42436.82
661.656	42363.6
662.007	42360.89
662.358	42349.59
662.708	42441.34
663.059	42396.15
663.409	42264.62
663.76	42461
664.11	42465.75
664.461	42505.07
664.811	42533.09
665.161	42385.52
665.511	42342.36
665.862	42402.02
666.212	42504.84
666.562	42509.14
666.912	42522.02
667.262	42365.64
667.612	42301.68
667.962	42381.68
668.312	42304.62
668.662	42302.81
669.011	42390.04
669.361	42372.19
669.711	42283.15
670.06	42140.78
670.41	42219.88
670.76	42228.01
671.109	42458.06
671.459	42265.3
671.808	42212.65
672.157	42237.05
672.507	42172.65
672.856	42100.79
673.205	42263.27
673.554	42255.58
673.904	42066.66
674.253	42334.23
674.602	42074.57
674.951	41489.95
675.3	41412.67
675.649	42013.1
675.998	41943.28
676.346	42073.67
676.695	42070.05
677.044	41661.48
677.393	41822.37
677.741	41898.76
678.09	41834.8
678.438	41617.41
678.787	41894.01
679.135	41731.08
679.484	41368.38
679.832	41704.19
680.181	41544.64
680.529	41562.49
680.877	41360.24
681.225	41430.07
681.573	41603.62
681.922	41368.83
682.27	41280.92
682.618	41282.95
682.966	41123.41
683.314	41156.4
683.661	40986.46
684.009	41012.9
684.357	40786.24
684.705	40872.34
685.053	40808.84
685.4	40715.29
685.748	40425.35
686.095	40591.22
686.443	40155.53
686.79	40425.35
687.138	40310.32
687.485	40401.17
687.832	40037.56
688.18	40180.84
688.527	39856.1
688.874	39859.49
689.221	39704.24
689.568	39599.38
689.915	39589.89
690.262	39582.43
690.609	39464.24
690.956	39206.85
691.303	39269
691.65	39060.87
691.997	38948.1
692.344	38833.98
692.69	38663.14
693.037	38649.35
693.383	38332.98
693.73	38436.25
694.077	38098.63
694.423	38102.47
694.769	38068.35
695.116	38102.25
695.462	37817.73
695.808	37671.07
696.155	37727.34
696.501	37519.44
696.847	37547.69
697.193	37130.75
697.539	37293.68
697.885	36892.34
698.231	36784.54
698.577	36881.49
698.923	36777.08
699.269	36598.11
699.614	36477.88
699.96	36153.82
700.306	36250.77
700.651	35943.43
700.997	35947.28
701.342	35856.2
701.688	35717.68
702.033	35440.85
702.379	35438.14
702.724	35374.41
703.069	35428.19
703.415	35041.31
703.76	35070.01
704.105	35026.85
704.45	34830.24
704.795	34733.07
705.14	34624.37
705.485	34585.28
705.83	34188.45
706.175	34432.51
706.52	34357.49
706.865	34138.96
707.209	34056.93
707.554	34065.06
707.899	33985.29
708.243	33724.51
708.588	33779.87
708.932	33565.19
709.277	33400.45
709.621	33349.83
709.966	33238.42
710.31	33245.88
710.654	32974.92
710.998	33110.51
711.342	33049.72
711.687	32897.19
712.031	32849.28
712.375	32702.16
712.719	32649.28
713.063	32618.78
713.407	32667.14
713.75	32472.11
714.094	32452
714.438	32322.96
714.782	32283.42
715.125	32186.7
715.469	32279.35
715.812	32002.97
716.156	32024.89
716.499	32023.31
716.843	32014.95
717.186	31763.88
717.53	31987.83
717.873	31949.41
718.216	31851.11
718.559	31722.98
718.902	31396.21
719.246	31619.93
719.589	31427.39
719.932	31440.95
720.275	31411.35
720.617	31619.48
720.96	31292.48
721.303	31477.11
721.646	31504.68
721.989	31143.79
722.331	31269.43
722.674	31125.48
723.016	31150.57
723.359	31074.63
723.701	31283.67
724.044	31057.46
724.386	30838.26
724.729	31145.59
725.071	31000.96
725.413	31036.9
725.755	31103.79
726.097	30923.45
726.439	30820.4
726.782	30801.2
727.124	30993.06
727.465	30840.29
727.807	30757.36
728.149	30819.95
728.491	30654.31
728.833	30766.39
729.175	30624.7
729.516	30509.45
729.858	30553.07
730.199	30746.28
730.541	30677.13
730.882	30607.98
731.224	30551.03
731.565	30490.02
731.906	30550.58
732.248	30583.8
732.589	30571.37
732.93	30411.15
733.271	30496.12
733.612	30535.89
733.953	30744.02
734.294	30458.61
734.635	30411.83
734.976	30486.4
735.317	30377.48
735.658	30383.35
735.999	30420.64
736.339	30506.29
736.68	30431.26
737.021	30497.47
737.361	30311.04
737.702	30671.26
738.042	30410.92
738.383	30396.23
738.723	30515.78
739.063	30420.87
739.404	30579.51
739.744	30326.63
740.084	30482.33
740.424	30508.32
740.764	30467.42
741.104	30602.33
741.444	30412.51
741.784	30507.64
742.124	30601.43
742.464	30607.08
742.804	30496.57
743.143	30596.23
743.483	30598.26
743.823	30532.05
744.162	30635.1
744.502	30682.1
744.841	30641.88
745.181	30745.83
745.52	30581.99
745.86	30773.17
746.199	30806.85
746.538	30810.91
746.877	30998.25
747.216	30934.07
747.556	30922.55
747.895	31006.39
748.234	31101.3
748.573	31001.42
748.911	30839.39
749.25	30979.5
749.589	31079.38
749.928	31160.06
750.267	31128.42
750.605	31256.33
750.944	31413.61
751.283	31244.12
751.621	31390.78
751.96	31447.51
752.298	31427.85
752.636	31451.8
752.975	31432.59
753.313	31430.78
753.651	31626.26
753.989	31542.87
754.327	31588.29
754.666	31525.7
755.004	31646.6
755.342	31716.65
755.679	31811.11
