Data from 19-2025_FLMS001491_004.txt Node
Date: Thu Apr 19 16:34:47 BST 2018
User: hsy
Spectrometer: FLMS00149
Trigger mode: 0
Integration Time (sec): 1.000000E-2
Scans to average: 10
Electric dark correction enabled: true
Nonlinearity correction enabled: false
Boxcar width: 0
XAxis mode: Wavelengths
Number of Pixels in Spectrum: 2048
>>>>>Begin Spectral Data<<<<<
341.393	-3.5
341.776	-3.5
342.16	-3.5
342.543	-35.37
342.927	-67.91
343.31	-72.65
343.693	-75.82
344.077	-72.43
344.46	-59.32
344.843	-39.89
345.226	-59.77
345.61	-24.75
345.993	10.06
346.376	-6.67
346.759	13.45
347.142	20.68
347.525	39.21
347.908	42.82
348.291	74.91
348.674	102.94
349.057	107.23
349.44	139.32
349.823	137.28
350.206	175.02
350.588	232.42
350.971	213.44
351.354	234.91
351.737	273.33
352.119	287.11
352.502	298.64
352.884	302.48
353.267	319.2
353.65	332.99
354.032	331.86
354.414	329.6
354.797	356.71
355.179	368.01
355.562	355.36
355.944	377.05
356.326	361.91
356.709	365.53
357.091	379.99
357.473	375.24
357.855	376.15
358.238	376.37
358.62	393.1
359.002	392.65
359.384	383.38
359.766	371.63
360.148	392.42
360.53	385.87
360.912	370.05
361.294	368.92
361.676	396.71
362.057	374.57
362.439	379.09
362.821	381.35
363.203	372.53
363.584	377.28
363.966	374.57
364.348	365.08
364.729	353.1
365.111	373.44
365.493	403.72
365.874	367.11
366.256	368.01
366.637	378.18
367.019	362.14
367.4	363.49
367.781	352.65
368.163	372.08
368.544	373.89
368.925	388.8
369.306	345.41
369.688	366.88
370.069	384.06
370.45	367.33
370.831	372.98
371.212	379.54
371.593	375.7
371.974	374.11
372.355	379.09
372.736	379.31
373.117	391.97
373.498	385.64
373.879	379.31
374.26	372.31
374.641	367.79
375.021	373.44
375.402	417.5
375.783	381.35
376.163	414.57
376.544	404.85
376.925	410.27
377.305	385.87
377.686	402.59
378.066	393.77
378.447	405.53
378.827	415.92
379.208	398.75
379.588	414.34
379.968	403.27
380.349	396.03
380.729	433.32
381.109	423.83
381.489	421.8
381.87	414.11
382.25	431.97
382.63	436.71
383.01	431.29
383.39	444.17
383.77	441.46
384.15	439.2
384.53	431.06
384.91	440.1
385.29	448.24
385.67	463.83
386.049	460.44
386.429	453.89
386.809	464.28
387.189	474.68
387.568	455.02
387.948	446.65
388.328	490.72
388.707	464.51
389.087	474.9
389.466	479.65
389.846	478.97
390.225	477.84
390.605	501.12
390.984	487.56
391.363	512.87
391.743	513.77
392.122	498.63
392.501	520.78
392.881	516.94
393.26	524.17
393.639	515.13
394.018	538.4
394.397	533.21
394.776	546.09
395.155	548.12
395.534	518.07
395.913	554.22
396.292	552.19
396.671	546.99
397.05	534.56
397.429	570.95
397.808	556.93
398.186	566.65
398.565	561.91
398.944	576.82
399.323	571.17
399.701	580.89
400.08	574.34
400.458	573.21
400.837	605.75
401.215	571.62
401.594	600.78
401.972	573.66
402.351	626.54
402.729	627.22
403.107	620.21
403.486	595.8
403.864	607.1
404.242	631.28
404.62	608.23
404.999	619.98
405.377	658.63
405.755	652.75
406.133	659.3
406.511	657.04
406.889	710.83
407.267	660.66
407.645	695.01
408.023	686.87
408.401	691.62
408.779	697.95
409.156	713.09
409.534	716.7
409.912	752.41
410.29	745.63
410.667	751.28
411.045	758.96
411.422	761.9
411.8	751.05
412.178	781.11
412.555	788.34
412.933	794.22
413.31	792.86
413.687	806.87
414.065	802.35
414.442	824.27
414.819	832.63
415.197	846.19
415.574	840.54
415.951	853.65
416.328	856.36
416.705	845.29
417.082	852.07
417.46	890.71
417.837	909.47
418.214	893.2
418.591	916.93
418.967	905.85
419.344	928.9
419.721	923.7
420.098	932.97
420.475	926.87
420.852	940.65
421.228	921.22
421.605	939.07
421.982	967.09
422.358	992.4
422.735	975.45
423.111	967.55
423.488	1002.35
423.864	1006.87
424.241	1011.61
424.617	1036.92
424.994	1064.04
425.37	1022.91
425.746	1052.06
426.123	1063.36
426.499	1085.96
426.875	1123.47
427.251	1103.59
427.627	1126.64
428.003	1136.58
428.379	1145.62
428.756	1135.9
429.132	1190.59
429.507	1160.08
429.883	1204.38
430.259	1216.8
430.635	1195.56
431.011	1240.31
431.387	1257.71
431.763	1279.4
432.138	1264.71
432.514	1301.32
432.89	1310.81
433.265	1363.69
433.641	1351.26
434.016	1322.56
434.392	1380.87
434.767	1393.97
435.143	1403.24
435.518	1398.27
435.894	1424.03
436.269	1426.74
436.644	1483.69
437.02	1464.48
437.395	1448.21
437.77	1480.07
438.145	1527.76
438.52	1539.28
438.895	1544.48
439.271	1557.59
439.646	1602.78
440.021	1578.38
440.395	1611.6
440.77	1581.09
441.145	1597.81
441.52	1640.07
441.895	1588.32
442.27	1630.13
442.645	1630.58
443.019	1663.35
443.394	1668.77
443.769	1654.31
444.143	1696.79
444.518	1716.45
444.892	1711.48
445.267	1713.97
445.641	1747.41
446.016	1748.54
446.39	1770.24
446.764	1760.97
447.139	1791.25
447.513	1764.81
447.887	1791.25
448.262	1801.42
448.636	1787.64
449.01	1818.14
449.384	1824.92
449.758	1855.21
450.132	1876
450.506	1870.35
450.88	1908.09
451.254	1929.33
451.628	1948.08
452.002	1973.85
452.376	1957.8
452.75	2006.39
453.123	2010.91
453.497	2018.82
453.871	2032.15
454.244	2083.45
454.618	2122.54
454.992	2111.47
455.365	2170.45
455.739	2183.33
456.112	2175.65
456.486	2212.03
456.859	2254.07
457.232	2252.26
457.606	2275.53
457.979	2330
458.352	2375.42
458.725	2392.82
459.099	2404.34
459.472	2445.92
459.845	2448.64
460.218	2471.01
460.591	2501.97
460.964	2552.59
461.337	2540.84
461.71	2568.41
462.083	2620.38
462.456	2651.34
462.829	2696.54
463.201	2703.77
463.574	2720.95
463.947	2754.84
464.32	2779.93
464.692	2795.29
465.065	2813.6
465.438	2885.01
465.81	2885.91
466.183	2932.69
466.555	2962.75
466.928	3004.78
467.3	3013.37
467.672	3065.57
468.045	3122.29
468.417	3099.24
468.789	3141.05
469.161	3174.94
469.534	3196.87
469.906	3242.74
470.278	3272.57
470.65	3325.68
471.022	3381.72
471.394	3437.76
471.766	3462.39
472.138	3531.09
472.51	3549.4
472.882	3619
473.253	3630.07
473.625	3715.72
473.997	3766.34
474.369	3825.55
474.74	3851.99
475.112	3941.03
475.484	3964.75
475.855	4063.28
476.227	4074.36
476.598	4169.27
476.97	4200.45
477.341	4254.46
477.713	4325.2
478.084	4393.9
478.455	4458.53
478.827	4501.01
479.198	4638.64
479.569	4663.95
479.94	4756.6
480.311	4855.13
480.682	4946.65
481.053	5004.28
481.424	5106.65
481.795	5111.17
482.166	5218.73
482.537	5276.36
482.908	5417.82
483.279	5440.87
483.65	5595.22
484.021	5673.18
484.391	5696.91
484.762	5791.15
485.133	5817.81
485.503	5914.08
485.874	6109.1
486.244	6139.84
486.615	6275.65
486.985	6338.7
487.356	6435.65
487.726	6452.37
488.097	6643.1
488.467	6689.88
488.837	6821.63
489.207	6843.55
489.578	7019.59
489.948	7050.55
490.318	7180.94
490.688	7157.44
491.058	7302.07
491.428	7453.48
491.798	7474.72
492.168	7609.18
492.538	7659.57
492.908	7760.81
493.278	7888.04
493.648	7912.67
494.017	8082.61
494.387	8183.4
494.757	8211.2
495.126	8302.04
495.496	8268.37
495.866	8382.94
496.235	8456.39
496.605	8532.32
496.974	8652.31
497.344	8734.35
497.713	8738.41
498.082	8810.28
498.452	8892.08
498.821	8997.16
499.19	8916.49
499.559	9101.57
499.928	9127.33
500.298	9143.38
500.667	9318.51
501.036	9265.63
501.405	9400.77
501.774	9362.8
502.143	9499.75
502.512	9513.54
502.88	9656.81
503.249	9640.54
503.618	9710.82
503.987	9762.79
504.356	9808.67
504.724	9844.15
505.093	9881.66
505.462	9993.75
505.83	10057.93
506.199	10078.94
506.567	10219.28
506.936	10229.45
507.304	10374.76
507.672	10321.2
508.041	10420.4
508.409	10507.18
508.777	10587.63
509.145	10644.58
509.514	10644.8
509.882	10681.64
510.25	10825.37
510.618	10857.68
510.986	10925.48
511.354	10991.46
511.722	11100.39
512.09	11206.6
512.458	11185.13
512.826	11287.73
513.193	11400.27
513.561	11491.34
513.929	11487.49
514.297	11591.67
514.664	11740.14
515.032	11755.28
515.4	11775.62
515.767	11917.54
516.135	11935.62
516.502	11925
516.869	12173.35
517.237	12250.41
517.604	12240.24
517.972	12428.49
518.339	12573.57
518.706	12584.87
519.073	12590.52
519.44	12681.81
519.808	12826.22
520.175	12874.12
520.542	13013.56
520.909	13037.06
521.276	13115.7
521.643	13391.85
522.009	13430.49
522.376	13492.64
522.743	13601.56
523.11	13763.82
523.477	13851.73
523.843	13978.5
524.21	14165.84
524.577	14249.68
524.943	14359.74
525.31	14419.62
525.676	14644.7
526.043	14777.13
526.409	14855.99
526.776	15099.38
527.142	15085.82
527.508	15151.8
527.874	15276.32
528.241	15490.78
528.607	15484.68
528.973	15613.26
529.339	15743.88
529.705	15945.68
530.071	15993.82
530.437	16116.07
530.803	16194.72
531.169	16366.69
531.535	16288.05
531.901	16489.85
532.267	16623.86
532.632	16667.7
532.998	16839.9
533.364	16954.24
533.73	16943.17
534.095	17187.91
534.461	17048.7
534.826	17359.88
535.192	17387
535.557	17581.12
535.923	17598.75
536.288	17658.63
536.653	17777.72
537.019	17749.7
537.384	17943.37
537.749	17837.61
538.114	18050.49
538.479	18067.43
538.845	18137.26
539.21	18156.7
539.575	18265.4
539.94	18314.89
540.305	18483.92
540.67	18491.15
541.034	18550.13
541.399	18593.3
541.764	18730.47
542.129	18747.42
542.494	18849.56
542.858	18951.71
543.223	18923.01
543.587	19035.77
543.952	19109.67
544.316	19164.58
544.681	19125.71
545.045	19315.99
545.41	19433.05
545.774	19492.03
546.138	19432.37
546.503	19503.33
546.867	19559.15
547.231	19754.4
547.595	19760.27
547.959	19772.93
548.324	19923.88
548.688	19906.03
549.052	19980.6
549.416	19970.44
549.779	20130.21
550.143	20155.06
550.507	20331.1
550.871	20240.94
551.235	20414.94
551.599	20527.26
551.962	20595.28
552.326	20621.94
552.689	20772.67
553.053	20675.73
553.417	20829.17
553.78	21037.75
554.143	21050.41
554.507	21148.03
554.87	21203.17
555.234	21350.96
555.597	21309.84
555.96	21422.15
556.323	21537.4
556.686	21636.61
557.05	21845.87
557.413	21832.53
557.776	21955.92
558.139	22176.93
558.502	22163.82
558.865	22285.85
559.228	22450.82
559.59	22533.08
559.953	22693.98
560.316	22932.62
560.679	22914.54
561.041	23050.58
561.404	23064.37
561.767	23486.95
562.129	23328.54
562.492	23595.88
562.854	23700.51
563.217	23670.23
563.579	23943.21
563.941	24173.94
564.304	24294.16
564.666	24456.65
565.028	24659.35
565.39	24794.26
565.753	24965.78
566.115	25066.12
566.477	25305.44
566.839	25338.88
567.201	25714.47
567.563	25797.63
567.925	25987
568.287	26081.01
568.648	26278.07
569.01	26484.16
569.372	26828.33
569.734	26814.32
570.095	27089.34
570.457	27352.84
570.819	27426.28
571.18	27619.95
571.542	27704.24
571.903	27926.16
572.265	28235.3
572.626	28276.21
572.987	28499.02
573.349	28741.5
573.71	28984.21
574.071	29189.63
574.432	29244.77
574.794	29688.37
575.155	29711.42
575.516	29717.52
575.877	29892.43
576.238	29985.54
576.599	30328.13
576.96	30417.17
577.32	30464.85
577.681	30820.09
578.042	30980.32
578.403	31042.46
578.763	31071.61
579.124	31192.74
579.485	31457.36
579.845	31640.19
580.206	31607.42
580.566	31771.48
580.927	31767.87
581.287	31891.48
581.648	31828.43
582.008	32128.31
582.368	32181.41
582.728	32234.52
583.089	32316.1
583.449	32403.1
583.809	32451.69
584.169	32751.34
584.529	32700.04
584.889	33057.55
585.249	32886.03
585.609	32808.74
585.969	33136.19
586.329	33043.54
586.688	33310.88
587.048	33292.57
587.408	33321.95
587.768	33364.89
588.127	33578.89
588.487	33578.21
588.846	33955.83
589.206	33700.02
589.565	33859.34
589.925	34250.06
590.284	34237.4
590.643	34307.01
591.003	34509.49
591.362	34856.15
591.721	34829.48
592.08	34872.19
592.44	35198.51
592.799	35101.11
593.158	35313.76
593.517	35343.82
593.876	35689.8
594.235	35587.88
594.593	35834.88
594.952	36013.86
595.311	36142.21
595.67	36136.11
596.029	36427.63
596.387	36637.57
596.746	36797.79
597.104	36730.67
597.463	36816.09
597.822	37287.49
598.18	37075.52
598.538	37146.25
598.897	37619.24
599.255	37527.94
599.613	38090.64
599.972	37843.64
600.33	38119.34
600.688	38068.49
601.046	38356.39
601.404	38684.29
601.762	38724.52
602.12	38937.85
602.478	39022.36
602.836	39114.79
603.194	39100.55
603.552	39248.8
603.91	39306.2
604.268	39503.93
604.625	39579.41
604.983	39698.96
605.341	39620.09
605.698	39931.27
606.056	40195.44
606.413	40131.04
606.771	40420.52
607.128	40408.32
607.485	40460.52
607.843	40467.75
608.2	40720.4
608.557	40907.29
608.914	40852.37
609.272	41086.72
609.629	41298.91
609.986	41548.4
610.343	41406.71
610.7	41756.76
611.057	41748.39
611.414	41677.44
611.771	41936.64
612.127	42112.9
612.484	42145.9
612.841	42314.71
613.198	42169.17
613.554	42073.58
613.911	42471.76
614.267	42617.75
614.624	42558.09
614.98	42804.64
615.337	42912.21
615.693	42930.51
616.05	42961.7
616.406	43196.72
616.762	43083.95
617.118	43199.88
617.475	43231.52
617.831	43393.55
618.187	43450.95
618.543	43366.88
618.899	43625.18
619.255	43719.42
619.611	43642.13
619.967	43928.9
620.323	44003.93
620.678	43849.36
621.034	43883.7
621.39	43960.31
621.746	43910.37
622.101	44422
622.457	43919.64
622.812	44084.38
623.168	44203.24
623.523	44146.97
623.879	44355.1
624.234	44265.62
624.589	44364.6
624.945	44415.44
625.3	44424.93
625.655	44411.83
626.01	44461.77
626.365	44638.49
626.72	44465.84
627.075	44250.93
627.43	44366.63
627.785	44361.66
628.14	44465.38
628.495	44365.05
628.85	44448.44
629.205	44459.51
629.559	44654.98
629.914	44347.65
630.269	44300.64
630.623	44211.15
630.978	44053.42
631.332	44394.2
631.687	44527.98
632.041	44334.99
632.396	44312.17
632.75	44193.75
633.104	44274.66
633.459	44031.5
633.813	43990.37
634.167	44079.41
634.521	44120.08
634.875	43984.04
635.229	43899.07
635.583	43710.15
635.937	43793.76
636.291	43744.95
636.645	43737.49
636.999	43624.05
637.352	43670.83
637.706	43434.68
638.06	43611.17
638.413	43354.23
638.767	43283.27
639.121	43342.48
639.474	43189.26
639.828	43125.08
640.181	43070.17
640.534	43197.62
640.888	42994.24
641.241	42904.97
641.594	42968.25
641.947	43045.08
642.301	42867.91
642.654	42917.18
643.007	42819.55
643.36	42851.19
643.713	42763.06
644.066	42799.21
644.419	42569.39
644.771	42134.15
645.124	41842.85
645.477	41776.87
645.83	41716.98
646.182	41618
646.535	41582.97
646.888	41685.8
647.24	41588.85
647.593	41770.99
647.945	41682.63
648.298	41506.82
648.65	41316.99
649.002	40980.28
649.355	41030.9
649.707	40733.51
650.059	40790.23
650.411	41494.39
650.763	41587.49
651.115	42298.89
651.467	42194.94
651.819	41980.25
652.171	41949.74
652.523	41802.4
652.875	41929.18
653.227	41812.35
653.578	41994.72
653.93	41838.11
654.282	41736.19
654.633	41681.05
654.985	41749.52
655.337	41655.74
655.688	41776.87
656.039	41663.2
656.391	41423.66
656.742	41533.26
657.094	41503.88
657.445	41689.64
657.796	41604.89
658.147	41493.71
658.498	41625.23
658.849	41720.37
659.2	41582.07
659.551	41516.54
659.902	41905
660.253	41498.68
660.604	41655.29
660.955	41519.7
661.306	41821.39
661.656	41558.79
662.007	41511.34
662.358	41516.99
662.708	41566.25
663.059	41505.69
663.409	41520.6
663.76	41660.71
664.11	41663.65
664.461	41728.51
664.811	41648.74
665.161	41671.79
665.511	41618.45
665.862	41641.96
666.212	41648.74
666.562	41658.68
666.912	41718.34
667.262	41573.26
667.612	41607.61
667.962	41705.68
668.312	41638.57
668.662	41924.89
669.011	41718.56
669.361	41569.19
669.711	41773.03
670.06	41734.16
670.41	41574.16
670.76	41576.87
671.109	41771.9
671.459	41644.44
671.808	41510.43
672.157	41619.13
672.507	41454.84
672.856	41470.89
673.205	41531.68
673.554	41606.48
673.904	41395.86
674.253	41667.94
674.602	41253.94
674.951	40992.71
675.3	40684.92
675.649	41375.52
675.998	41284.9
676.346	41383.21
676.695	41460.27
677.044	41311.12
677.393	41320.38
677.741	41382.98
678.09	41270.67
678.438	40977.79
678.787	41207.17
679.135	40993.39
679.484	40829.55
679.832	41070.9
680.181	40816.21
680.529	40816.21
680.877	40771.02
681.225	40714.97
681.573	40980.96
681.922	40641.76
682.27	40471.14
682.618	40532.61
682.966	40230.69
683.314	40503.68
683.661	40263.46
684.009	40351.82
684.357	40141.43
684.705	40180.53
685.053	40115.44
685.4	39865.51
685.748	39795.22
686.095	39944.6
686.443	39630.03
686.79	39580.99
687.138	39806.3
687.485	39657.38
687.832	39433.43
688.18	39422.35
688.527	39246.54
688.874	39154.56
689.221	39146.2
689.568	38959.77
689.915	38736.72
690.262	38703.5
690.609	38838.87
690.956	38597.74
691.303	38597.97
691.65	38461.7
691.997	38318.2
692.344	38049.28
692.69	38125.89
693.037	38056.51
693.383	37704.88
693.73	37823.07
694.077	37594.38
694.423	37538.79
694.769	37303.31
695.116	37286.82
695.462	37303.99
695.808	37083.88
696.155	37065.58
696.501	36751.92
696.847	36712.59
697.193	36627.4
697.539	36608.87
697.885	36359.83
698.231	36394.64
698.577	36226.51
698.923	36113.06
699.269	35934.54
699.614	35876.23
699.96	35573.64
700.306	35612.51
700.651	35469.24
700.997	35429.92
701.342	35238.28
701.688	35212.29
702.033	34958.29
702.379	34925.97
702.724	34804.17
703.069	34838.97
703.415	34451.64
703.76	34455.25
704.105	34360.79
704.45	34277.63
704.795	34104.98
705.14	34011.87
705.485	33972.1
705.83	33636.97
706.175	33842.61
706.52	33709.28
706.865	33605.33
707.209	33332.34
707.554	33315.85
707.899	33339.8
708.243	33227.26
708.588	33147.94
708.932	32831.11
709.277	33025.23
709.621	32796.09
709.966	32524.23
710.31	32669.76
710.654	32382.76
710.998	32457.56
711.342	32504.34
711.687	32327.17
712.031	32267.97
712.375	32092.6
712.719	32013.96
713.063	32059.61
713.407	32115.88
713.75	31978.93
714.094	31843.34
714.438	31751.37
714.782	31752.72
715.125	31597.02
715.469	31756.57
715.812	31479.96
716.156	31563.58
716.499	31439.29
716.843	31452.17
717.186	31408.55
717.53	31435.9
717.873	31417.14
718.216	31418.04
718.559	31178.05
718.902	31069.8
719.246	30978.96
719.589	31027.55
719.932	30948.23
720.275	30952.29
720.617	30954.55
720.96	30956.59
721.303	30931.28
721.646	30839.53
721.989	30750.04
722.331	30863.03
722.674	30717.72
723.016	30735.12
723.359	30620.78
723.701	30692.41
724.044	30639.53
724.386	30422.82
724.729	30591.63
725.071	30524.06
725.413	30545.75
725.755	30459.65
726.097	30335.59
726.439	30306.66
726.782	30228.47
727.124	30479.54
727.465	30344.85
727.807	30151.41
728.149	30310.73
728.491	30130.85
728.833	30190.96
729.175	30156.61
729.516	30174.01
729.858	30059.21
730.199	30247
730.541	30154.57
730.882	30082.26
731.224	30131.98
731.565	30033.22
731.906	30122.03
732.248	30175.82
732.589	29873.23
732.93	29955.26
733.271	30037.52
733.612	29959.78
733.953	30163.61
734.294	29929.27
734.635	29968.14
734.976	30193.67
735.317	29975.82
735.658	29899.44
735.999	29859.67
736.339	29907.12
736.68	29912.77
737.021	29992.54
737.361	29856.96
737.702	30138.3
738.042	29984.64
738.383	30046.1
738.723	30125.87
739.063	29949.61
739.404	29985.54
739.744	30021.7
740.084	30033
740.424	29990.96
740.764	29922.26
741.104	30217.17
741.444	30075.03
741.784	29956.39
742.124	30101.92
742.464	30070.73
742.804	30098.53
743.143	30110.73
743.483	30221.01
743.823	30174.91
744.162	30145.76
744.502	30249.49
744.841	30206.55
745.181	30391.86
745.52	30249.26
745.86	30295.81
746.199	30366.77
746.538	30402.03
746.877	30642.25
747.216	30525.41
747.556	30477.96
747.895	30559.08
748.234	30605.64
748.573	30638.4
748.911	30654.45
749.25	30831.39
749.589	30637.27
749.928	30730.6
750.267	30806.53
750.605	30755.01
750.944	30769.02
751.283	30825.74
751.621	31020.31
751.96	30960.88
752.298	30993.87
752.636	31036.13
752.975	30989.13
753.313	31052.4
753.651	31320.87
753.989	31199.52
754.327	31311.38
754.666	31093.76
755.004	31319.29
755.342	31328.33
