Data from 19-2025_FLMS001491_002.txt Node
Date: Thu Apr 19 16:34:41 BST 2018
User: hsy
Spectrometer: FLMS00149
Trigger mode: 0
Integration Time (sec): 1.000000E-2
Scans to average: 10
Electric dark correction enabled: true
Nonlinearity correction enabled: false
Boxcar width: 0
XAxis mode: Wavelengths
Number of Pixels in Spectrum: 2048
>>>>>Begin Spectral Data<<<<<
341.393	-15.86
341.776	-15.86
342.16	-15.86
342.543	-64.45
342.927	-68.52
343.31	-82.3
343.693	-65.35
344.077	-55.86
344.46	-72.13
344.843	-52.02
345.226	-44.33
345.61	-25.58
345.993	1.77
346.376	-5.47
346.759	0.86
347.142	3.8
347.525	48.32
347.908	69.11
348.291	81.99
348.674	98.94
349.057	98.26
349.44	110.46
349.823	129.9
350.206	165.83
350.588	229.1
350.971	235.66
351.354	272.94
351.737	284.24
352.119	283.79
352.502	300.51
352.884	298.93
353.267	317.92
353.65	320.63
354.032	318.59
354.414	332.6
354.797	358.37
355.179	325.15
355.562	356.33
355.944	373.73
356.326	357.46
356.709	373.73
357.091	369.67
357.473	374.86
357.855	392.72
358.238	381.64
358.62	396.11
359.002	395.2
359.384	383.22
359.766	382.32
360.148	386.39
360.53	402.88
360.912	389.55
361.294	400.17
361.676	374.41
362.057	370.34
362.439	371.25
362.821	369.44
363.203	376.67
363.584	389.78
363.966	367.18
364.348	380.06
364.729	367.18
365.111	376.67
365.493	354.75
365.874	359.04
366.256	373.28
366.637	378.03
367.019	353.85
367.4	365.82
367.781	382.09
368.163	366.73
368.544	364.02
368.925	399.27
369.306	364.24
369.688	356.78
370.069	379.16
370.45	382.55
370.831	381.42
371.212	380.96
371.593	382.32
371.974	377.8
372.355	387.29
372.736	390.23
373.117	409.44
373.498	377.35
373.879	387.74
374.26	378.25
374.641	378.03
375.021	401.08
375.402	387.52
375.783	397.46
376.163	402.21
376.544	384.35
376.925	397.69
377.305	413.05
377.686	410.12
378.066	404.92
378.447	420.96
378.827	405.14
379.208	420.51
379.588	432.49
379.968	428.65
380.349	412.15
380.729	418.93
381.109	431.36
381.489	437.01
381.87	422.55
382.25	447.18
382.63	452.38
383.01	460.74
383.39	455.76
383.77	447.18
384.15	447.86
384.53	457.57
384.91	475.43
385.29	474.75
385.67	483.56
386.049	451.02
386.429	479.49
386.809	499.15
387.189	482.2
387.568	463.9
387.948	488.31
388.328	507.06
388.707	496.44
389.087	498.93
389.466	479.95
389.846	479.95
390.225	495.31
390.605	508.87
390.984	487.63
391.363	518.14
391.743	518.81
392.122	532.15
392.501	538.47
392.881	527.85
393.26	543.9
393.639	541.19
394.018	548.87
394.397	537.34
394.776	577.34
395.155	566.95
395.534	553.16
395.913	571.47
396.292	564.01
396.671	583.9
397.05	577.57
397.429	596.33
397.808	582.09
398.186	563.78
398.565	607.4
398.944	611.47
399.323	611.47
399.701	596.78
400.08	608.3
400.458	623.44
400.837	610.11
401.215	628.64
401.594	625.93
401.972	626.83
402.351	633.84
402.729	622.09
403.107	650.34
403.486	659.38
403.864	674.29
404.242	655.31
404.62	654.63
404.999	688.75
405.377	676.32
405.755	699.37
406.133	668.41
406.511	707.96
406.889	712.93
407.267	720.84
407.645	730.11
408.023	743.67
408.401	763.33
408.779	752.25
409.156	764.01
409.534	771.01
409.912	793.38
410.29	780.05
410.667	785.7
411.045	784.8
411.422	815.76
411.8	825.92
412.178	821.4
412.555	824.79
412.933	860.73
413.31	862.76
413.687	880.16
414.065	829.77
414.442	877.22
414.819	879.93
415.197	891.69
415.574	921.97
415.951	918.8
416.328	949.54
416.705	907.96
417.082	942.31
417.46	930.1
417.837	965.36
418.214	959.48
418.591	978.69
418.967	979.14
419.344	1008.74
419.721	991.57
420.098	1003.77
420.475	1019.14
420.852	1047.61
421.228	1024.11
421.605	1032.02
421.982	1048.29
422.358	1046.48
422.735	1078.35
423.111	1076.31
423.488	1075.18
423.864	1093.26
424.241	1114.5
424.617	1111.79
424.994	1121.74
425.37	1135.3
425.746	1157.44
426.123	1149.31
426.499	1152.02
426.875	1160.38
427.251	1186.14
427.627	1222.52
428.003	1229.08
428.379	1226.82
428.756	1251.9
429.132	1271.79
429.507	1300.71
429.883	1295.97
430.259	1305.91
430.635	1322.18
431.011	1322.18
431.387	1384.78
431.763	1392.24
432.138	1389.3
432.514	1419.81
432.89	1427.72
433.265	1446.25
433.641	1467.94
434.016	1495.51
434.392	1528.96
434.767	1519.01
435.143	1519.69
435.518	1528.28
435.894	1577.77
436.269	1561.5
436.644	1599.46
437.02	1628.39
437.395	1623.64
437.77	1644.43
438.145	1670.2
438.52	1675.62
438.895	1699.12
439.271	1689.86
439.646	1711.33
440.021	1750.42
440.395	1749.74
440.77	1715.39
441.145	1775.96
441.52	1797.88
441.895	1799.91
442.27	1824.99
442.645	1815.5
443.019	1835.84
443.394	1863.64
443.769	1859.57
444.143	1839.01
444.518	1899.34
444.892	1889.85
445.267	1901.83
445.641	1892.11
446.016	1926.01
446.39	1942.28
446.764	1931.21
447.139	1922.17
447.513	1971.66
447.887	2000.36
448.262	1995.16
448.636	2010.53
449.01	2020.7
449.384	2052.11
449.758	2064.76
450.132	2085.33
450.506	2091.43
450.88	2111.09
451.254	2096.4
451.628	2123.97
452.002	2168.71
452.376	2173.91
452.75	2224.53
453.123	2259.79
453.497	2228.6
453.871	2277.86
454.244	2287.36
454.618	2306.56
454.992	2358.99
455.365	2341.36
455.739	2410.29
456.112	2435.6
456.486	2457.07
456.859	2492.55
457.232	2506.56
457.606	2576.61
457.979	2580.23
458.352	2616.39
458.725	2655.26
459.099	2660
459.472	2677.18
459.845	2743.84
460.218	2771.64
460.591	2808.7
460.964	2849.37
461.337	2870.62
461.71	2938.64
462.083	2946.77
462.456	2985.19
462.829	2966.89
463.201	3073.1
463.574	3032.42
463.947	3086.2
464.32	3143.15
464.692	3125.75
465.065	3183.6
465.438	3235.58
465.81	3264.73
466.183	3282.13
466.555	3292.07
466.928	3383.37
467.3	3354.22
467.672	3436.48
468.045	3476.48
468.417	3536.59
468.789	3511.28
469.161	3527.77
469.534	3573.2
469.906	3683.7
470.278	3693.65
470.65	3699.52
471.022	3821.55
471.394	3827.88
471.766	3873.53
472.138	3959.18
472.51	3978.61
472.882	4070.59
473.253	4138.38
473.625	4165.5
473.997	4237.81
474.369	4253.86
474.74	4330.69
475.112	4381.09
475.484	4433.06
475.855	4523
476.227	4576.11
476.598	4674.41
476.97	4728.19
477.341	4838.93
477.713	4880.28
478.084	4934.74
478.455	5027.62
478.827	5118.69
479.198	5227.39
479.569	5236.43
479.94	5358.46
480.311	5389.87
480.682	5544.44
481.053	5705.57
481.424	5790.31
481.795	5798.9
482.166	5900.37
482.537	5966.58
482.908	6076.41
483.279	6166.58
483.65	6324.99
484.021	6408.6
484.391	6478.66
484.762	6559.33
485.133	6586
485.503	6694.7
485.874	6863.28
486.244	6944.41
486.615	7108.7
486.985	7159.32
487.356	7281.8
487.726	7385.07
488.097	7503.72
488.467	7587.33
488.837	7769.02
489.207	7783.71
489.578	7967.21
489.948	8062.57
490.318	8151.61
490.688	8164.26
491.058	8316.58
491.428	8472.5
491.798	8499.62
492.168	8639.73
492.538	8761.08
492.908	8858.26
493.278	8935.54
493.648	8990.46
494.017	9181.41
494.387	9220.05
494.757	9279.26
495.126	9408.07
495.496	9408.3
495.866	9561.51
496.235	9572.14
496.605	9704.11
496.974	9815.97
497.344	9908.62
497.713	9992.69
498.082	9998.11
498.452	10147.04
498.821	10185.9
499.19	10214.38
499.559	10269.97
499.928	10429.06
500.298	10394.71
500.667	10528.72
501.036	10587.02
501.405	10633.12
501.774	10623.18
502.143	10641.03
502.512	10907.02
502.88	10948.37
503.249	10932.33
503.618	11035.83
503.987	11073.79
504.356	11134.13
504.724	11180
505.093	11215.93
505.462	11278.08
505.83	11385.65
506.199	11454.57
506.567	11615.25
506.936	11560.56
507.304	11696.15
507.672	11756.03
508.041	11786.31
508.409	11928.68
508.777	12022.92
509.145	12149.92
509.514	12167.1
509.882	12228.34
510.25	12291.39
510.618	12385.62
510.986	12471.72
511.354	12492.06
511.722	12691.15
512.09	12741.54
512.458	12733.86
512.826	12786.51
513.193	12906.06
513.561	12974.31
513.929	13043.68
514.297	13243
514.664	13297.69
515.032	13349.66
515.4	13461.52
515.767	13529.77
516.135	13477.8
516.502	13573.61
516.869	13814.96
517.237	13925.69
517.604	13824
517.972	14092.02
518.339	14154.61
518.706	14219.92
519.073	14254.72
519.44	14360.26
519.808	14615.17
520.175	14519.35
520.542	14819
520.909	14795.5
521.276	14918.44
521.643	15092.44
522.009	15235.26
522.376	15262.16
522.743	15455.6
523.11	15595.48
523.477	15714.12
523.843	15867.79
524.21	16063.49
524.577	16193.43
524.943	16238.63
525.31	16406.76
525.676	16567.21
526.043	16684.72
526.409	16829.57
526.776	16993.41
527.142	17065.72
527.508	17150.24
527.874	17340.29
528.241	17498.93
528.607	17551.59
528.973	17843.1
529.339	17849.88
529.705	17954.29
530.071	18214.62
530.437	18262.3
530.803	18388.85
531.169	18483.99
531.535	18540.04
531.901	18639.92
532.267	18832.68
532.632	18966.92
532.998	19052.79
533.364	19108.38
533.73	19302.5
534.095	19442.16
534.461	19444.64
534.826	19655.94
535.192	19640.12
535.557	19834.69
535.923	19809.38
536.288	19894.35
536.653	19964.18
537.019	20083.27
537.384	20218.86
537.749	20359.2
538.114	20330.72
538.479	20390.61
538.845	20484.16
539.21	20367.33
539.575	20657.27
539.94	20612.97
540.305	20795.57
540.67	20847.09
541.034	20908.11
541.399	20977.03
541.764	21114.66
542.129	21135.9
542.494	21212.06
542.858	21340.41
543.223	21239.17
543.587	21508.54
543.952	21537.7
544.316	21619.5
544.681	21577.92
545.045	21692.49
545.41	21849.78
545.774	21770.68
546.138	21912.83
546.503	21926.61
546.867	21999.61
547.231	22241.18
547.595	22246.6
547.959	22343.78
548.324	22335.87
548.688	22370.44
549.052	22502.87
549.416	22466.49
549.779	22552.13
550.143	22634.39
550.507	22796.65
550.871	22900.82
551.235	22848.4
551.599	23113.93
551.962	23079.35
552.326	23215.39
552.689	23286.35
553.053	23154.83
553.417	23377.2
553.78	23736.06
554.143	23652.9
554.507	23855.15
554.87	23842.27
555.234	23996.39
555.597	23981.7
555.96	24172.2
556.323	24323.61
556.686	24357.28
557.05	24505.98
557.413	24480.67
557.776	24700.33
558.139	24879.76
558.502	24912.97
558.865	25029.58
559.228	25253.3
559.59	25234.1
559.953	25256.24
560.316	25691.94
560.679	25707.53
561.041	25953.63
561.404	26083.79
561.767	26214.86
562.129	26265.03
562.492	26568.07
562.854	26571.01
563.217	26689.88
563.579	26797.9
563.941	27126.48
564.304	27234.04
564.666	27537.31
565.028	27597.2
565.39	27710.64
565.753	28014.14
566.115	28016.85
566.477	28372.77
566.839	28609.6
567.201	28806.21
567.563	28843.27
567.925	29170.49
568.287	29302.01
568.648	29526.19
569.01	29674.21
569.372	30087.3
569.734	30016.57
570.095	30345.83
570.457	30730.22
570.819	30654.97
571.18	30827.17
571.542	31110.33
571.903	31327.04
572.265	31473.48
572.626	31751.89
572.987	31870.53
573.349	32134.93
573.71	32229.62
574.071	32479.33
574.432	32875.48
574.794	33079.54
575.155	33117.05
575.516	33146.66
575.877	33379.42
576.238	33361.79
576.599	33653.31
576.96	33785.96
577.32	33910.7
577.681	34149.12
578.042	34472.27
578.403	34381.2
578.763	34491.48
579.124	34579.84
579.485	34909.77
579.845	35009.66
580.206	35050.79
580.566	35229.54
580.927	35305.47
581.287	35389.54
581.648	35470.66
582.008	35659.13
582.368	35777.32
582.728	35803.54
583.089	35897.77
583.449	35849.41
583.809	35975.28
584.169	36048.95
584.529	36204.2
584.889	36475.16
585.249	36382.05
585.609	36335.73
585.969	36639.67
586.329	36329.85
586.688	36667.24
587.048	36856.39
587.408	36838.09
587.768	36901.81
588.127	37010.51
588.487	37114.24
588.846	37525.98
589.206	37235.36
589.565	37397.17
589.925	37823.37
590.284	37656.82
590.643	37686.42
591.003	37983.14
591.362	38281.66
591.721	38328.44
592.08	38418.61
592.44	38629.9
592.799	38644.37
593.158	38767.3
593.517	38821.08
593.876	39147.85
594.235	39105.14
594.593	39186.05
594.952	39445.47
595.311	39561.63
595.67	39650.44
596.029	40037.77
596.387	40130.88
596.746	40287.71
597.104	40174.49
597.463	40318.9
597.822	40693.12
598.18	40499.91
598.538	40625.33
598.897	41066.67
599.255	40797.75
599.613	41428.25
599.972	41398.87
600.33	41400.22
600.688	41552.31
601.046	41590.05
601.404	41984.84
601.762	41984.84
602.12	42221.45
602.478	42286.08
602.836	42437.49
603.194	42253.76
603.552	42597.93
603.91	42682.9
604.268	42744.82
604.625	43000.41
604.983	43182.33
605.341	43064.59
605.698	43377.8
606.056	43642.2
606.413	43596.55
606.771	43852.59
607.128	43871.35
607.485	43769.43
607.843	43899.37
608.2	44216.2
608.557	44262.97
608.914	44252.35
609.272	44425.68
609.629	44632.91
609.986	44887.36
610.343	44862.28
610.7	45106.79
611.057	45117.64
611.414	45128.26
611.771	45384.53
612.127	45479.21
612.484	45434.92
612.841	45732.54
613.198	45533.45
613.554	45681.02
613.911	45884.17
614.267	46045.3
614.624	45994.91
614.98	46084.17
615.337	46310.83
615.693	46169.82
616.05	46208.01
616.406	46688.45
616.762	46321.45
617.118	46560.32
617.475	46460.88
617.831	46742.23
618.187	46817.26
618.543	46768.22
618.899	47134.76
619.255	46933.64
619.611	46921.89
619.967	47124.14
620.323	47200.75
620.678	47222.67
621.034	47168.89
621.39	47338.6
621.746	47179.06
622.101	47699.72
622.457	47189
622.812	47542.89
623.168	47520.74
623.523	47540.4
623.879	47730.68
624.234	47497.69
624.589	47565.03
624.945	47594.41
625.3	47716.44
625.655	47864.91
626.01	47752.6
626.365	47756.89
626.72	47686.16
627.075	47694.75
627.43	47592.83
627.785	47660.4
628.14	47689.1
628.495	47740.4
628.85	47783.56
629.205	47632.15
629.559	47812.71
629.914	47693.39
630.269	47728.87
630.623	47517.8
630.978	47541.31
631.332	47610.23
631.687	47616.11
632.041	47377.69
632.396	47506.73
632.75	47513.06
633.104	47577.01
633.459	47290.69
633.813	47239.39
634.167	47325.49
634.521	47367.98
634.875	47195.1
635.229	47108.32
635.583	46941.1
635.937	46855.9
636.291	46983.36
636.645	46950.36
636.999	46805.51
637.352	46910.36
637.706	46666.98
638.06	46922.57
638.413	46632.18
638.767	46549.47
639.121	46690.93
639.474	46512.86
639.828	46345.41
640.181	46395.12
640.534	46354.9
640.888	46164.62
641.241	46080.55
641.594	46148.57
641.947	46246.65
642.301	46194.45
642.654	46208.01
643.007	46137.28
643.36	46288.23
643.713	46002.59
644.066	46088.01
644.419	45914.46
644.771	45544.3
645.124	45096.85
645.477	45064.99
645.83	44894.6
646.182	44930.53
646.535	44895.05
646.888	44908.38
647.24	44822.73
647.593	45057.08
647.945	44788.16
648.298	44665.68
648.65	44420.48
649.002	44277.21
649.355	44247.61
649.707	44114.28
650.059	44101.4
650.411	44586.13
650.763	44834.48
651.115	45534.35
651.467	45312.89
651.819	45307.24
652.171	45300.91
652.523	45126
652.875	45224.53
653.227	44964.88
653.578	45334.58
653.93	45266.11
654.282	45049.62
654.633	44921.49
654.985	45096.4
655.337	44986.57
655.688	45041.49
656.039	45105.44
656.391	44615.51
656.742	44977.98
657.094	44854.37
657.445	44917.87
657.796	44955.61
658.147	44781.61
658.498	44880.36
658.849	44970.75
659.2	44840.81
659.551	44857.99
659.902	45063.86
660.253	44939.11
660.604	45011.2
660.955	44828.84
661.306	44944.54
661.656	44853.02
662.007	44985.67
662.358	45002.16
662.708	45064.31
663.059	44924.2
663.409	44798.1
663.76	45057.3
664.11	45007.59
664.461	45010.98
664.811	45103.63
665.161	45007.14
665.511	44813.92
665.862	44941.15
666.212	44947.02
666.562	45069.28
666.912	44998.55
667.262	44939.57
667.612	44845.78
667.962	45011.88
668.312	44920.81
668.662	45139.11
669.011	44971.88
669.361	44875.61
669.711	45008.04
670.06	44958.1
670.41	44864.09
670.76	44672.68
671.109	44926.46
671.459	44865.9
671.808	44864.54
672.157	44709.74
672.507	44589.29
672.856	44668.61
673.205	44683.53
673.554	44803.98
673.904	44627.94
674.253	44917.65
674.602	44626.13
674.951	44044.22
675.3	43883.78
675.649	44651.21
675.998	44614.6
676.346	44547.03
676.695	44702.74
677.044	44379.36
677.393	44488.28
677.741	44527.83
678.09	44396.3
678.438	44336.87
678.787	44429.07
679.135	44293.48
679.484	44080.83
679.832	44030.21
680.181	44123.54
680.529	44165.8
680.877	43813.04
681.225	43844.68
681.573	44298.91
681.922	43868.18
682.27	43792.03
682.618	43723.33
682.966	43615.76
683.314	43682.65
683.661	43502.54
684.009	43472.03
684.357	43323.56
684.705	43269.55
685.053	43218.26
685.4	43133.29
685.748	43030.01
686.095	42967.42
686.443	42790.92
686.79	42630.02
687.138	42782.34
687.485	42802.67
687.832	42522.23
688.18	42572.4
688.527	42269.81
688.874	42360.43
689.221	42255.34
689.568	41963.6
689.915	41885.18
690.262	41829.14
690.609	41709.37
690.956	41728.58
691.303	41754.11
691.65	41329.94
691.997	41437.74
692.344	41102.38
692.69	41220.79
693.037	41232.32
693.383	40815.61
693.73	41037.07
694.077	40661.71
694.423	40654.26
694.769	40540.13
695.116	40499.68
695.462	40243.65
695.808	40101.73
696.155	40131.33
696.501	39790.55
696.847	39813.83
697.193	39419.71
697.539	39666.49
697.885	39246.84
698.231	39158.48
698.577	39115.99
698.923	39104.01
699.269	38750.35
699.614	38777.47
699.96	38511.04
700.306	38529.34
700.651	38343.13
700.997	38287.54
701.342	38064.72
701.688	37942.24
702.033	37907.21
702.379	37776.37
702.724	37563.04
703.069	37664.28
703.415	37287.11
703.76	37170.51
704.105	37289.6
704.45	37047.12
704.795	37021.58
705.14	36642.84
705.485	36785.21
705.83	36527.81
706.175	36745.21
706.52	36425.21
706.865	36258.89
707.209	36149.52
707.554	36038.78
707.899	36083.53
708.243	35814.16
708.588	35826.13
708.932	35625.24
709.277	35687.61
709.621	35489.87
709.966	35257.34
710.31	35433.15
710.654	35187.51
710.998	35148.19
711.342	35082.2
711.687	35009.66
712.031	35004.69
712.375	34707.52
712.719	34780.96
713.063	34627.52
713.407	34891.02
713.75	34804.69
714.094	34537.13
714.438	34455.55
714.782	34475.44
715.125	34340.75
715.469	34495.32
715.812	34137.82
716.156	34087.87
716.499	34186.18
716.843	34208.78
717.186	33995.9
717.53	34231.83
717.873	34084.94
718.216	33844.49
718.559	33754.32
718.902	33500.32
719.246	33567.66
719.589	33588
719.932	33455.35
720.275	33529.02
720.617	33522.92
720.96	33403.83
721.303	33402.7
721.646	33415.12
721.989	33286.54
722.331	33399.08
722.674	33226.43
723.016	33283.15
723.359	33076.6
723.701	33188.92
724.044	33002.93
724.386	32870.05
724.729	33081.8
725.071	33028.69
725.413	32981.24
725.755	32922.03
726.097	32776.72
726.439	32731.07
726.782	32634.81
727.124	32952.31
727.465	32672.77
727.807	32709.38
728.149	32668.93
728.491	32727.68
728.833	32661.02
729.175	32524.53
729.516	32557.97
729.858	32546.9
730.199	32704.41
730.541	32528.59
730.882	32518.2
731.224	32630.96
731.565	32500.35
731.906	32529.27
732.248	32505.77
732.589	32164.99
732.93	32371.08
733.271	32356.85
733.612	32428.26
733.953	32593.68
734.294	32354.14
734.635	32285.89
734.976	32452.44
735.317	32216.06
735.658	32215.61
735.999	32191.43
736.339	32309.62
736.68	32369.05
737.021	32457.64
737.361	32214.03
737.702	32555.94
738.042	32285.66
738.383	32375.83
738.723	32575.15
739.063	32275.49
739.404	32544.41
739.744	32408.15
740.084	32369.73
740.424	32485.43
740.764	32459.44
741.104	32667.35
741.444	32470.29
741.784	32359.33
742.124	32413.12
742.464	32513.23
742.804	32516.39
743.143	32440.46
743.483	32675.93
743.823	32576.28
744.162	32605.88
744.502	32625.09
744.841	32618.08
745.181	32904.18
745.52	32627.57
745.86	32776.95
746.199	32716.61
746.538	32750.06
746.877	33007.45
747.216	33000.45
747.556	32952.09
747.895	33104.4
748.234	33056.49
748.573	32962.48
748.911	33093.55
749.25	32984.63
749.589	33004.51
749.928	33219.42
750.267	33248.57
750.605	33113.89
750.944	33318.4
751.283	33324.05
751.621	33428.23
751.96	33307.33
752.298	33427.1
752.636	33639.75
752.975	33553.2
753.313	33470.49
753.651	33763.59
753.989	33594.1
754.327	33660.09
754.666	33539.87
755.004	33679.07
