Data from 19-2025_FLMS001491_008.txt Node
Date: Thu Apr 19 16:34:56 BST 2018
User: hsy
Spectrometer: FLMS00149
Trigger mode: 0
Integration Time (sec): 1.000000E-2
Scans to average: 10
Electric dark correction enabled: true
Nonlinearity correction enabled: false
Boxcar width: 0
XAxis mode: Wavelengths
Number of Pixels in Spectrum: 2048
>>>>>Begin Spectral Data<<<<<
341.393	-11.29
341.776	-11.29
342.16	-11.29
342.543	-38.85
342.927	-63.71
343.31	-64.62
343.693	-84.5
344.077	-71.17
344.46	-63.04
344.843	-43.6
345.226	-33.66
345.61	-26.65
345.993	3.4
346.376	10.86
346.759	-0.21
347.142	23.29
347.525	41.59
347.908	61.03
348.291	59.9
348.674	91.09
349.057	96.28
349.44	122.5
349.823	136.73
350.206	153.91
350.588	197.98
350.971	256.05
351.354	272.55
351.737	243.17
352.119	273.23
352.502	278.42
352.884	322.72
353.267	314.58
353.65	327.46
354.032	326.33
354.414	360.46
354.797	327.69
355.179	339.89
355.562	353.23
355.944	376.73
356.326	366.56
356.709	387.57
357.091	365.65
357.473	383.05
357.855	387.35
358.238	385.31
358.62	376.5
359.002	381.25
359.384	396.16
359.766	381.47
360.148	382.15
360.53	374.92
360.912	386.22
361.294	377.63
361.676	376.05
362.057	391.87
362.439	348.71
362.821	379.67
363.203	355.71
363.584	370.85
363.966	364.98
364.348	380.12
364.729	372.66
365.111	359.55
365.493	365.2
365.874	365.2
366.256	348.48
366.637	363.85
367.019	385.54
367.4	354.81
367.781	377.18
368.163	368.59
368.544	364.98
368.925	383.51
369.306	360.68
369.688	383.51
370.069	370.17
370.45	371.98
370.831	358.65
371.212	385.31
371.593	388.48
371.974	375.37
372.355	362.94
372.736	405.65
373.117	384.41
373.498	357.29
373.879	393.45
374.26	390.96
374.641	365.65
375.021	395.26
375.402	397.52
375.783	382.6
376.163	402.26
376.544	416.73
376.925	386.44
377.305	399.78
377.686	389.16
378.066	425.99
378.447	413.56
378.827	404.75
379.208	419.21
379.588	417.63
379.968	414.01
380.349	396.16
380.729	428.48
381.109	438.65
381.489	449.49
381.87	415.37
382.25	414.69
382.63	421.7
383.01	431.64
383.39	431.87
383.77	451.08
384.15	450.17
384.53	449.72
384.91	442.94
385.29	447.01
385.67	463.73
386.049	445.88
386.429	439.32
386.809	454.24
387.189	460.12
387.568	458.08
387.948	482.04
388.328	461.02
388.707	499.21
389.087	461.7
389.466	488.59
389.846	501.47
390.225	483.39
390.605	487.91
390.984	516.16
391.363	515.48
391.743	523.62
392.122	512.77
392.501	529.94
392.881	513.9
393.26	542.15
393.639	524.07
394.018	524.97
394.397	530.62
394.776	535.82
395.155	557.06
395.534	550.51
395.913	549.15
396.292	549.6
396.671	554.35
397.05	548.47
397.429	559.32
397.808	559.32
398.186	553.9
398.565	574.69
398.944	565.87
399.323	580.34
399.701	586.44
400.08	590.96
400.458	588.02
400.837	608.13
401.215	611.98
401.594	614.91
401.972	611.3
402.351	639.55
402.729	640
403.107	642.94
403.486	628.47
403.864	632.99
404.242	625.08
404.62	641.81
404.999	667.12
405.377	658.08
405.755	673.89
406.133	702.59
406.511	669.15
406.889	698.98
407.267	690.62
407.645	712.76
408.023	702.14
408.401	709.15
408.779	720.67
409.156	722.03
409.534	723.16
409.912	735.36
410.29	737.85
410.667	762.25
411.045	792.31
411.422	768.58
411.8	794.12
412.178	800.45
412.555	810.39
412.933	823.95
413.31	829.37
413.687	860.33
414.065	849.94
414.442	837.96
414.819	868.69
415.197	870.05
415.574	847
415.951	884.51
416.328	871.18
416.705	894.68
417.082	903.95
417.46	910.05
417.837	908.69
418.214	931.06
418.591	926.32
418.967	933.32
419.344	925.41
419.721	942.59
420.098	954.11
420.475	962.93
420.852	988.91
421.228	1009.48
421.605	970.61
421.982	988.01
422.358	1054.9
422.735	989.59
423.111	1023.72
423.488	1031.85
423.864	1062.81
424.241	1057.84
424.617	1057.61
424.994	1063.04
425.37	1088.57
425.746	1065.07
426.123	1096.71
426.499	1114.34
426.875	1121.57
427.251	1143.49
427.627	1151.17
428.003	1153.66
428.379	1194.78
428.756	1171.73
429.132	1222.58
429.507	1203.15
429.883	1215.12
430.259	1240.43
430.635	1285.4
431.011	1252.64
431.387	1297.38
431.763	1311.84
432.138	1328.57
432.514	1340.54
432.89	1352.07
433.265	1383.48
433.641	1387.77
434.016	1422.35
434.392	1460.77
434.767	1457.38
435.143	1439.75
435.518	1497.38
435.894	1480.2
436.269	1489.01
436.644	1505.51
437.02	1539.41
437.395	1558.39
437.77	1568.79
438.145	1567.2
438.52	1575.57
438.895	1603.36
439.271	1611.5
439.646	1640.42
440.021	1625.73
440.395	1679.74
440.77	1627.09
441.145	1664.83
441.52	1723.36
441.895	1682.68
442.27	1727.43
442.645	1706.41
443.019	1707.31
443.394	1729.69
443.769	1766.07
444.143	1773.53
444.518	1804.94
444.892	1751.61
445.267	1776.46
445.641	1794.77
446.016	1796.8
446.39	1830.02
446.764	1841.55
447.139	1848.55
447.513	1847.88
447.887	1836.8
448.262	1883.81
448.636	1870.47
449.01	1916.35
449.384	1945.73
449.758	1919.96
450.132	1962.67
450.506	1982.79
450.88	1985.5
451.254	1982.79
451.628	2030.47
452.002	2040.41
452.376	2039.73
452.75	2046.51
453.123	2088.32
453.497	2144.14
453.871	2170.8
454.244	2209.9
454.618	2177.13
454.992	2232.27
455.365	2252.61
455.739	2280.18
456.112	2298.26
456.486	2354.98
456.859	2351.36
457.232	2390.69
457.606	2371.25
457.979	2441.53
458.352	2473.17
458.725	2493.73
459.099	2508.2
459.472	2521.08
459.845	2572.6
460.218	2618.7
460.591	2650.11
460.964	2643.11
461.337	2689.89
461.71	2721.52
462.083	2762.65
462.456	2746.83
462.829	2781.64
463.201	2834.52
463.574	2832.03
463.947	2873.84
464.32	2889.66
464.692	2935.98
465.065	2972.14
465.438	2995.19
465.81	3040.61
466.183	3073.38
466.555	3126.26
466.928	3127.39
467.3	3142.53
467.672	3202.87
468.045	3246.03
468.417	3246.48
468.789	3274.05
469.161	3328.06
469.534	3346.82
469.906	3435.63
470.278	3454.39
470.65	3463.65
471.022	3557.66
471.394	3619.13
471.766	3631.11
472.138	3702.29
472.51	3735.74
472.882	3789.52
473.253	3825.9
473.625	3856.18
473.997	3955.62
474.369	4001.94
474.74	4015.95
475.112	4064.31
475.484	4122.62
475.855	4190.64
476.227	4248.04
476.598	4352.22
476.97	4358.32
477.341	4439.67
477.713	4565.54
478.084	4568.93
478.455	4736.16
478.827	4645.77
479.198	4852.09
479.569	4916.95
479.94	5007.34
480.311	5061.35
480.682	5175.7
481.053	5288.91
481.424	5340.44
481.795	5429.48
482.166	5501.34
482.537	5529.36
482.908	5697.49
483.279	5764.38
483.65	5838.73
484.021	5981.78
484.391	5999.4
484.762	6078.72
485.133	6124.37
485.503	6294.76
485.874	6375.67
486.244	6466.51
486.615	6563.23
486.985	6622.21
487.356	6723.91
487.726	6783.79
488.097	6976.78
488.467	7007.06
488.837	7156.44
489.207	7234.4
489.578	7337.67
489.948	7367.5
490.318	7542.19
490.688	7522.75
491.058	7737.44
491.428	7841.39
491.798	7863.76
492.168	8028.05
492.538	8069.18
492.908	8183.08
493.278	8343.75
493.648	8353.69
494.017	8362.51
494.387	8555.5
494.757	8576.29
495.126	8713.46
495.496	8763.63
495.866	8861.48
496.235	8943.06
496.605	9033.45
496.974	9043.39
497.344	9165.2
497.713	9265.31
498.082	9218.98
498.452	9382.14
498.821	9460.56
499.19	9416.26
499.559	9439.54
499.928	9574.9
500.298	9629.37
500.667	9798.4
501.036	9723.15
501.405	9874.1
501.774	9835.24
502.143	10011.28
502.512	9974.44
502.88	10159.3
503.249	10166.07
503.618	10212.63
503.987	10219.18
504.356	10314.55
504.724	10437.03
505.093	10419.63
505.462	10474.77
505.83	10545.95
506.199	10668.21
506.567	10762.89
506.936	10843.8
507.304	10960.63
507.672	10928.31
508.041	11019.61
508.409	11090.34
508.777	11189.55
509.145	11252.83
509.514	11267.06
509.882	11326.72
510.25	11411.24
510.618	11437.68
510.986	11566.49
511.354	11655.3
511.722	11794.28
512.09	11845.58
512.458	11818.01
512.826	11956.31
513.193	11999.7
513.561	12020.04
513.929	12175.74
514.297	12246.25
514.664	12415.05
515.032	12421.16
515.4	12483.98
515.767	12608.27
516.135	12652.56
516.502	12583.41
516.869	12826.12
517.237	12938.21
517.604	12887.58
517.972	13111.53
518.339	13146.79
518.706	13271.08
519.073	13288.25
519.44	13478.76
519.808	13588.13
520.175	13575.25
520.542	13813.66
520.909	13930.5
521.276	13937.05
521.643	14109.7
522.009	14227.44
522.376	14294.78
522.743	14367.77
523.11	14614.55
523.477	14770.93
523.843	14834.88
524.21	15075.1
524.577	15122.55
524.943	15300.63
525.31	15356.22
525.676	15516.67
526.043	15614.97
526.409	15680.05
526.776	15902.87
527.142	16072.13
527.508	16118.01
527.874	16327.72
528.241	16401.62
528.607	16469.41
528.973	16698.33
529.339	16696.52
529.705	16932.68
530.071	17045.22
530.437	17213.12
530.803	17199.34
531.169	17412.89
531.535	17446.79
531.901	17523.17
532.267	17705.09
532.632	17815.36
532.998	17874.35
533.364	18066.21
533.73	17992.99
534.095	18282.02
534.461	18330.38
534.826	18404.5
535.192	18502.58
535.557	18690.82
535.923	18670.03
536.288	18808.79
536.653	18915.22
537.019	18949.8
537.384	19127.19
537.749	19162.22
538.114	19203.13
538.479	19231.82
538.845	19297.81
539.21	19296.68
539.575	19495.32
539.94	19547.97
540.305	19746.39
540.67	19670.46
541.034	19749.78
541.399	19852.37
541.764	19896.21
542.129	20013.27
542.494	19981.86
542.858	20204.23
543.223	20066.61
543.587	20270.67
543.952	20311.34
544.316	20419.36
544.681	20418.91
545.045	20659.58
545.41	20674.72
545.774	20688.74
546.138	20727.15
546.503	20794.04
546.867	20794.27
547.231	21017.54
547.595	21052.79
547.959	21062.06
548.324	21089.4
548.688	21250.08
549.052	21236.07
549.416	21354.48
549.779	21442.16
550.143	21523.74
550.507	21608.03
550.871	21649.16
551.235	21763.74
551.599	21981.13
551.962	21867.69
552.326	22018.87
552.689	22154.23
553.053	22074.46
553.417	22236.49
553.78	22337.28
554.143	22443.72
554.507	22529.37
554.87	22572.53
555.234	22865.4
555.597	22752.41
555.96	22916.02
556.323	23060.88
556.686	23008.22
557.05	23224.04
557.413	23442.11
557.776	23452.73
558.139	23633.74
558.502	23711.26
558.865	23810.69
559.228	24023.56
559.59	24097.01
559.953	24085.71
560.316	24355.08
560.679	24386.94
561.041	24621.29
561.404	24774.5
561.767	25050.88
562.129	24923.88
562.492	25268.73
562.854	25369.74
563.217	25432.79
563.579	25626.46
563.941	25758.21
564.304	25974.02
564.666	26209.72
565.028	26266.89
565.39	26371.75
565.753	26670.95
566.115	26675.47
566.477	26918.18
566.839	27053.54
567.201	27426.64
567.563	27428.9
567.925	27723.58
568.287	27840.19
568.648	27983.01
569.01	28173.51
569.372	28415.76
569.734	28535.54
570.095	28772.14
570.457	29018.91
570.819	29114.73
571.18	29241.96
571.542	29509.75
571.903	29663.87
572.265	29840.13
572.626	30069.28
572.987	30200.8
573.349	30423.85
573.71	30622.94
574.071	30947.22
574.432	31000.1
574.794	31260.21
575.155	31395.57
575.516	31427.21
575.877	31703.14
576.238	31770.25
576.599	31911.27
576.96	32033.97
577.32	32213.4
577.681	32350.8
578.042	32617.01
578.403	32695.65
578.763	32804.58
579.124	32865.14
579.485	33110.78
579.845	33254.51
580.206	33148.52
580.566	33356.65
580.927	33290.66
581.287	33692.69
581.648	33513.03
582.008	33801.16
582.368	33783.31
582.728	33990.76
583.089	34033.24
583.449	33979.91
583.809	34120.47
584.169	34219
584.529	34279.56
584.889	34550.29
585.249	34405.89
585.609	34386.91
585.969	34565.66
586.329	34677.29
586.688	34812.88
587.048	34717.07
587.408	35081.13
587.768	35089.71
588.127	35092.2
588.487	35161.35
588.846	35562.24
589.206	35344.4
589.565	35539.64
589.925	35900.54
590.284	35811.5
590.643	35825.29
591.003	35931.72
591.362	36251.94
591.721	36227.99
592.08	36434.54
592.44	36653.29
592.799	36744.58
593.158	36622.78
593.517	36802.21
593.876	37040.17
594.235	37135.31
594.593	37312.93
594.952	37301.41
595.311	37448.97
595.67	37625.24
596.029	37870.43
596.387	37924.44
596.746	38169.41
597.104	38106.81
597.463	38251.89
597.822	38651.2
598.18	38467.7
598.538	38729.17
598.897	38981.36
599.255	38922.38
599.613	39416.15
599.972	39328.7
600.33	39347
600.688	39455.47
601.046	39636.03
601.404	40067.66
601.762	39858.63
602.12	40108.56
602.478	40261.78
602.836	40423.58
603.194	40280.76
603.552	40536.58
603.91	40520.3
604.268	40899.96
604.625	40817.25
604.983	41179.27
605.341	40980.63
605.698	41387.17
606.056	41615.64
606.413	41447.74
606.771	41734.06
607.128	41720.73
607.485	41650.67
607.843	41795.53
608.2	42194.61
608.557	42293.37
608.914	42226.93
609.272	42502.4
609.629	42762.51
609.986	42770.41
610.343	42776.29
610.7	43066.68
611.057	43068.94
611.414	43205.43
611.771	43397.97
612.127	43324.3
612.484	43491.53
612.841	43656.04
613.198	43668.47
613.554	43733.33
613.911	43978.52
614.267	43947.33
614.624	44015.58
614.98	44157.5
615.337	44407.21
615.693	44252.18
616.05	44337.38
616.406	44680.2
616.762	44559.29
617.118	44771.94
617.475	44661.66
617.831	44830.93
618.187	44850.13
618.543	44962.67
618.899	45292.38
619.255	45163.57
619.611	45105.04
619.967	45274.53
620.323	45466.62
620.678	45142.1
621.034	45176.23
621.39	45135.32
621.746	45281.08
622.101	45756.33
622.457	45442.89
622.812	45610.34
623.168	45639.94
623.523	45613.28
623.879	45814.63
624.234	45648.31
624.589	45730.34
624.945	45875.42
625.3	45891.91
625.655	45924.46
626.01	45995.41
626.365	45910.45
626.72	45837.68
627.075	45831.13
627.43	45900.95
627.785	45992.93
628.14	45860.5
628.495	45996.32
628.85	45914.29
629.205	45801.52
629.559	45970.33
629.914	45822.09
630.269	45892.59
630.623	45595.2
630.978	45557.69
631.332	45838.13
631.687	45734.18
632.041	45561.3
632.396	45673.16
632.75	45606.95
633.104	45654.63
633.459	45466.84
633.813	45408.99
634.167	45461.64
634.521	45420.06
634.875	45462.32
635.229	45251.93
635.583	45197.92
635.937	45176.91
636.291	45094.65
636.645	45259.62
636.999	44944.37
637.352	44914.99
637.706	44822.11
638.06	44882.9
638.413	44858.72
638.767	44581.67
639.121	44683.13
639.474	44675
639.828	44730.36
640.181	44516.58
640.534	44638.39
640.888	44443.14
641.241	44197.72
641.594	44280.66
641.947	44485.85
642.301	44204.95
642.654	44381.9
643.007	44215.57
643.36	44341.45
643.713	44054.9
644.066	44283.37
644.419	43893.55
644.771	43477.74
645.124	43345.77
645.477	43199.56
645.83	43061.25
646.182	43085.43
646.535	43041.82
646.888	43145.32
647.24	42995.49
647.593	43239.33
647.945	43131.54
648.298	42838.89
648.65	42559.8
649.002	42378.56
649.355	42326.58
649.707	42069.42
650.059	42184.44
650.411	42690.64
650.763	43155.26
651.115	43613.1
651.467	43423.51
651.819	43437.74
652.171	43400.23
652.523	43148.03
652.875	43292.89
653.227	43184.42
653.578	43508.47
653.93	43190.52
654.282	43183.29
654.633	42973.57
654.985	43141.7
655.337	43233
655.688	43144.19
656.039	43347.12
656.391	42954.36
656.742	43112.78
657.094	43216.96
657.445	43052.67
657.796	43207.47
658.147	43108.03
658.498	43076.4
658.849	43068.49
659.2	43044.31
659.551	42975.83
659.902	43223.06
660.253	42974.25
660.604	43167.69
660.955	42873.01
661.306	43257.18
661.656	42898.77
662.007	43042.95
662.358	43237.3
662.708	43043.63
663.059	43081.14
663.409	42856.29
663.76	43112.1
664.11	43018.54
664.461	43164.53
664.811	43170.63
665.161	42920.92
665.511	43023.97
665.862	43079.33
666.212	43145.09
666.562	43095.38
666.912	43166.56
667.262	43061.93
667.612	43086.11
667.962	43087.47
668.312	42959.34
668.662	43170.86
669.011	43092.89
669.361	43096.96
669.711	43193.23
670.06	42958.66
670.41	42888.83
670.76	42891.09
671.109	43089.73
671.459	43034.36
671.808	43044.31
672.157	43085.66
672.507	42901.03
672.856	42729.51
673.205	42774.26
673.554	42805.89
673.904	42669.85
674.253	43024.19
674.602	42804.99
674.951	42209.75
675.3	42043.2
675.649	42740.36
675.998	42748.49
676.346	42715.73
676.695	42743.52
677.044	42460.82
677.393	42598.67
677.741	42686.12
678.09	42599.57
678.438	42618.55
678.787	42612.45
679.135	42543.3
679.484	42284.33
679.832	42397.77
680.181	42219.69
680.529	42343.76
680.877	42061.51
681.225	42147.15
681.573	42428.96
681.922	42175.4
682.27	42053.82
682.618	41994.16
682.966	41866.94
683.314	41892.47
683.661	41906.93
684.009	41663.78
684.357	41589.2
684.705	41343.56
685.053	41456.33
685.4	41402.99
685.748	41266.05
686.095	41221.76
686.443	41029.67
686.79	41005.94
687.138	41101.31
687.485	40904.93
687.832	40744.93
688.18	40764.14
688.527	40632.39
688.874	40545.84
689.221	40483.47
689.568	40320.99
689.915	40218.17
690.262	40290.71
690.609	40153.99
690.956	39860.89
691.303	39958.51
691.65	39742.25
691.997	39827.44
692.344	39464.74
692.69	39374.12
693.037	39458.19
693.383	39224.75
693.73	39146.78
694.077	38921.7
694.423	38832.44
694.769	38740.69
695.116	38743.63
695.462	38596.97
695.808	38429.96
696.155	38449.4
696.501	38121.5
696.847	38232.46
697.193	37813.48
697.539	37968.51
697.885	37657.33
698.231	37597.22
698.577	37418.24
698.923	37473.61
699.269	37165.82
699.614	36970.57
699.96	36846.95
700.306	37004.69
700.651	36693.51
700.997	36641.99
701.342	36402.9
701.688	36544.36
702.033	36210.36
702.379	36299.17
702.724	36066.64
703.069	35972.63
703.415	35803.82
703.76	35755.68
704.105	35825.74
704.45	35615.57
704.795	35357.5
705.14	35284.06
705.485	35339.65
705.83	35007.46
706.175	35235.25
706.52	34914.35
706.865	34945.08
707.209	34771.08
707.554	34692.44
707.899	34735.82
708.243	34489.28
708.588	34440.24
708.932	34349.85
709.277	34350.98
709.621	34142.17
709.966	33930.42
710.31	33905.79
710.654	33739.47
710.998	33572.69
711.342	33669.86
711.687	33566.82
712.031	33420.15
712.375	33318.23
712.719	33272.36
713.063	33355.97
713.407	33348.29
713.75	33194.4
714.094	33138.35
714.438	33061.07
714.782	33053.38
715.125	32855.42
715.469	33076.88
715.812	32741.3
716.156	32645.71
716.499	32637.57
716.843	32712.6
717.186	32541.53
717.53	32664.69
717.873	32792.15
718.216	32516.9
718.559	32319.62
718.902	32141.32
719.246	32357.81
719.589	32160.07
719.932	32075.78
720.275	32090.02
720.617	32139.06
720.96	31986.52
721.303	32121.66
721.646	32134.31
721.989	31983.35
722.331	32023.8
722.674	31842.57
723.016	31786.07
723.359	31548.11
723.701	31776.58
724.044	31617.94
724.386	31592.86
724.729	31727.99
725.071	31685.73
725.413	31735.9
725.755	31554.89
726.097	31606.41
726.439	31395.57
726.782	31427.21
727.124	31529.81
727.465	31307.89
727.807	31150.38
728.149	31239.42
728.491	31180.21
728.833	31321.45
729.175	31234.9
729.516	31273.99
729.858	31170.72
730.199	31378.62
730.541	31169.36
730.882	31102.47
731.224	31143.83
731.565	31091.4
731.906	31179.08
732.248	31225.41
732.589	31120.78
732.93	30875.13
733.271	30996.49
733.612	31082.13
733.953	31132.98
734.294	30984.51
734.635	30998.52
734.976	31126.65
735.317	31041.46
735.658	31141.79
735.999	30877.39
736.339	30895.02
736.68	31053.43
737.021	31172.08
737.361	31017.05
737.702	31227.89
738.042	31073.55
738.383	31126.65
738.723	31212.3
739.063	30903.16
739.404	31075.36
739.744	31120.1
740.084	31180.44
740.424	31168.01
740.764	31067.22
741.104	31130.04
741.444	31154
741.784	30994
742.124	31152.87
742.464	31112.64
742.804	31053.89
743.143	31148.8
743.483	31192.87
743.823	31142.92
744.162	31242.13
744.502	31254.11
744.841	31209.81
745.181	31408.68
745.52	31334.56
745.86	31423.82
746.199	31457.72
746.538	31444.84
746.877	31686.41
747.216	31565.06
747.556	31543.59
747.895	31639.63
748.234	31589.01
748.573	31612.29
748.911	31510.37
749.25	31773.42
749.589	31640.31
749.928	31889.8
750.267	31940.42
750.605	31811.38
750.944	31943.13
751.283	31812.74
751.621	32027.19
751.96	31994.65
752.298	32134.99
752.636	32158.72
752.975	32051.83
753.313	32101.32
753.651	32471.02
753.989	32183.35
754.327	32270.13
754.666	32249.56
