Data from 19-2025_FLMS001491_005.txt Node
Date: Thu Apr 19 16:34:50 BST 2018
User: hsy
Spectrometer: FLMS00149
Trigger mode: 0
Integration Time (sec): 1.000000E-2
Scans to average: 10
Electric dark correction enabled: true
Nonlinearity correction enabled: false
Boxcar width: 0
XAxis mode: Wavelengths
Number of Pixels in Spectrum: 2048
>>>>>Begin Spectral Data<<<<<
341.393	-6.3
341.776	-6.3
342.16	-6.3
342.543	-56.02
342.927	-37.94
343.31	-53.08
343.693	-59.41
344.077	-82.23
344.46	-54.43
344.843	-63.25
345.226	-48.11
345.61	-43.13
345.993	-21.44
346.376	12.91
346.759	9.29
347.142	33.47
347.525	33.93
347.908	54.72
348.291	84.77
348.674	81.16
349.057	114.83
349.44	127.26
349.823	162.51
350.206	193.02
350.588	243.19
350.971	247.48
351.354	254.94
351.737	286.35
352.119	301.94
352.502	302.62
352.884	323.86
353.267	313.69
353.65	333.13
354.032	331.54
354.414	338.55
354.797	349.62
355.179	343.3
355.562	353.47
355.944	376.52
356.326	386.91
356.709	379.68
357.091	381.94
357.473	398.44
357.855	378.1
358.238	386.23
358.62	372.22
359.002	388.27
359.384	372.67
359.766	393.01
360.148	392.33
360.53	394.14
360.912	383.75
361.294	379.91
361.676	396.18
362.057	369.28
362.439	391.2
362.821	382.17
363.203	383.75
363.584	392.56
363.966	375.39
364.348	369.74
364.729	360.7
365.111	383.07
365.493	367.25
365.874	381.04
366.256	366.57
366.637	381.49
367.019	369.06
367.4	358.44
367.781	349.62
368.163	361.37
368.544	377.65
368.925	359.34
369.306	346.23
369.688	377.42
370.069	351.21
370.45	368.61
370.831	402.5
371.212	365.89
371.593	367.7
371.974	372.67
372.355	387.59
372.736	379
373.117	374.26
373.498	390.75
373.879	386.46
374.26	352.79
374.641	377.42
375.021	366.12
375.402	410.41
375.783	387.59
376.163	399.57
376.544	410.19
376.925	401.83
377.305	398.21
377.686	398.21
378.066	419.9
378.447	406.12
378.827	410.86
379.208	394.14
379.588	419.45
379.968	402.96
380.349	442.73
380.729	410.64
381.109	424.2
381.489	432.11
381.87	410.19
382.25	421.26
382.63	461.03
383.01	438.43
383.39	453.12
383.77	446.12
384.15	431.66
384.53	460.81
384.91	440.24
385.29	434.37
385.67	453.58
386.049	444.31
386.429	426.01
386.809	458.77
387.189	467.59
387.568	464.87
387.948	462.84
388.328	479.56
388.707	476.4
389.087	492.67
389.466	463.97
389.846	463.74
390.225	488.83
390.605	499
390.984	509.62
391.363	489.96
391.743	511.2
392.122	513.69
392.501	514.14
392.881	490.64
393.26	523.63
393.639	504.2
394.018	523.63
394.397	558.88
394.776	542.39
395.155	546.91
395.534	554.59
395.913	551.65
396.292	539.45
396.671	537.87
397.05	566.34
397.429	563.4
397.808	541.93
398.186	568.83
398.565	550.97
398.944	567.24
399.323	573.12
399.701	554.59
400.08	565.21
400.458	586
400.837	592.1
401.215	571.76
401.594	600.92
401.972	581.48
402.351	620.8
402.729	600.01
403.107	617.41
403.486	609.73
403.864	620.58
404.242	605.21
404.62	621.93
404.999	625.32
405.377	640.92
405.755	647.47
406.133	629.84
406.511	640.01
406.889	665.77
407.267	665.55
407.645	668.94
408.023	678.2
408.401	694.7
408.779	684.76
409.156	700.8
409.534	701.03
409.912	688.6
410.29	722.72
410.667	734.92
411.045	734.25
411.422	757.52
411.8	738.54
412.178	756.62
412.555	771.31
412.933	790.74
413.31	771.99
413.687	773.57
414.065	794.58
414.442	791.65
414.819	807.92
415.197	816.73
415.574	845.88
415.951	830.51
416.328	836.16
416.705	834.81
417.082	872.55
417.46	858.99
417.837	869.38
418.214	877.29
418.591	877.75
418.967	879.78
419.344	893.79
419.721	913.22
420.098	914.13
420.475	880.01
420.852	933.79
421.228	938.31
421.605	958.42
421.982	939.44
422.358	970.85
422.735	973.11
423.111	998.65
423.488	1009.49
423.864	989.15
424.241	1006.33
424.617	1000.45
424.994	1006.1
425.37	1004.07
425.746	1031.87
426.123	1035.48
426.499	1048.14
426.875	1072.99
427.251	1050.62
427.627	1088.36
428.003	1093.78
428.379	1104.86
428.756	1116.38
429.132	1146.21
429.507	1145.76
429.883	1138.53
430.259	1188.25
430.635	1187.12
431.011	1184.18
431.387	1202.93
431.763	1231.63
432.138	1220.34
432.514	1241.35
432.89	1297.85
433.265	1317.51
433.641	1290.62
434.016	1302.14
434.392	1345.76
434.767	1338.75
435.143	1371.97
435.518	1376.26
435.894	1391.4
436.269	1386.43
436.644	1424.4
437.02	1439.76
437.395	1445.19
437.77	1467.56
438.145	1449.71
438.52	1481.8
438.895	1501.91
439.271	1476.37
439.646	1524.06
440.021	1535.81
440.395	1547.33
440.77	1534.68
441.145	1566.09
441.52	1590.72
441.895	1592.53
442.27	1567.44
442.645	1616.71
443.019	1607.67
443.394	1596.82
443.769	1632.08
444.143	1644.28
444.518	1630.49
444.892	1638.4
445.267	1663.94
445.641	1656.71
446.016	1684.5
446.39	1699.64
446.764	1708.68
447.139	1664.39
447.513	1728.57
447.887	1727.44
448.262	1726.76
448.636	1749.81
449.01	1763.15
449.384	1802.69
449.758	1785.97
450.132	1824.39
450.506	1822.58
450.88	1850.83
451.254	1824.16
451.628	1852.86
452.002	1880.88
452.376	1880.88
452.75	1910.94
453.123	1918.4
453.497	1970.15
453.871	1973.54
454.244	2010.14
454.618	2058.51
454.992	2053.53
455.365	2080.43
455.739	2085.62
456.112	2127.88
456.486	2138.05
456.859	2180.08
457.232	2191.38
457.606	2185.96
457.979	2213.08
458.352	2271.15
458.725	2240.65
459.099	2319.52
459.472	2362
459.845	2393.86
460.218	2368.78
460.591	2409
460.964	2453.3
461.337	2441.77
461.71	2494.43
462.083	2563.12
462.456	2599.06
462.829	2574.88
463.201	2613.97
463.574	2595.21
463.947	2644.25
464.32	2664.36
464.692	2727.64
465.065	2740.07
465.438	2730.8
465.81	2773.06
466.183	2845.83
466.555	2851.93
466.928	2874.75
467.3	2888.99
467.672	2902.78
468.045	2958.82
468.417	2994.53
468.789	3009.89
469.161	3051.7
469.534	3095.09
469.906	3126.95
470.278	3171.24
470.65	3185.71
471.022	3244.01
471.394	3283.56
471.766	3316.55
472.138	3345.48
472.51	3407.4
472.882	3477.22
473.253	3487.17
473.625	3540.95
473.997	3631.57
474.369	3628.63
474.74	3663.43
475.112	3714.96
475.484	3810.55
475.855	3860.27
476.227	3875.41
476.598	3989.98
476.97	3963.99
477.341	4112.01
477.713	4143.65
478.084	4119.47
478.455	4273.81
478.827	4257.09
479.198	4426.35
479.569	4482.17
479.94	4561.72
480.311	4625.44
480.682	4698.89
481.053	4769.62
481.424	4844.19
481.795	4855.95
482.166	4961.25
482.537	5019.78
482.908	5153.57
483.279	5189.5
483.65	5282.15
484.021	5368.93
484.391	5500.67
484.762	5507.91
485.133	5588.58
485.503	5683.49
485.874	5779.54
486.244	5830.16
486.615	5938.63
486.985	6037.61
487.356	6128.91
487.726	6189.47
488.097	6335.45
488.467	6327.09
488.837	6489.35
489.207	6517.6
489.578	6662.23
489.948	6764.14
490.318	6850.24
490.688	6869
491.058	6934.54
491.428	7037.81
491.798	7130.24
492.168	7273.51
492.538	7363.9
492.908	7435.31
493.278	7566.61
493.648	7502.2
494.017	7616.78
494.387	7706.94
494.757	7775.64
495.126	7873.04
495.496	7860.84
495.866	7990.1
496.235	8089.08
496.605	8158.91
496.974	8156.2
497.344	8294.27
497.713	8285.46
498.082	8409.52
498.452	8485.45
498.821	8560.71
499.19	8552.35
499.559	8654.49
499.928	8675.28
500.298	8724.54
500.667	8822.4
501.036	8861.49
501.405	8951.66
501.774	8887.25
502.143	9052.9
502.512	9080.92
502.88	9158.43
503.249	9230.29
503.618	9235.49
503.987	9244.08
504.356	9333.79
504.724	9414.92
505.093	9415.83
505.462	9471.64
505.83	9543.05
506.199	9653.11
506.567	9701.69
506.936	9751.41
507.304	9786.66
507.672	9856.27
508.041	9931.52
508.409	10014
508.777	10108.69
509.145	10170.38
509.514	10138.52
509.882	10203.15
510.25	10272.75
510.618	10390.49
510.986	10370.15
511.354	10421.9
511.722	10538.73
512.09	10630.26
512.458	10649.92
512.826	10747.54
513.193	10758.84
513.561	10827.99
513.929	10947.99
514.297	11027.76
514.664	11120.41
515.032	11174.2
515.4	11306.4
515.767	11366.74
516.135	11357.92
516.502	11350.46
516.869	11582.1
517.237	11714.52
517.604	11664.35
517.972	11762.66
518.339	11822.54
518.706	11951.35
519.073	12070.67
519.44	12086.26
519.808	12194.28
520.175	12219.37
520.542	12354.05
520.909	12517.44
521.276	12562.86
521.643	12679.69
522.009	12908.62
522.376	12897.09
522.743	12998.78
523.11	13176.18
523.477	13246.23
523.843	13379.34
524.21	13537.75
524.577	13653.45
524.943	13635.83
525.31	13808.7
525.676	13884.41
526.043	14139.77
526.409	14158.53
526.776	14381.8
527.142	14389.25
527.508	14450.72
527.874	14740.43
528.241	14742.47
528.607	14823.59
528.973	14949.92
529.339	15018.16
529.705	15193.75
530.071	15360.08
530.437	15388.55
530.803	15516.68
531.169	15745.83
531.535	15709.9
531.901	15822.66
532.267	15831.25
532.632	16051.36
532.998	16054.75
533.364	16201.64
533.73	16263.78
534.095	16405.25
534.461	16391.69
534.826	16516.66
535.192	16667.39
535.557	16789.19
535.923	16875.52
536.288	16863.77
536.653	17061.5
537.019	16953.25
537.384	17146.47
537.749	17189.86
538.114	17354.6
538.479	17286.35
538.845	17366.8
539.21	17470.3
539.575	17486.35
539.94	17588.94
540.305	17735.83
540.67	17807.02
541.034	17801.59
541.399	17840.46
541.764	17852.89
542.129	18004.53
542.494	18157.29
542.858	18190.28
543.223	18126.33
543.587	18362.48
543.952	18339.66
544.316	18306.89
544.681	18366.1
545.045	18497.39
545.41	18596.15
545.774	18542.14
546.138	18694.9
546.503	18776.03
546.867	18819.87
547.231	19016.7
547.595	19038.62
547.959	19058.06
548.324	19162.01
548.688	19174.21
549.052	19209.47
549.416	19329.24
549.779	19274.55
550.143	19395.45
550.507	19540.98
550.871	19647.87
551.235	19666.4
551.599	19804.03
551.962	19806.97
552.326	19881.09
552.689	20061.65
553.053	19960.86
553.417	20147.52
553.78	20298.7
554.143	20276.78
554.507	20416.44
554.87	20483.11
555.234	20715.64
555.597	20490.56
555.96	20758.58
556.323	20703.66
556.686	20874.73
557.05	21066.82
557.413	21214.61
557.776	21257.1
558.139	21423.19
558.502	21351.33
558.865	21471.33
559.228	21691.66
559.59	21733.47
559.953	21844.2
560.316	22201.25
560.679	22180.91
561.041	22325.77
561.404	22458.19
561.767	22674.23
562.129	22682.14
562.492	22856.15
562.854	23000.33
563.217	23103.83
563.579	23284.16
563.941	23353.54
564.304	23587.66
564.666	23857.71
565.028	23867.2
565.39	23942.9
565.753	24199.39
566.115	24287.3
566.477	24512.38
566.839	24661.75
567.201	24922.08
567.563	25014.51
567.925	25213.15
568.287	25353.49
568.648	25532.69
569.01	25880.48
569.372	26093.35
569.734	26087.48
570.095	26450.41
570.457	26632.55
570.819	26657.86
571.18	26809.94
571.542	27052.2
571.903	27272.98
572.265	27409.48
572.626	27614.9
572.987	27685.18
573.349	27993.19
573.71	28156.35
574.071	28374.42
574.432	28639.05
574.794	28926.05
575.155	28925.82
575.516	28974.41
575.877	29152.93
576.238	29334.85
576.599	29410.33
576.96	29657.55
577.32	29747.72
577.681	29930.09
578.042	30048.28
578.403	30136.86
578.763	30259.35
579.124	30399.68
579.485	30593.57
579.845	30763.29
580.206	30685.32
580.566	30816.17
580.927	30865.43
581.287	31162.6
581.648	31140.68
582.008	31325.98
582.368	31311.97
582.728	31617.5
583.089	31570.05
583.449	31625.64
583.809	31807.33
584.169	31781.57
584.529	31837.84
584.889	32170.48
585.249	32091.84
585.609	32041.45
585.969	32245.96
586.329	32258.84
586.688	32436.24
587.048	32547.42
587.408	32461.55
587.768	32620.41
588.127	32761.88
588.487	32821.31
588.846	33233.28
589.206	32871.71
589.565	33048.42
589.925	33375.2
590.284	33367.29
590.643	33526.15
591.003	33624.23
591.362	33944.67
591.721	33843.43
592.08	33998
592.44	34321.84
592.799	34314.15
593.158	34442.96
593.517	34501.27
593.876	34725.67
594.235	34612
594.593	34894.03
594.952	35099.44
595.311	35162.49
595.67	35303.96
596.029	35596.38
596.387	35748.01
596.746	35972.19
597.104	35854.68
597.463	35957.95
597.822	36284.05
598.18	36359.3
598.538	36480.2
598.897	36810.59
599.255	36658.95
599.613	37263.46
599.972	37013.97
600.33	37154.76
600.688	37202.21
601.046	37437.69
601.404	37734.86
601.762	37764.91
602.12	37964.45
602.478	38124.9
602.836	38215.29
603.194	37993.38
603.552	38422.75
603.91	38386.36
604.268	38695.96
604.625	38672.46
604.983	38930.53
605.341	38792.68
605.698	39149.51
606.056	39381.59
606.413	39271.76
606.771	39563.51
607.128	39574.81
607.485	39636.27
607.843	39785.42
608.2	39970.28
608.557	40176.6
608.914	40103.83
609.272	40265.18
609.629	40472.86
609.986	40532.75
610.343	40565.97
610.7	40930.03
611.057	40863.81
611.414	40849.35
611.771	41082.34
612.127	41336.34
612.484	41278.04
612.841	41390.35
613.198	41446.4
613.554	41395.1
613.911	41749.21
614.267	41641.19
614.624	41603.23
614.98	41961.41
615.337	42242.99
615.693	42089.99
616.05	42231.46
616.406	42472.58
616.762	42300.38
617.118	42482.53
617.475	42475.3
617.831	42645.01
618.187	42774.95
618.543	42831.9
618.899	43069.63
619.255	42888.62
619.611	42913.93
619.967	43130.65
620.323	43217.42
620.678	43119.8
621.034	43093.13
621.39	43107.82
621.746	43089.74
622.101	43586.45
622.457	43312.34
622.812	43606.57
623.168	43526.12
623.523	43325.22
623.879	43569.5
624.234	43401.15
624.589	43691.08
624.945	43659.45
625.3	43750.06
625.655	43658.09
626.01	43758.2
626.365	43773.11
626.72	43665.77
627.075	43527.47
627.43	43807.69
627.785	43749.61
628.14	43719.1
628.495	43893.56
628.85	43774.02
629.205	43766.11
629.559	43898.54
629.914	43800.46
630.269	43680.69
630.623	43652.67
630.978	43631.88
631.332	43728.14
631.687	43537.19
632.041	43526.57
632.396	43607.02
632.75	43475.72
633.104	43629.84
633.459	43434.59
633.813	43297.42
634.167	43347.82
634.521	43471.2
634.875	43388.27
635.229	43203.41
635.583	43010.42
635.937	43062.17
636.291	43013.81
636.645	42967.71
636.999	42760.26
637.352	42981.27
637.706	42785.8
638.06	42880.48
638.413	42686.59
638.767	42552.36
639.121	42716.42
639.474	42601.85
639.828	42514.84
640.181	42550.1
640.534	42526.14
640.888	42376.77
641.241	42115.08
641.594	42195.53
641.947	42234.62
642.301	42292.02
642.654	42302.42
643.007	42072.59
643.36	42257
643.713	42104.68
644.066	42260.16
644.419	41984.46
644.771	41482.1
645.124	41229.45
645.477	41239.62
645.83	41095.67
646.182	41148.55
646.535	41081.43
646.888	41142.22
647.24	40986.97
647.593	41225.38
647.945	40877.82
648.298	40865.85
648.65	40671.5
649.002	40488.91
649.355	40441.45
649.707	40109.71
650.059	40216.82
650.411	40650.26
650.763	40973.87
651.115	41642.32
651.467	41368.43
651.819	41548.99
652.171	41400.3
652.523	41298.83
652.875	41235.1
653.227	41087.08
653.578	41480.75
653.93	41383.57
654.282	41106.97
654.633	40998.95
654.985	41225.16
655.337	41283.91
655.688	41090.7
656.039	41418.37
656.391	40895.22
656.742	41052.06
657.094	41048.21
657.445	41085.73
657.796	41036.46
658.147	41059.97
658.498	41143.58
658.849	41249.79
659.2	40949.23
659.551	41016.8
659.902	41311.03
660.253	41089.8
660.604	41070.59
660.955	41011.15
661.306	41247.31
661.656	41041.66
662.007	41113.75
662.358	41196.01
662.708	41197.14
663.059	41050.7
663.409	40981.78
663.76	41109.91
664.11	41150.81
664.461	41255.89
664.811	41197.82
665.161	41292.5
665.511	41088.67
665.862	41308.09
666.212	41083.02
666.562	41144.48
666.912	41104.26
667.262	41026.75
667.612	41120.3
667.962	41048.21
668.312	40955.11
668.662	41252.73
669.011	41047.54
669.361	41025.62
669.711	41025.62
670.06	40967.54
670.41	40953.3
670.76	40940.42
671.109	41204.14
671.459	40909.46
671.808	40987.88
672.157	41041.66
672.507	40786.3
672.856	40732.52
673.205	40795.11
673.554	40913.53
673.904	40757.83
674.253	41018.16
674.602	40789.69
674.951	40236.71
675.3	40104.28
675.649	40801.44
675.998	40703.14
676.346	40705.62
676.695	40762.8
677.044	40495.01
677.393	40643.48
677.741	40605.29
678.09	40589.92
678.438	40489.81
678.787	40643.93
679.135	40617.94
679.484	40287.1
679.832	40490.26
680.181	40228.12
680.529	40257.73
680.877	40077.62
681.225	40130.5
681.573	40500.88
681.922	40092.08
682.27	39977.51
682.618	39965.76
682.966	39839.66
683.314	39923.72
683.661	39888.92
684.009	39684.41
684.357	39550.63
684.705	39501.36
685.053	39503.17
685.4	39371.65
685.748	39239.45
686.095	39207.81
686.443	38999.23
686.79	39135.95
687.138	39089.62
687.485	38937.99
687.832	38892.56
688.18	38890.53
688.527	38794.71
688.874	38594.95
689.221	38591.78
689.568	38264.11
689.915	38305.01
690.262	38284.9
690.609	38318.12
690.956	37889.88
691.303	37975.75
691.65	37802.88
691.997	37776.21
692.344	37511.81
692.69	37365.15
693.037	37470
693.383	37166.96
693.73	37293.51
694.077	37079.51
694.423	36937.14
694.769	36792.73
695.116	36852.84
695.462	36590.7
695.808	36479.07
696.155	36540.76
696.501	36118.4
696.847	36282.69
697.193	36005.64
697.539	35931.74
697.885	35751.18
698.231	35602.26
698.577	35619.43
698.923	35554.57
699.269	35348.48
699.614	35076.17
699.96	35074.36
700.306	34878.21
700.651	34958.21
700.997	34657.42
701.342	34649.06
701.688	34530.42
702.033	34416.75
702.379	34298.11
702.724	34106.7
703.069	34331.33
703.415	33848.4
703.76	33897.89
704.105	33913.94
704.45	33593.27
704.795	33621.07
705.14	33340.39
705.485	33418.13
705.83	33195.99
706.175	33368.87
706.52	33137.46
706.865	33026.96
707.209	32980.18
707.554	32950.57
707.899	32824.02
708.243	32626.29
708.588	32629.23
708.932	32454.54
709.277	32411.83
709.621	32258.16
709.966	32168.22
710.31	32093.2
710.654	31984.5
710.998	31950.6
711.342	31933.43
711.687	31780.44
712.031	31830.6
712.375	31791.73
712.719	31677.16
713.063	31593.77
713.407	31555.81
713.75	31444.4
714.094	31437.17
714.438	31329.6
714.782	31376.15
715.125	31119.21
715.469	31286.66
715.812	31084.63
716.156	30948.14
716.499	30939.33
716.843	30935.71
717.186	30885.77
717.53	31035.6
717.873	30945.88
718.216	30879.67
718.559	30747.24
718.902	30561.03
719.246	30705.21
719.589	30524.42
719.932	30455.27
720.275	30504.54
720.617	30584.31
720.96	30428.83
721.303	30425.67
721.646	30504.54
721.989	30297.99
722.331	30342.96
722.674	30334.15
723.016	30247.14
723.359	30254.83
723.701	30325.11
724.044	30077.88
724.386	29942.74
724.729	30134.6
725.071	30157.2
725.413	30061.61
725.755	29937.32
726.097	29816.87
726.439	29775.52
726.782	29875.17
727.124	30019.8
727.465	29874.72
727.807	29700.72
728.149	29685.12
728.491	29685.58
728.833	29745.23
729.175	29766.48
729.516	29744.78
729.858	29696.2
730.199	29726.03
730.541	29682.41
730.882	29613.94
731.224	29707.04
731.565	29590.66
731.906	29628.63
732.248	29648.06
732.589	29506.15
732.93	29464.34
733.271	29506.15
733.612	29525.35
733.953	29655.52
734.294	29504.34
734.635	29429.99
734.976	29766.93
735.317	29516.77
735.658	29421.63
735.999	29482.64
736.339	29436.09
736.68	29574.62
737.021	29574.62
737.361	29336.66
737.702	29681.51
738.042	29467.05
738.383	29600.38
738.723	29690.77
739.063	29496.88
739.404	29752.92
739.744	29633.6
740.084	29700.72
740.424	29792.69
740.764	29633.83
741.104	29806.7
741.444	29645.12
741.784	29631.57
742.124	29680.83
742.464	29689.64
742.804	29705.46
743.143	29713.6
743.483	29782.52
743.823	29877.21
744.162	29772.35
744.502	29826.14
744.841	29830.43
745.181	30007.37
745.52	29923.54
745.86	30062.51
746.199	30070.65
746.538	30134.6
746.877	30257.31
747.216	30236.97
747.556	30175.28
747.895	30238.1
748.234	30281.27
748.573	30216.18
748.911	30325.56
749.25	30274.26
749.589	30226.58
749.928	30448.95
750.267	30499.11
750.605	30519.45
750.944	30676.74
751.283	30571.65
751.621	30665.21
751.96	30510.86
752.298	30607.13
752.636	30685.55
752.975	30863.4
753.313	30746.34
753.651	31000.57
753.989	30869.95
754.327	30857.75
754.666	30860.91
755.004	30989.72
755.342	31090.28
755.679	31044.86
