Data from 19-2025_FLMS001491_007.txt Node
Date: Thu Apr 19 16:34:54 BST 2018
User: hsy
Spectrometer: FLMS00149
Trigger mode: 0
Integration Time (sec): 1.000000E-2
Scans to average: 10
Electric dark correction enabled: true
Nonlinearity correction enabled: false
Boxcar width: 0
XAxis mode: Wavelengths
Number of Pixels in Spectrum: 2048
>>>>>Begin Spectral Data<<<<<
341.393	-11.4
341.776	-11.4
342.16	-11.4
342.543	-70.38
342.927	-67.89
343.31	-58.63
343.693	-96.82
344.077	-74.45
344.46	-40.1
344.843	-27.89
345.226	-38.52
345.61	-24.51
345.993	-6.2
346.376	-5.52
346.759	-5.75
347.142	8.26
347.525	37.19
347.908	56.17
348.291	88.71
348.674	97.75
349.057	90.29
349.44	122.16
349.823	114.7
350.206	181.14
350.588	231.31
350.971	250.97
351.354	273.11
351.737	269.95
352.119	269.5
352.502	285.77
352.884	297.29
353.267	309.72
353.65	310.63
354.032	324.64
354.414	324.86
354.797	349.27
355.179	346.78
355.562	351.98
355.944	351.3
356.326	353.34
356.709	375.03
357.091	365.99
357.473	378.42
357.855	385.43
358.238	379.78
358.62	375.94
359.002	380.23
359.384	363.51
359.766	349.95
360.148	366.67
360.53	372.32
360.912	377.74
361.294	356.73
361.676	375.94
362.057	367.8
362.439	358.99
362.821	370.74
363.203	355.37
363.584	384.98
363.966	366.45
364.348	370.29
364.729	371.64
365.111	385.88
365.493	354.47
365.874	369.38
366.256	351.53
366.637	351.3
367.019	369.38
367.4	363.96
367.781	345.2
368.163	371.64
368.544	381.36
368.925	375.71
369.306	379.33
369.688	366.9
370.069	378.2
370.45	382.72
370.831	375.48
371.212	363.51
371.593	370.29
371.974	358.99
372.355	380.68
372.736	379.1
373.117	392.43
373.498	370.06
373.879	368.25
374.26	394.92
374.641	371.42
375.021	367.8
375.402	389.95
375.783	380.68
376.163	385.2
376.544	413.45
376.925	394.69
377.305	405.99
377.686	398.08
378.066	384.98
378.447	409.16
378.827	424.97
379.208	407.12
379.588	427.23
379.968	415.94
380.349	427.69
380.729	413.9
381.109	401.92
381.489	406.22
381.87	422.26
382.25	421.13
382.63	424.52
383.01	438.76
383.39	440.12
383.77	422.04
384.15	451.64
384.53	442.6
384.91	448.7
385.29	457.29
385.67	445.54
386.049	434.24
386.429	430.85
386.809	448.7
387.189	462.04
387.568	481.7
387.948	462.71
388.328	465.88
388.707	482.83
389.087	477.4
389.466	482.15
389.846	473.34
390.225	476.05
390.605	472.43
390.984	491.41
391.363	506.33
391.743	475.82
392.122	501.81
392.501	496.84
392.881	498.19
393.26	504.29
393.639	510.85
394.018	499.55
394.397	526.44
394.776	535.71
395.155	497.97
395.534	526.67
395.913	538.42
396.292	523.73
396.671	538.87
397.05	558.3
397.429	544.75
397.808	549.04
398.186	548.59
398.565	567.57
398.944	561.02
399.323	578.42
399.701	570.73
400.08	571.86
400.458	576.16
400.837	574.35
401.215	579.09
401.594	600.34
401.972	587.91
402.351	582.48
402.729	596.04
403.107	611.86
403.486	610.28
403.864	611.64
404.242	619.09
404.62	620.45
404.999	617.29
405.377	627.23
405.755	613.9
406.133	661.35
406.511	649.6
406.889	657.28
407.267	674.91
407.645	682.82
408.023	677.4
408.401	711.29
408.779	677.4
409.156	715.81
409.534	707.68
409.912	727.34
410.29	724.85
410.667	726.89
411.045	758.98
411.422	739.32
411.8	751.29
412.178	770.28
412.555	758.75
412.933	762.14
413.31	794.68
413.687	807.56
414.065	789.71
414.442	807.34
414.819	821.35
415.197	841.01
415.574	842.82
415.951	834.91
416.328	833.1
416.705	834.91
417.082	875.36
417.46	854.12
417.837	874.45
418.214	864.74
418.591	876.26
418.967	877.39
419.344	893.44
419.721	898.41
420.098	883.95
420.475	922.81
420.852	908.8
421.228	925.07
421.605	935.92
421.982	945.86
422.358	958.52
422.735	978.86
423.111	975.47
423.488	987.67
423.864	988.12
424.241	975.69
424.617	1029.25
424.994	1001.23
425.37	1027.9
425.746	1024.28
426.123	1039.65
426.499	1043.26
426.875	1064.28
427.251	1073.09
427.627	1076.71
428.003	1119.87
428.379	1096.14
428.756	1148.8
429.132	1151.06
429.507	1165.52
429.883	1157.38
430.259	1185.41
430.635	1184.95
431.011	1164.62
431.387	1211.85
431.763	1244.84
432.138	1245.29
432.514	1265.18
432.89	1274.44
433.265	1311.96
433.641	1302.69
434.016	1328.68
434.392	1333.2
434.767	1370.71
435.143	1379.07
435.518	1363.48
435.894	1400.09
436.269	1393.76
436.644	1439.86
437.02	1457.26
437.395	1430.37
437.77	1448.22
438.145	1498.62
438.52	1494.1
438.895	1525.28
439.271	1488.22
439.646	1533.19
440.021	1531.39
440.395	1539.97
440.77	1513.99
441.145	1571.61
441.52	1589.24
441.895	1557.83
442.27	1556.92
442.645	1573.19
443.019	1600.54
443.394	1625.4
443.769	1626.98
444.143	1640.54
444.518	1647.99
444.892	1632.85
445.267	1664.26
445.641	1683.92
446.016	1689.57
446.39	1689.57
446.764	1686.64
447.139	1700.42
447.513	1720.53
447.887	1716.69
448.262	1744.26
448.636	1772.74
449.01	1784.49
449.384	1816.8
449.758	1812.73
450.132	1824.03
450.506	1818.84
450.88	1844.15
451.254	1864.48
451.628	1868.55
452.002	1895.44
452.376	1910.59
452.75	1958.27
453.123	1927.53
453.497	1949.45
453.871	2010.02
454.244	2038.94
454.618	2026.06
454.992	2066.74
455.365	2087.98
455.739	2087.76
456.112	2141.09
456.486	2153.06
456.859	2198.49
457.232	2213.18
457.606	2254.08
457.979	2236.45
458.352	2279.84
458.725	2318.26
459.099	2347.64
459.472	2355.77
459.845	2393.96
460.218	2399.16
460.591	2469.44
460.964	2457.01
461.337	2460.4
461.71	2533.17
462.083	2578.14
462.456	2565.48
462.829	2617.01
463.201	2624.24
463.574	2597.57
463.947	2675.76
464.32	2690.68
464.692	2731.13
465.065	2746.5
465.438	2761.18
465.81	2800.96
466.183	2818.81
466.555	2867.85
466.928	2862.2
467.3	2889.32
467.672	2941.29
468.045	2998.47
468.417	3012.25
468.789	3040.05
469.161	3087.5
469.534	3132.7
469.906	3154.17
470.278	3148.74
470.65	3230.78
471.022	3277.33
471.394	3322.75
471.766	3348.51
472.138	3415.86
472.51	3441.62
472.882	3502.41
473.253	3515.51
473.625	3607.49
473.997	3642.97
474.369	3666.7
474.74	3707.37
475.112	3751.89
475.484	3824.89
475.855	3898.78
476.227	3921.38
476.598	3986.69
476.97	4028.5
477.341	4124.09
477.713	4155.05
478.084	4187.59
478.455	4328.15
478.827	4354.59
479.198	4441.59
479.569	4566.11
479.94	4602.04
480.311	4659.44
480.682	4744.18
481.053	4846.55
481.424	4906.21
481.795	4989.6
482.166	5079.99
482.537	5112.31
482.908	5252.19
483.279	5256.71
483.65	5408.12
484.021	5458.06
484.391	5543.26
484.762	5639.98
485.133	5707.77
485.503	5727.43
485.874	5873.42
486.244	5944.15
486.615	6102.11
486.985	6070.93
487.356	6242.45
487.726	6299.17
488.097	6432.95
488.467	6457.13
488.837	6634.3
489.207	6660.97
489.578	6775.32
489.948	6879.72
490.318	6976.67
490.688	6990.9
491.058	7124.23
491.428	7247.62
491.798	7235.64
492.168	7384.34
492.538	7466.82
492.908	7568.97
493.278	7630.21
493.648	7739.13
494.017	7774.84
494.387	7841.5
494.757	7916.08
495.126	8021.39
495.496	8059.35
495.866	8218.44
496.235	8172.34
496.605	8336.86
496.974	8412.11
497.344	8452.33
497.713	8471.09
498.082	8558.77
498.452	8686
498.821	8676.74
499.19	8734.13
499.559	8841.93
499.928	8920.57
500.298	8925.09
500.667	9074.92
501.036	9027.69
501.405	9138.19
501.774	9090.96
502.143	9231.97
502.512	9302.93
502.88	9314.68
503.249	9416.38
503.618	9478.07
503.987	9509.26
504.356	9571.17
504.724	9672.42
505.093	9673.55
505.462	9660.44
505.83	9748.8
506.199	9815.46
506.567	9977.94
506.936	9949.02
507.304	10082.8
507.672	10121.22
508.041	10086.64
508.409	10232.63
508.777	10357.37
509.145	10393.3
509.514	10430.59
509.882	10514.2
510.25	10515.78
510.618	10605.5
510.986	10640.98
511.354	10733.63
511.722	10916
512.09	10927.75
512.458	10893.4
512.826	11000.74
513.193	11074.19
513.561	11098.59
513.929	11231.24
514.297	11307.17
514.664	11369.77
515.032	11396.66
515.4	11484.12
515.767	11643.89
516.135	11676.66
516.502	11704.23
516.869	11869.19
517.237	11966.37
517.604	11883.88
517.972	12071
518.339	12159.13
518.706	12146.47
519.073	12291.78
519.44	12376.98
519.808	12452
520.175	12519.57
520.542	12610.87
520.909	12857.64
521.276	12863.29
521.643	13084.75
522.009	13040.91
522.376	13175.37
522.743	13294.01
523.11	13425.08
523.477	13558.19
523.843	13605.19
524.21	13790.95
524.577	13929.48
524.943	14066.2
525.31	14100.77
525.676	14294.89
526.043	14357.72
526.409	14483.36
526.776	14649.91
527.142	14682.68
527.508	14818.95
527.874	14964.03
528.241	15021.88
528.607	15098.49
528.973	15413.96
529.339	15390.91
529.705	15561.75
530.071	15625.48
530.437	15760.62
530.803	15919.93
531.169	15996.77
531.535	16030.21
531.901	16153.83
532.267	16232.47
532.632	16340.04
532.998	16437.89
533.364	16537.55
533.73	16579.58
534.095	16823.41
534.461	16854.83
534.826	17008.04
535.192	17048.49
535.557	17210.07
535.923	17179.56
536.288	17290.52
536.653	17284.64
537.019	17406.68
537.384	17584.75
537.749	17570.51
538.114	17664.07
538.479	17659.1
538.845	17769.15
539.21	17771.86
539.575	17887.11
539.94	17979.77
540.305	18084.17
540.67	18043.95
541.034	18340.44
541.399	18258.86
541.764	18317.61
542.129	18418.85
542.494	18503.82
542.858	18579.75
543.223	18517.83
543.587	18715.34
543.952	18726.87
544.316	18799.63
544.681	18813.87
545.045	18934.32
545.41	18941.78
545.774	19023.36
546.138	19033.3
546.503	19216.35
546.867	19151.71
547.231	19310.35
547.595	19356.45
547.959	19365.72
548.324	19425.83
548.688	19547.41
549.052	19602.55
549.416	19621.31
549.779	19723
550.143	19866.27
550.507	19981.75
550.871	20037.34
551.235	19907.17
551.599	20132.71
551.962	20215.64
552.326	20120.28
552.689	20410.66
553.053	20261.06
553.417	20466.93
553.78	20639.13
554.143	20705.35
554.507	20856.08
554.87	20915.96
555.234	21025.34
555.597	20900.59
555.96	21089.29
556.323	21290.41
556.686	21280.92
557.05	21451.09
557.413	21534.48
557.776	21647.92
558.139	21793.9
558.502	21879.78
558.865	21918.19
559.228	22093.11
559.59	22221.69
559.953	22216.94
560.316	22603.37
560.679	22578.74
561.041	22706.42
561.404	23008.56
561.767	23153.87
562.129	23041.1
562.492	23258.5
562.854	23352.28
563.217	23465.05
563.579	23641.09
563.941	23709.79
564.304	24025.71
564.666	24078.59
565.028	24242.2
565.39	24485.58
565.753	24580.5
566.115	24759.7
566.477	24967.38
566.839	25009.86
567.201	25400.36
567.563	25462.51
567.925	25714.03
568.287	25798.09
568.648	25899.79
569.01	26075.15
569.372	26397.17
569.734	26438.75
570.095	26716.26
570.457	26970.49
570.819	27065.86
571.18	27078.06
571.542	27521.66
571.903	27480.76
572.265	27640.98
572.626	27933.18
572.987	27964.36
573.349	28253.4
573.71	28386.27
574.071	28588.98
574.432	28850.22
574.794	29053.15
575.155	29112.13
575.516	29214.27
575.877	29302.63
576.238	29489.3
576.599	29677.09
576.96	29762.73
577.32	29957.76
577.681	30054.03
578.042	30356.39
578.403	30328.37
578.763	30263.74
579.124	30557.52
579.485	30767.23
579.845	30775.59
580.206	30840.45
580.566	30899.65
580.927	30998.86
581.287	31239.76
581.648	31257.61
582.008	31404.73
582.368	31606.08
582.728	31629.13
583.089	31709.12
583.449	31832.96
583.809	31901.89
584.169	32050.81
584.529	31949.8
584.889	32289.22
585.249	32104.14
585.609	32039.74
585.969	32487.86
586.329	32339.39
586.688	32571.7
587.048	32679.72
587.408	32593.39
587.768	32703.9
588.127	32809.43
588.487	32855.99
588.846	33211.23
589.206	32999.49
589.565	33221.17
589.925	33549.75
590.284	33596.53
590.643	33575.52
591.003	33874.94
591.362	34168.04
591.721	34017.31
592.08	34192
592.44	34585.88
592.799	34524.64
593.158	34603.29
593.517	34537.75
593.876	34891.41
594.235	34916.72
594.593	35086.44
594.952	35284.62
595.311	35206.21
595.67	35485.3
596.029	35832.63
596.387	35920.31
596.746	36226.07
597.104	36158.72
597.463	36269.68
597.822	36513.74
598.18	36597.81
598.538	36661.99
598.897	36972.26
599.255	36668.54
599.613	37482.98
599.972	37170.22
600.33	37379.94
600.688	37545.81
601.046	37615.18
601.404	37932.24
601.762	37883.88
602.12	38317.76
602.478	38300.36
602.836	38553.01
603.194	38353.47
603.552	38584.42
603.91	38710.07
604.268	38834.13
604.625	38907.8
604.983	38928.37
605.341	39008.59
605.698	39582.36
606.056	39653.77
606.413	39415.36
606.771	39745.52
607.128	39805.63
607.485	39844.96
607.843	39972.64
608.2	40179.18
608.557	40388.9
608.914	40372.85
609.272	40516.35
609.629	40803.8
609.986	40907.07
610.343	40882.22
610.7	41282.21
611.057	41196.11
611.414	41176.9
611.771	41393.84
612.127	41537.11
612.484	41686.71
612.841	41895.75
613.198	41648.52
613.554	41731.01
613.911	42001.96
614.267	42099.59
614.624	42084.67
614.98	42293.48
615.337	42455.51
615.693	42459.12
616.05	42493.47
616.406	42737.53
616.762	42666.58
617.118	42712.9
617.475	42817.31
617.831	42945.66
618.187	43133.91
618.543	43113.12
618.899	43396.95
619.255	43201.03
619.611	43256.62
619.967	43576.38
620.323	43635.36
620.678	43481.92
621.034	43523.05
621.39	43558.98
621.746	43557.63
622.101	44035.81
622.457	43636.95
622.812	43861.35
623.168	43846.21
623.523	44003.94
623.879	44142.7
624.234	43763.27
624.589	44118.06
624.945	44075.35
625.3	44059.53
625.655	44044.17
626.01	44135.92
626.365	44287.32
626.72	44038.29
627.075	43990.38
627.43	44035.58
627.785	44099.98
628.14	44114.9
628.495	44172.52
628.85	44179.08
629.205	44062.47
629.559	44250.72
629.914	44005.75
630.269	44174.33
630.623	43935.47
630.978	43842.59
631.332	44050.72
631.687	44045.07
632.041	43918.07
632.396	43955.58
632.75	43916.03
633.104	43906.77
633.459	43623.39
633.813	43681.92
634.167	43723.05
634.521	43654.35
634.875	43721.24
635.229	43551.3
635.583	43415.93
635.937	43429.04
636.291	43407.12
636.645	43342.49
636.999	43099.78
637.352	43242.61
637.706	43101.37
638.06	43228.37
638.413	43062.5
638.767	42991.31
639.121	43020.01
639.474	42948.6
639.828	42882.84
640.181	42765.1
640.534	42843.75
640.888	42772.11
641.241	42595.84
641.594	42518.56
641.947	42796.29
642.301	42526.92
642.654	42576.41
643.007	42397.43
643.36	42447.37
643.713	42385.91
644.066	42651.89
644.419	42227.27
644.771	41904.56
645.124	41646.26
645.477	41441.75
645.83	41465.25
646.182	41394.74
646.535	41380.28
646.888	41378.7
647.24	41316.33
647.593	41593.84
647.945	41329.44
648.298	41074.53
648.65	40943.46
649.002	40799.51
649.355	40724.03
649.707	40262.57
650.059	40559.96
650.411	41022.1
650.763	41299.38
651.115	41874.96
651.467	41739.14
651.819	41804
652.171	41577.11
652.523	41473.61
652.875	41614.17
653.227	41466.83
653.578	41843.32
653.93	41470.68
654.282	41428.42
654.633	41293.5
654.985	41444.91
655.337	41443.11
655.688	41420.73
656.039	41426.16
656.391	41108.88
656.742	41183.23
657.094	41346.84
657.445	41479.71
657.796	41472.71
658.147	41354.07
658.498	41288.76
658.849	41439.94
659.2	41398.81
659.551	41325.14
659.902	41384.12
660.253	41431.81
660.604	41419.83
660.955	41229.55
661.306	41464.12
661.656	41279.95
662.007	41334.41
662.358	41517.23
662.708	41417.12
663.059	41476.1
663.409	41234.3
663.76	41468.87
664.11	41458.02
664.461	41555.19
664.811	41547.96
665.161	41597.68
665.511	41501.41
665.862	41606.94
666.212	41483.33
666.562	41604.46
666.912	41531.46
667.262	41372.6
667.612	41503.22
667.962	41330.79
668.312	41441.3
668.662	41479.04
669.011	41576.44
669.361	41371.69
669.711	41397.23
670.06	41233.39
670.41	41329.66
670.76	41223.9
671.109	41370.56
671.459	41257.8
671.808	41167.18
672.157	41346.16
672.507	40998.6
672.856	41205.15
673.205	41218.7
673.554	41208.99
673.904	40990.46
674.253	41419.38
674.602	41076.79
674.951	40453.07
675.3	40331.5
675.649	41107.97
675.998	41058.71
676.346	41151.14
676.695	41117.24
677.044	40811.48
677.393	40875.21
677.741	41089.44
678.09	40703.01
678.438	40633.18
678.787	40905.27
679.135	40795.21
679.484	40506.63
679.832	40769
680.181	40611.94
680.529	40677.25
680.877	40487.88
681.225	40411.72
681.573	40702.56
681.922	40426.41
682.27	40155.46
682.618	40300.31
682.966	40121.33
683.314	40221.22
683.661	40211.73
684.009	39912.3
684.357	39882.92
684.705	39834.33
685.053	39661.01
685.4	39587.79
685.748	39426.21
686.095	39476.15
686.443	39226.67
686.79	39412.2
687.138	39481.8
687.485	39258.3
687.832	39148.93
688.18	39172.43
688.527	38897.86
688.874	38907.35
689.221	38816.96
689.568	38542.62
689.915	38626.68
690.262	38578.77
690.609	38524.09
690.956	38265.79
691.303	38211.33
691.65	37959.81
691.997	37936.76
692.344	37704.67
692.69	37772.47
693.037	37872.8
693.383	37421.29
693.73	37442.08
694.077	37309.65
694.423	37179.94
694.769	37079.38
695.116	36981.98
695.462	36846.16
695.808	36656.34
696.155	36701.08
696.501	36424.03
696.847	36503.57
697.193	36177.93
697.539	36174.77
697.885	35960.09
698.231	35954.21
698.577	35801.22
698.923	35754.44
699.269	35441.91
699.614	35349.03
699.96	35274
700.306	35204.63
700.651	34998.53
700.997	34997.85
701.342	34813.9
701.688	34870.85
702.033	34526
702.379	34613.91
702.724	34399.45
703.069	34509.5
703.415	34078.1
703.76	34119.91
704.105	34037.42
704.45	34059.57
704.795	33994.71
705.14	33698.22
705.485	33679.24
705.83	33470.21
706.175	33703.2
706.52	33421.85
706.865	33327.16
707.209	33199.25
707.554	33178.24
707.899	33242.42
708.243	32935.76
708.588	32918.36
708.932	32794.29
709.277	32706.61
709.621	32626.39
709.966	32513.62
710.31	32450.57
710.654	32119.96
710.998	32300.75
711.342	32255.55
711.687	32202.22
712.031	31963.81
712.375	31860.31
712.719	31825.28
713.063	31729.46
713.407	31800.87
713.75	31652.85
714.094	31601.1
714.438	31546.87
714.782	31379.42
715.125	31272.3
715.469	31456.48
715.812	31286.76
716.156	31118.63
716.499	31199.31
716.843	31265.52
717.186	31044.06
717.53	31225.75
717.873	31145.97
718.216	31050.16
718.559	31014.23
718.902	30728.81
719.246	30849.26
719.589	30651.07
719.932	30523.62
720.275	30582.6
720.617	30654.24
720.96	30583.28
721.303	30627.57
721.646	30590.74
721.989	30325.43
722.331	30470.06
722.674	30273.68
723.016	30395.94
723.359	30264.87
723.701	30373.34
724.044	30285.66
724.386	30085.89
724.729	30282.95
725.071	30228.48
725.413	30284.53
725.755	30368.14
726.097	30108.04
726.439	29981.49
726.782	30105.55
727.124	30142.61
727.465	30001.37
727.807	29981.94
728.149	30055.61
728.491	29882.51
728.833	29872.79
729.175	29913.46
729.516	29793.69
729.858	29795.95
730.199	29974.48
730.541	29917.76
730.882	29714.37
731.224	29931.54
731.565	29956.18
731.906	29949.4
732.248	29888.38
732.589	29690.19
732.93	29670.76
733.271	29742.17
733.612	29762.51
733.953	29875.05
734.294	29746.46
734.635	29755.73
734.976	29870.3
735.317	29718.67
735.658	29734.49
735.999	29712.11
736.339	29714.15
736.68	29807.7
737.021	29809.06
737.361	29800.25
737.702	29959.79
738.042	29733.58
738.383	29768.84
738.723	29853.58
739.063	29762.28
739.404	29913.24
739.744	29729.97
740.084	29727.71
740.424	29930.64
740.764	29911.21
741.104	30006.8
741.444	29770.87
741.784	29683.87
742.124	29865.33
742.464	29844.31
742.804	29857.42
743.143	29910.08
743.483	30018.55
743.823	29879.34
744.162	29971.99
744.502	30004.31
744.841	29945.1
745.181	30217.64
745.52	30079.11
745.86	30166.57
746.199	30232.78
746.538	30279.1
746.877	30377.63
747.216	30411.08
747.556	30314.36
747.895	30343.28
748.234	30420.8
748.573	30442.72
748.911	30528.59
749.25	30599.32
749.589	30503.51
749.928	30574.24
750.267	30794.12
750.605	30597.51
750.944	30730.17
751.283	30641.13
751.621	30925.64
751.96	30816.94
752.298	30784.85
752.636	31014.9
752.975	30963.38
753.313	31127.22
753.651	31237.72
753.989	31067.33
754.327	31136.71
754.666	30985.98
755.004	31234.33
755.342	31218.52
