Data from 19-3935_FLMS001491_009.txt Node
Date: Thu Apr 19 16:40:22 BST 2018
User: hsy
Spectrometer: FLMS00149
Trigger mode: 0
Integration Time (sec): 1.000000E-2
Scans to average: 10
Electric dark correction enabled: true
Nonlinearity correction enabled: false
Boxcar width: 0
XAxis mode: Wavelengths
Number of Pixels in Spectrum: 2048
>>>>>Begin Spectral Data<<<<<
341.393	-25.49
341.776	-25.49
342.16	-25.49
342.543	-62.33
342.927	-58.04
343.31	-70.01
343.693	-85.83
344.077	-69.56
344.46	-68.43
344.843	-54.65
345.226	-41.54
345.61	-16.45
345.993	-25.49
346.376	-12.61
346.759	16.99
347.142	31.45
347.525	47.27
347.908	68.97
348.291	84.79
348.674	92.02
349.057	103.09
349.44	130.66
349.823	121.4
350.206	157.78
350.588	238.23
350.971	237.1
351.354	253.82
351.737	259.47
352.119	265.35
352.502	299.47
352.884	283.65
353.267	314.16
353.65	336.76
354.032	334.04
354.414	333.37
354.797	331.79
355.179	350.32
355.562	363.87
355.944	357.32
356.326	395.06
356.709	382.41
357.091	360.71
357.473	364.55
357.855	377.21
358.238	360.26
358.62	350.32
359.002	386.02
359.384	380.15
359.766	352.35
360.148	376.08
360.53	393.03
360.912	348.06
361.294	346.93
361.676	383.31
362.057	347.83
362.439	338.34
362.821	365
363.203	377.43
363.584	360.26
363.966	374.5
364.348	368.17
364.729	375.63
365.111	358.9
365.493	324.78
365.874	366.81
366.256	355.51
366.637	363.42
367.019	355.51
367.4	349.64
367.781	353.03
368.163	352.35
368.544	351.22
368.925	353.25
369.306	353.71
369.688	353.25
370.069	357.32
370.45	359.58
370.831	343.54
371.212	369.52
371.593	346.47
371.974	335.63
372.355	358.9
372.736	379.92
373.117	363.87
373.498	371.33
373.879	357.55
374.26	367.72
374.641	360.03
375.021	360.94
375.402	387.38
375.783	379.69
376.163	399.13
376.544	379.24
376.925	399.35
377.305	382.63
377.686	398.68
378.066	407.04
378.447	394.61
378.827	384.67
379.208	426.02
379.588	410.43
379.968	419.01
380.349	423.76
380.729	394.38
381.109	428.51
381.489	396.64
381.87	430.54
382.25	408.39
382.63	430.99
383.01	418.11
383.39	437.77
383.77	405.68
384.15	410.2
384.53	436.42
384.91	437.09
385.29	427.83
385.67	426.47
386.049	451.56
386.429	428.96
386.809	443.65
387.189	465.57
387.568	463.76
387.948	450.2
388.328	439.8
388.707	447.04
389.087	465.34
389.466	489.52
389.846	496.3
390.225	478.67
390.605	503.76
390.984	474.15
391.363	460.37
391.743	496.3
392.122	491.78
392.501	495.62
392.881	496.3
393.26	511.44
393.639	511.22
394.018	505.79
394.397	504.44
394.776	523.64
395.155	522.06
395.534	537.88
395.913	525.68
396.292	540.82
396.671	532.91
397.05	528.84
397.429	532.23
397.808	562.74
398.186	547.82
398.565	539.92
398.944	557.99
399.323	587.15
399.701	553.93
400.08	583.3
400.458	575.39
400.837	581.27
401.215	588.5
401.594	573.36
401.972	587.82
402.351	585.79
402.729	598.67
403.107	626.24
403.486	632.79
403.864	624.66
404.242	628.05
404.62	618.56
404.999	626.47
405.377	614.26
405.755	638.67
406.133	660.36
406.511	673.02
406.889	658.1
407.267	675.05
407.645	674.37
408.023	694.26
408.401	705.11
408.779	709.18
409.156	712.11
409.534	708.5
409.912	720.7
410.29	756.41
410.667	733.13
411.045	757.99
411.422	778.78
411.8	763.41
412.178	788.04
412.555	785.11
412.933	815.16
413.31	807.7
413.687	825.11
414.065	825.11
414.442	832.56
414.819	835.73
415.197	860.13
415.574	855.39
415.951	865.1
416.328	857.87
416.705	872.11
417.082	860.13
417.46	897.42
417.837	908.27
418.214	936.74
418.591	919.79
418.967	923.18
419.344	938.55
419.721	939.45
420.098	954.14
420.475	957.53
420.852	950.07
421.228	960.24
421.605	976.51
421.982	975.61
422.358	1007.47
422.735	1027.36
423.111	993.24
423.488	985.1
423.864	1019
424.241	1031.88
424.617	1089.28
424.994	1054.48
425.37	1081.14
425.746	1069.62
426.123	1062.16
426.499	1133.8
426.875	1141.48
427.251	1148.03
427.627	1164.31
428.003	1170.41
428.379	1185.77
428.756	1195.49
429.132	1208.82
429.507	1243.17
429.883	1208.6
430.259	1259.44
430.635	1263.51
431.011	1281.14
431.387	1299.9
431.763	1301.48
432.138	1313.68
432.514	1339.89
432.89	1327.69
433.265	1371.98
433.641	1390.74
434.016	1416.28
434.392	1446.78
434.767	1437.52
435.143	1477.52
435.518	1482.94
435.894	1478.65
436.269	1504.18
436.644	1520.23
437.02	1538.98
437.395	1535.37
437.77	1609.49
438.145	1609.94
438.52	1610.85
438.895	1625.31
439.271	1637.74
439.646	1635.48
440.021	1702.6
440.395	1661.02
440.77	1684.74
441.145	1676.38
441.52	1694.46
441.895	1730.84
442.27	1724.74
442.645	1724.52
443.019	1746.21
443.394	1753.89
443.769	1786.66
444.143	1750.5
444.518	1798.41
444.892	1800
445.267	1784.18
445.641	1812.88
446.016	1833.89
446.39	1867.11
446.764	1846.77
447.139	1844.06
447.513	1879.54
447.887	1895.81
448.262	1909.6
448.636	1925.64
449.01	1929.03
449.384	1950.27
449.758	1941.23
450.132	1975.13
450.506	1976.94
450.88	2026.88
451.254	1996.37
451.628	2014.68
452.002	2040.44
452.376	2073.89
452.75	2097.84
453.123	2121.34
453.497	2133.09
453.871	2156.82
454.244	2176.26
454.618	2200.44
454.992	2237.27
455.365	2246.09
455.739	2323.37
456.112	2322.02
456.486	2338.51
456.859	2357.95
457.232	2406.98
457.606	2396.36
457.979	2449.47
458.352	2467.77
458.725	2540.09
459.099	2535.79
459.472	2555.46
459.845	2592.29
460.218	2644.94
460.591	2635.23
460.964	2647.2
461.337	2714.55
461.71	2782.34
462.083	2808.33
462.456	2770.37
462.829	2831.15
463.201	2876.8
463.574	2819.18
463.947	2895.79
464.32	2927.65
464.692	2953.86
465.065	2980.53
465.438	3011.94
465.81	3063.01
466.183	3064.14
466.555	3096.68
466.928	3156.12
467.3	3098.27
467.672	3170.58
468.045	3256.68
468.417	3264.36
468.789	3281.99
469.161	3324.47
469.534	3348.2
469.906	3381.42
470.278	3474.98
470.65	3485.37
471.022	3547.07
471.394	3548.65
471.766	3603.56
472.138	3651.02
472.51	3729.44
472.882	3746.84
473.253	3794.97
473.625	3790
473.997	3874.97
474.369	3938.47
474.74	3965.81
475.112	4015.76
475.484	4046.72
475.855	4133.49
476.227	4166.94
476.598	4290.78
476.97	4321.96
477.341	4400.83
477.713	4521.73
478.084	4456.87
478.455	4568.96
478.827	4582.29
479.198	4776.19
479.569	4719.92
479.94	4876.52
480.311	4909.29
480.682	5038.55
481.053	5095.05
481.424	5159
481.795	5188.15
482.166	5314.48
482.537	5331.65
482.908	5523.51
483.279	5564.87
483.65	5667.01
484.021	5739.55
484.391	5836.95
484.762	5870.62
485.133	5934.8
485.503	5994.69
485.874	6132.31
486.244	6213.44
486.615	6318.07
486.985	6376.37
487.356	6441.68
487.726	6521.45
488.097	6695.91
488.467	6734.55
488.837	6878.96
489.207	6873.76
489.578	6995.34
489.948	7118.95
490.318	7177.03
490.688	7190.81
491.058	7355.33
491.428	7430.36
491.798	7470.13
492.168	7584.93
492.538	7715.09
492.908	7798.93
493.278	7850.68
493.648	7820.85
494.017	8020.17
494.387	8090
494.757	8100.85
495.126	8234.4
495.496	8271.46
495.866	8341.07
496.235	8398.47
496.605	8457.22
496.974	8521.4
497.344	8637.33
497.713	8713.49
498.082	8628.97
498.452	8790.32
498.821	8899.02
499.19	8914.16
499.559	8977.66
499.928	9021.73
500.298	9110.76
500.667	9125.23
501.036	9131.33
501.405	9235.96
501.774	9224.21
502.143	9285.45
502.512	9384.88
502.88	9454.48
503.249	9489.06
503.618	9571.09
503.987	9604.99
504.356	9615.61
504.724	9678.43
505.093	9696.96
505.462	9734.25
505.83	9750.75
506.199	9870.52
506.567	9962.94
506.936	10003.17
507.304	10053.11
507.672	10115.71
508.041	10209.27
508.409	10259.66
508.777	10380.56
509.145	10353.44
509.514	10429.6
509.882	10441.8
510.25	10583.72
510.618	10587.56
510.986	10592.08
511.354	10672.98
511.722	10796.14
512.09	10872.07
512.458	10778.52
512.826	10999.75
513.193	11081.11
513.561	11127.21
513.929	11145.96
514.297	11295.56
514.664	11333.53
515.032	11416.47
515.4	11500.3
515.767	11566.29
516.135	11590.7
516.502	11594.77
516.869	11815.78
517.237	11869.11
517.604	11788.66
517.972	12046.05
518.339	12134.19
518.706	12040.63
519.073	12168.08
519.44	12256.22
519.808	12456.89
520.175	12366.95
520.542	12608.75
520.909	12602.42
521.276	12709.99
521.643	12853.72
522.009	12895.75
522.376	12976.2
522.743	13090.09
523.11	13269.52
523.477	13406.24
523.843	13395.85
524.21	13634.71
524.577	13749.29
524.943	13842.39
525.31	13876.29
525.676	14021.37
526.043	14087.13
526.409	14255.26
526.776	14422.49
527.142	14468.81
527.508	14574.12
527.874	14765.3
528.241	14823.61
528.607	14812.31
528.973	15106.09
529.339	15074.45
529.705	15329.36
530.071	15333.42
530.437	15408.9
530.803	15524.15
531.169	15653.87
531.535	15691.16
531.901	15787.42
532.267	15767.31
532.632	15986.06
532.998	16050.24
533.364	16199.16
533.73	16182.67
534.095	16364.58
534.461	16368.2
534.826	16548.99
535.192	16617.68
535.557	16646.16
535.923	16736.1
536.288	16847.96
536.653	16921.18
537.019	16877.79
537.384	17030.56
537.749	17141.74
538.114	17045.02
538.479	17173.38
538.845	17155.75
539.21	17233.94
539.575	17364.78
539.94	17346.7
540.305	17527.27
540.67	17458.79
541.034	17551.45
541.399	17678
541.764	17706.7
542.129	17675.28
542.494	17818.78
542.858	17870.98
543.223	17814.26
543.587	17955.73
543.952	17927.25
544.316	17999.34
544.681	18019.23
545.045	18136.29
545.41	18254.03
545.774	18106.68
546.138	18283.4
546.503	18192.11
546.867	18381.48
547.231	18501.7
547.595	18509.16
547.959	18525.43
548.324	18576.28
548.688	18638.65
549.052	18735.37
549.416	18696.27
549.779	18735.59
550.143	18789.15
550.507	18858.53
550.871	18975.59
551.235	19025.76
551.599	19069.37
551.962	19103.49
552.326	19239.99
552.689	19356.6
553.053	19251.29
553.417	19397.72
553.78	19583.48
554.143	19645.4
554.507	19602.24
554.87	19653.76
555.234	19871.61
555.597	19783.7
555.96	19921.1
556.323	20069.12
556.686	20090.59
557.05	20196.35
557.413	20218.04
557.776	20387.98
558.139	20549.56
558.502	20624.13
558.865	20685.15
559.228	20786.61
559.59	20825.48
559.953	20829.33
560.316	21185.47
560.679	21152.71
561.041	21395.64
561.404	21473.38
561.767	21727.83
562.129	21594.95
562.492	21842.41
562.854	21881.27
563.217	22032.68
563.579	22200.81
563.941	22356.74
564.304	22552.22
564.666	22723.96
565.028	22765.09
565.39	23044.18
565.753	23206.21
566.115	23341.58
566.477	23486.66
566.839	23681.45
567.201	24108.56
567.563	23996.93
567.925	24148.11
568.287	24372.06
568.648	24570.7
569.01	24784.48
569.372	25064.69
569.734	25224.46
570.095	25405.93
570.457	25690.89
570.819	25868.97
571.18	26014.95
571.542	26289.52
571.903	26532.23
572.265	26664.43
572.626	26730.86
572.987	26924.31
573.349	27228.03
573.71	27391.41
574.071	27662.82
574.432	27917.5
574.794	28241.79
575.155	28349.58
575.516	28372.18
575.877	28692.85
576.238	28765.84
576.599	28945.04
576.96	29108.43
577.32	29291.7
577.681	29388.42
578.042	29681.97
578.403	29797
578.763	29839.71
579.124	29931.23
579.485	30164
579.845	30361.5
580.206	30275.4
580.566	30476.3
580.927	30384.1
581.287	30659.12
581.648	30638.11
582.008	30783.87
582.368	30971.66
582.728	30925.56
583.089	30982.05
583.449	31003.52
583.809	31149.51
584.169	31220.01
584.529	31076.06
584.889	31297.07
585.249	31217.53
585.609	31083.52
585.969	31378.2
586.329	31269.28
586.688	31374.81
587.048	31386.11
587.408	31478.08
587.768	31406.9
588.127	31368.48
588.487	31478.99
588.846	31577.52
589.206	31314.02
589.565	31305.43
589.925	31695.25
590.284	31500.01
590.643	31463.17
591.003	31425.88
591.362	31615.26
591.721	31682.15
592.08	31552.89
592.44	31706.1
592.799	31719.66
593.158	31742.71
593.517	31683.5
593.876	31730.51
594.235	31720.11
594.593	31874.23
594.952	31787.91
595.311	31753.78
595.67	31841.92
596.029	32064.28
596.387	32002.36
596.746	32179.76
597.104	32117.84
597.463	31975.7
597.822	32175.69
598.18	32101.12
598.538	32163.26
598.897	32265.86
599.255	32117.62
599.613	32451.84
599.972	32197.16
600.33	32299.31
600.688	32277.16
601.046	32414.11
601.404	32570.94
601.762	32472.41
602.12	32671.73
602.478	32593.99
602.836	32554.67
603.194	32462.24
603.552	32644.83
603.91	32539.53
604.268	32629.69
604.625	32567.55
604.983	32863.59
605.341	32644.16
605.698	32811.83
606.056	32909.46
606.413	32772.51
606.771	32970.25
607.128	32906.97
607.485	32878.95
607.843	32969.12
608.2	33064.94
608.557	33188.55
608.914	33095.22
609.272	33233.07
609.629	33349.67
609.986	33370.01
610.343	33249.34
610.7	33579.27
611.057	33588.99
611.414	33428.99
611.771	33578.14
612.127	33678.48
612.484	33685.94
612.841	33657.01
613.198	33508.31
613.554	33705.14
613.911	33792.37
614.267	33946.27
614.624	33796.89
614.98	34052.25
615.337	34103.78
615.693	34151.69
616.05	34153.49
616.406	34215.19
616.762	34136.55
617.118	34207.5
617.475	34183.32
617.831	34285.24
618.187	34495.86
618.543	34466.93
618.899	34658.79
619.255	34484.33
619.611	34357.33
619.967	34693.37
620.323	34682.75
620.678	34482.53
621.034	34533.6
621.39	34645.23
621.746	34614.05
622.101	34972.68
622.457	34731.33
622.812	34851.56
623.168	34831.89
623.523	34805
623.879	34880.03
624.234	34741.5
624.589	34786.25
624.945	34810.65
625.3	35017.2
625.655	34938.33
626.01	34951.44
626.365	34954.83
626.72	34873.48
627.075	34738.34
627.43	34818.34
627.785	34713.48
628.14	34752.12
628.495	34758.45
628.85	34769.07
629.205	34660.83
629.559	34871.89
629.914	34752.35
630.269	34648.85
630.623	34511.9
630.978	34379.93
631.332	34740.37
631.687	34642.75
632.041	34442.98
632.396	34525.01
632.75	34463.09
633.104	34574.95
633.459	34228.97
633.813	34360.49
634.167	34298.35
634.521	34204.57
634.875	34211.8
635.229	34276.66
635.583	33991.01
635.937	34025.59
636.291	33951.92
636.645	34106.26
636.999	33877.57
637.352	33900.62
637.706	33732.94
638.06	33902.2
638.413	33758.48
638.767	33662.89
639.121	33721.87
639.474	33545.15
639.828	33539.73
640.181	33501.31
640.534	33488.2
640.888	33429.22
641.241	33229
641.594	33314.87
641.947	33330.24
642.301	33135.44
642.654	33140.41
643.007	33065.84
643.36	33292.05
643.713	33172.05
644.066	33255.44
644.419	32949.68
644.771	32734.77
645.124	32357.84
645.477	32484.16
645.83	32331.62
646.182	32476.25
646.535	32269.93
646.888	32467.89
647.24	32420.88
647.593	32447.78
647.945	32330.94
648.298	32182.7
648.65	32086.2
649.002	31792.43
649.355	31677.18
649.707	31563.96
650.059	31522.38
650.411	32016.83
650.763	32409.59
651.115	32920.08
651.467	32675.34
651.819	32710.37
652.171	32689.13
652.523	32638.96
652.875	32709.24
653.227	32576.81
653.578	32824.94
653.93	32672.18
654.282	32537.04
654.633	32394.44
654.985	32645.29
655.337	32597.38
655.688	32481.45
656.039	32612.07
656.391	32288.01
656.742	32401.68
657.094	32502.46
657.445	32490.71
657.796	32443.26
658.147	32445.97
658.498	32434.9
658.849	32533.2
659.2	32480.54
659.551	32440.55
659.902	32643.25
660.253	32424.27
660.604	32579.3
660.955	32466.31
661.306	32520.09
661.656	32565.51
662.007	32529.36
662.358	32466.31
662.708	32573.42
663.059	32504.27
663.409	32326.2
663.76	32623.14
664.11	32725.74
664.461	32569.36
664.811	32582.46
665.161	32561.67
665.511	32471.96
665.862	32504.5
666.212	32501.11
666.562	32718.73
666.912	32614.1
667.262	32403.94
667.612	32624.04
667.962	32459.98
668.312	32477.83
668.662	32693.19
669.011	32594.89
669.361	32507.89
669.711	32623.59
670.06	32524.84
670.41	32409.81
670.76	32453.65
671.109	32556.93
671.459	32518.51
671.808	32412.3
672.157	32507.66
672.507	32207.56
672.856	32265.41
673.205	32348.34
673.554	32316.71
673.904	32201.23
674.253	32569.13
674.602	32177.05
674.951	31851.86
675.3	31700.23
675.649	32178.63
675.998	32208.24
676.346	32164.62
676.695	32327.55
677.044	32055.92
677.393	32203.49
677.741	32140.21
678.09	32004.62
678.438	31955.36
678.787	32234.22
679.135	32025.19
679.484	31949.71
679.832	31974.79
680.181	31841.92
680.529	31917.4
680.877	31739.09
681.225	31783.84
681.573	31932.76
681.922	31721.47
682.27	31595.6
682.618	31533.22
682.966	31451.19
683.314	31574.13
683.661	31485.99
684.009	31402.38
684.357	31217.98
684.705	31113.8
685.053	31231.76
685.4	31192.22
685.748	30940.02
686.095	30956.97
686.443	30820.47
686.79	30768.72
687.138	30823.41
687.485	30828.61
687.832	30650.31
688.18	30606.92
688.527	30455.96
688.874	30422.07
689.221	30425.91
689.568	30211.68
689.915	29985.02
690.262	30116.76
690.609	29928.75
690.956	29862.08
691.303	29849.43
691.65	29613.73
691.997	29567.63
692.344	29389.33
692.69	29288.99
693.037	29267.52
693.383	29150.24
693.73	29162.67
694.077	29092.38
694.423	29024.36
694.769	28854.2
695.116	28745.5
695.462	28641.55
695.808	28548.9
696.155	28574.88
696.501	28307.09
696.847	28331.73
697.193	28131.05
697.539	28153.88
697.885	27960.89
698.231	27879.54
698.577	27826.66
698.923	27753.21
699.269	27588.02
699.614	27506.89
699.96	27353
700.306	27418.3
700.651	27140.57
700.997	26998.65
701.342	27035.04
701.688	26918.88
702.033	26839.34
702.379	26792.33
702.724	26675.27
703.069	26676.4
703.415	26315.06
703.76	26357.54
704.105	26377.2
704.45	26287.49
704.795	26159.81
705.14	25973.6
705.485	25948.06
705.83	25774.05
706.175	25909.42
706.52	25766.37
706.865	25686.6
707.209	25590.56
707.554	25554.4
707.899	25551.69
708.243	25374.52
708.588	25115.77
708.932	25087.74
709.277	25181.53
709.621	25095.65
709.966	24929.1
710.31	24946.73
710.654	24800.07
710.998	24763.69
711.342	24845.49
711.687	24789
712.031	24603.69
712.375	24458.83
712.719	24541.32
713.063	24448.21
713.407	24489.57
713.75	24452.73
714.094	24445.05
714.438	24233.3
714.782	24252.29
715.125	24201.89
715.469	24271.72
715.812	24143.59
716.156	24028.56
716.499	24091.39
716.843	24155.79
717.186	23928.68
717.53	24134.1
717.873	24204.38
718.216	24123.7
718.559	23932.07
718.902	23772.52
719.246	23815.24
719.589	23805.52
719.932	23708.57
720.275	23713.77
720.617	23821.34
720.96	23772.52
721.303	23774.78
721.646	23684.84
721.989	23644.62
722.331	23695.92
722.674	23597.61
723.016	23601.23
723.359	23478.07
723.701	23524.17
724.044	23507.67
724.386	23384.74
724.729	23491.85
725.071	23535.02
725.413	23448.69
725.755	23446.88
726.097	23392.42
726.439	23363.27
726.782	23291.86
727.124	23557.39
727.465	23330.73
727.807	23294.12
728.149	23449.37
728.491	23370.95
728.833	23379.77
729.175	23486.43
729.516	23268.58
729.858	23349.26
730.199	23498.18
730.541	23500.44
730.882	23326.43
731.224	23400.78
731.565	23426.77
731.906	23348.81
732.248	23358.75
732.589	23332.99
732.93	23249.37
733.271	23393.55
733.612	23385.42
733.953	23471.52
734.294	23449.37
734.635	23330.5
734.976	23431.29
735.317	23499.54
735.658	23523.04
735.999	23469.26
736.339	23468.58
736.68	23541.57
737.021	23635.81
737.361	23512.87
737.702	23787.89
738.042	23725.07
738.383	23714.45
738.723	23784.5
739.063	23740.44
739.404	23848.23
739.744	23773.88
740.084	23786.76
740.424	23995.34
740.764	23931.62
741.104	24032.4
741.444	24027.66
741.784	24071.95
742.124	24108.11
742.464	24309.91
742.804	24345.16
743.143	24371.83
743.483	24415.22
743.823	24393.3
744.162	24363.7
744.502	24634.2
744.841	24570.7
745.181	24811.14
745.52	24767.07
745.86	25058.37
746.199	24993.51
746.538	25030.8
746.877	25372.03
747.216	25431.92
747.556	25344.23
747.895	25545.36
748.234	25611.57
748.573	25884.33
748.911	25773.6
749.25	26019.02
749.589	26005.91
749.928	26245
750.267	26407.26
750.605	26437.09
750.944	26633.92
751.283	26692.45
751.621	26799.79
751.96	26942.84
752.298	27150.29
752.636	27330.85
752.975	27350.28
753.313	27434.35
753.651	27864.85
753.989	27732.42
754.327	28015.12
754.666	27922.47
755.004	28300.09
755.342	28447.88
