Data from 19-3935_FLMS001491_010.txt Node
Date: Thu Apr 19 16:40:25 BST 2018
User: hsy
Spectrometer: FLMS00149
Trigger mode: 0
Integration Time (sec): 1.000000E-2
Scans to average: 10
Electric dark correction enabled: true
Nonlinearity correction enabled: false
Boxcar width: 0
XAxis mode: Wavelengths
Number of Pixels in Spectrum: 2048
>>>>>Begin Spectral Data<<<<<
341.393	-6.67
341.776	-6.67
342.16	-6.67
342.543	-45.99
342.927	-66.1
343.31	-68.13
343.693	-84.4
344.077	-69.49
344.46	-61.13
344.843	-37.85
345.226	-60.9
345.61	-17.97
345.993	-22.49
346.376	-2.15
346.759	-4.41
347.142	25.42
347.525	59.77
347.908	64.74
348.291	68.81
348.674	100.45
349.057	109.71
349.44	124.4
349.823	132.31
350.206	172.09
350.588	210.05
350.971	237.85
351.354	252.54
351.737	274
352.119	280.78
352.502	290.05
352.884	325.3
353.267	316.04
353.65	292.99
354.032	316.26
354.414	344.96
354.797	360.78
355.179	358.52
355.562	361.69
355.944	348.58
356.326	366.66
356.709	370.27
357.091	389.26
357.473	379.99
357.855	391.06
358.238	384.06
358.62	405.53
359.002	394.9
359.384	385.41
359.766	393.32
360.148	376.37
360.53	390.16
360.912	361.69
361.294	375.02
361.676	370.72
362.057	378.63
362.439	395.58
362.821	375.7
363.203	372.53
363.584	392.19
363.966	383.38
364.348	383.83
364.729	361.69
365.111	358.52
365.493	348.58
365.874	359.2
366.256	363.04
366.637	358.75
367.019	382.25
367.4	384.51
367.781	389.71
368.163	388.8
368.544	363.04
368.925	356.04
369.306	384.74
369.688	378.86
370.069	368.46
370.45	374.57
370.831	368.69
371.212	378.86
371.593	369.59
371.974	379.09
372.355	382.48
372.736	384.74
373.117	406.2
373.498	368.92
373.879	400.1
374.26	384.96
374.641	393.77
375.021	387.67
375.402	392.87
375.783	393.1
376.163	400.78
376.544	412.98
376.925	394
377.305	399.42
377.686	419.09
378.066	405.53
378.447	387.22
378.827	416.15
379.208	390.84
379.588	421.8
379.968	412.76
380.349	419.99
380.729	419.09
381.109	436.94
381.489	405.98
381.87	437.62
382.25	415.02
382.63	412.31
383.01	448.01
383.39	452.3
383.77	431.06
384.15	440.55
384.53	452.08
384.91	445.53
385.29	456.6
385.67	447.56
386.049	469.03
386.429	459.99
386.809	459.31
387.189	469.93
387.568	470.84
387.948	507.9
388.328	478.07
388.707	499.31
389.087	489.59
389.466	494.79
389.846	492.3
390.225	509.48
390.605	483.94
390.984	497.28
391.363	510.83
391.743	507.44
392.122	503.83
392.501	506.99
392.881	535.92
393.26	536.14
393.639	533.66
394.018	547.9
394.397	508.57
394.776	537.73
395.155	550.16
395.534	543.38
395.913	553.32
396.292	576.6
396.671	561
397.05	584.5
397.429	555.35
397.808	588.57
398.186	586.09
398.565	581.34
398.944	603.03
399.323	596.26
399.701	607.55
400.08	611.62
400.458	604.62
400.837	591.06
401.215	606.2
401.594	623.6
401.972	609.81
402.351	622.7
402.729	643.71
403.107	649.14
403.486	636.48
403.864	641.45
404.242	641.68
404.62	657.04
404.999	656.37
405.377	679.42
405.755	662.69
406.133	679.42
406.511	680.1
406.889	713.99
407.267	704.73
407.645	733.88
408.023	707.89
408.401	704.28
408.779	719.42
409.156	762.8
409.534	752.18
409.912	760.77
410.29	781.79
410.667	779.08
411.045	802.13
411.422	836.7
411.8	828.34
412.178	810.94
412.555	861.79
412.933	824.27
413.31	848
413.687	885.29
414.065	879.41
414.442	876.93
414.819	892.97
415.197	901.11
415.574	926.19
415.951	938.39
416.328	933.65
416.705	926.64
417.082	932.97
417.46	940.43
417.837	934.78
418.214	960.31
418.591	972.29
418.967	973.42
419.344	989.69
419.721	991.5
420.098	984.04
420.475	1006.87
420.852	1041.67
421.228	1016.58
421.605	1037.37
421.982	1062.23
422.358	1075.79
422.735	1072.63
423.111	1064.49
423.488	1102.91
423.864	1092.97
424.241	1113.53
424.617	1131.83
424.994	1123.7
425.37	1116.47
425.746	1157.6
426.123	1150.82
426.499	1186.3
426.875	1191.72
427.251	1195.34
427.627	1236.69
428.003	1233.3
428.379	1238.72
428.756	1269.23
429.132	1268.33
429.507	1307.65
429.883	1317.37
430.259	1344.03
430.635	1321.66
431.011	1370.92
431.387	1381.32
431.763	1407.53
432.138	1416.12
432.514	1437.14
432.89	1431.94
433.265	1480.75
433.641	1523.46
434.016	1510.13
434.392	1518.72
434.767	1612.05
435.143	1550.58
435.518	1569.56
435.894	1583.57
436.269	1624.03
436.644	1648.88
437.02	1662.89
437.395	1677.58
437.77	1688.88
438.145	1734.98
438.52	1718.71
438.895	1728.43
439.271	1720.07
439.646	1753.51
440.021	1786.73
440.395	1784.47
440.77	1751.71
441.145	1795.32
441.52	1852.72
441.895	1824.7
442.27	1874.41
442.645	1815.66
443.019	1849.56
443.394	1870.57
443.769	1883.68
444.143	1879.84
444.518	1907.63
444.892	1921.19
445.267	1926.16
445.641	1965.03
446.016	1956.9
446.39	1986.28
446.764	2001.42
447.139	1975.88
447.513	1985.15
447.887	2014.07
448.262	2014.07
448.636	2033.73
449.01	2094.97
449.384	2076.44
449.758	2095.43
450.132	2126.84
450.506	2135.2
450.88	2150.56
451.254	2155.08
451.628	2194.18
452.002	2225.37
452.376	2226.95
452.75	2245.93
453.123	2230.56
453.497	2292.26
453.871	2303.78
454.244	2368.41
454.618	2370.22
454.992	2430.11
455.365	2421.29
455.739	2458.13
456.112	2533.83
456.486	2517.33
456.859	2535.87
457.232	2589.88
457.606	2629.2
457.979	2643.89
458.352	2674.17
458.725	2713.71
459.099	2677.1
459.472	2751
459.845	2790.32
460.218	2770.44
460.591	2826.25
460.964	2883.43
461.337	2905.57
461.71	2953.48
462.083	2993.48
462.456	2968.62
462.829	3005.46
463.201	3059.69
463.574	3052.24
463.947	3127.49
464.32	3161.84
464.692	3148.73
465.065	3190.09
465.438	3205.9
465.81	3280.25
466.183	3289.97
466.555	3408.61
466.928	3415.62
467.3	3395.96
467.672	3392.57
468.045	3479.57
468.417	3534.71
468.789	3493.58
469.161	3607.7
469.534	3607.25
469.906	3705.55
470.278	3684.31
470.65	3738.09
471.022	3790.3
471.394	3832.1
471.766	3899.22
472.138	3889.28
472.51	3980.12
472.882	3991.65
473.253	4094.69
473.625	4147.57
473.997	4215.6
474.369	4221.02
474.74	4301.24
475.112	4330.62
475.484	4414.23
475.855	4475.7
476.227	4500.11
476.598	4610.16
476.97	4654.23
477.341	4736.49
477.713	4829.14
478.084	4839.76
478.455	4963.82
478.827	4992.75
479.198	5161.33
479.569	5119.07
479.94	5206.08
480.311	5280.43
480.682	5431.61
481.053	5521.1
481.424	5598.84
481.795	5678.38
482.166	5775.1
482.537	5758.38
482.908	5913.18
483.279	5980.29
483.65	6109.1
484.021	6205.15
484.391	6243.56
484.762	6345.03
485.133	6365.14
485.503	6451.02
485.874	6653.72
486.244	6661.86
486.615	6818.01
486.985	6878.12
487.356	7001.74
487.726	7031.11
488.097	7215.74
488.467	7236.31
488.837	7419.35
489.207	7462.52
489.578	7517.43
489.948	7661.83
490.318	7732.79
490.688	7828.61
491.058	7978.43
491.428	8031.54
491.798	8154.02
492.168	8277.41
492.538	8287.58
492.908	8435.15
493.278	8487.57
493.648	8482.6
494.017	8610.06
494.387	8634.24
494.757	8794.46
495.126	8857.51
495.496	8930.5
495.866	8989.48
496.235	9107.67
496.605	9185.86
496.974	9200.78
497.344	9251.85
497.713	9337.27
498.082	9404.39
498.452	9469.24
498.821	9563.93
499.19	9542.69
499.559	9648.67
499.928	9659.07
500.298	9699.97
500.667	9769.12
501.036	9869.23
501.405	9855.22
501.774	9946.74
502.143	10101.54
502.512	10060.19
502.88	10172.95
503.249	10203.01
503.618	10261.76
503.987	10337.69
504.356	10366.17
504.724	10352.38
505.093	10470.12
505.462	10499.72
505.83	10543.11
506.199	10565.03
506.567	10695.42
506.936	10777.46
507.304	10790.34
507.672	10939.94
508.041	10934.29
508.409	11047.96
508.777	11074.4
509.145	11126.15
509.514	11234.85
509.882	11254.51
510.25	11278.91
510.618	11409.3
510.986	11434.61
511.354	11510.54
511.722	11635.06
512.09	11722.06
512.458	11668.51
512.826	11733.36
513.193	11855.17
513.561	11879.35
513.929	12045.45
514.297	12159.79
514.664	12181.94
515.032	12301.48
515.4	12353.01
515.767	12380.35
516.135	12463.51
516.502	12467.13
516.869	12598.88
517.237	12653.11
517.604	12684.75
517.972	12878.64
518.339	12921.81
518.706	13000
519.073	13054.91
519.44	13202.7
519.808	13328.8
520.175	13361.12
520.542	13542.58
520.909	13552.53
521.276	13603.6
521.643	13789.35
522.009	13901.89
522.376	14036.81
522.743	14180.76
523.11	14331.71
523.477	14449.22
523.843	14558.37
524.21	14610.58
524.577	14818.03
524.943	14840.63
525.31	14999.72
525.676	15173.27
526.043	15307.73
526.409	15414.17
526.776	15528.97
527.142	15567.16
527.508	15667.27
527.874	15870.66
528.241	16020.26
528.607	16015.96
528.973	16266.35
529.339	16178.44
529.705	16454.82
530.071	16621.6
530.437	16740.24
530.803	16845.32
531.169	16941.14
531.535	17034.47
531.901	17090.96
532.267	17235.82
532.632	17333.89
532.998	17408.24
533.364	17525.08
533.73	17505.19
534.095	17721
534.461	17803.94
534.826	17896.59
535.192	18014.1
535.557	18139.3
535.923	18102.24
536.288	18170.26
536.653	18368.67
537.019	18445.05
537.384	18365.73
537.749	18518.04
538.114	18596.23
538.479	18561.88
538.845	18655.44
539.21	18697.93
539.575	18851.59
539.94	18891.59
540.305	18970.01
540.67	18961.2
541.034	19007.52
541.399	19104.7
541.764	19141.76
542.129	19300.4
542.494	19342.43
542.858	19373.61
543.223	19436.21
543.587	19498.36
543.952	19574.29
544.316	19551.01
544.681	19636.43
545.045	19702.42
545.41	19867.39
545.774	19796.43
546.138	19827.16
546.503	19899.25
546.867	19919.14
547.231	20034.84
547.595	20092.69
547.959	20222.18
548.324	20157.78
548.688	20293.14
549.052	20312.12
549.416	20260.37
549.779	20373.14
550.143	20493.59
550.507	20580.36
550.871	20732.22
551.235	20715.27
551.599	20906.68
551.962	20743.97
552.326	20910.3
552.689	20996.85
553.053	20864.42
553.417	21038.66
553.78	21308.03
554.143	21346.9
554.507	21424.41
554.87	21520.23
555.234	21644.52
555.597	21507.34
555.96	21730.84
556.323	21730.62
556.686	21850.61
557.05	22103.94
557.413	22202.02
557.776	22276.59
558.139	22369.47
558.502	22395
558.865	22568.33
559.228	22802.45
559.59	22827.54
559.953	22909.79
560.316	23206.51
560.679	23220.52
561.041	23490.79
561.404	23598.59
561.767	23803.1
562.129	23867.28
562.492	24079.71
562.854	24141.63
563.217	24116.32
563.579	24444.89
563.941	24606.92
564.304	24844.88
564.666	25015.27
565.028	25102.96
565.39	25252.33
565.753	25620.46
566.115	25658.42
566.477	26132.31
566.839	26192.19
567.201	26557.15
567.563	26663.37
567.925	26898.16
568.287	27180.42
568.648	27280.07
569.01	27625.83
569.372	28075.53
569.734	28056.32
570.095	28431
570.457	28693.82
570.819	28861.73
571.18	29028.05
571.542	29534.25
571.903	29493.8
572.265	29927.91
572.626	30126.78
572.987	30300.11
573.349	30507.56
573.71	30717.95
574.071	31117.94
574.432	31413.52
574.794	31710.01
575.155	31845.38
575.516	32121.3
575.877	32308.42
576.238	32293.5
576.599	32774.62
576.96	32760.38
577.32	32957.21
577.681	33252.35
578.042	33451.66
578.403	33538.21
578.763	33675.61
579.124	33922.38
579.485	34106.56
579.845	34258.87
580.206	34191.3
580.566	34243.73
580.927	34433.11
581.287	34771.85
581.648	34578.19
582.008	34808.46
582.368	34890.72
582.728	34908.12
583.089	35014.56
583.449	35172.97
583.809	35178.85
584.169	35167.78
584.529	35183.14
584.889	35547.65
585.249	35276.7
585.609	35038.74
585.969	35534.77
586.329	35352.63
586.688	35627.88
587.048	35392.4
587.408	35443.93
587.768	35382.46
588.127	35478.95
588.487	35462.01
588.846	35789.68
589.206	35418.62
589.565	35487.54
589.925	35595.79
590.284	35686.41
590.643	35633.07
591.003	35839.62
591.362	35784.71
591.721	35671.49
592.08	35702.23
592.44	35816.8
592.799	35706.74
593.158	35736.57
593.517	35744.03
593.876	35820.87
594.235	35671.04
594.593	35824.48
594.952	35817.48
595.311	35816.12
595.67	35857.25
596.029	36024.7
596.387	35967.53
596.746	36156.9
597.104	35936.12
597.463	35904.03
597.822	36184.02
598.18	36198.71
598.538	36031.71
598.897	36238.03
599.255	36007.98
599.613	36537.46
599.972	36138.37
600.33	36243.68
600.688	36044.81
601.046	36141.08
601.404	36438.93
601.762	36313.96
602.12	36454.75
602.478	36487.29
602.836	36548.98
603.194	36251.36
603.552	36422.88
603.91	36339.72
604.268	36488.65
604.625	36550.11
604.983	36756.66
605.341	36397.57
605.698	36580.39
606.056	36868.3
606.413	36613.16
606.771	36927.73
607.128	36762.08
607.485	36589.89
607.843	36666.04
608.2	36829.65
608.557	37005.24
608.914	36911.23
609.272	37076.2
609.629	37163.66
609.986	37249.3
610.343	37139.02
610.7	37450.43
611.057	37325.69
611.414	37159.59
611.771	37414.72
612.127	37419.69
612.484	37377.89
612.841	37578.56
613.198	37479.13
613.554	37482.52
613.911	37571.1
614.267	37722.96
614.624	37608.84
614.98	37785.79
615.337	37918.44
615.693	37878.89
616.05	37988.94
616.406	37948.49
616.762	37763.41
617.118	37987.59
617.475	37934.26
617.831	38083.63
618.187	38194.81
618.543	38181.03
618.899	38367.92
619.255	38279.11
619.611	38277.52
619.967	38365.66
620.323	38417.63
620.678	38255.15
621.034	38284.53
621.39	38322.04
621.746	38247.47
622.101	38651.98
622.457	38228.03
622.812	38546.9
623.168	38555.71
623.523	38529.04
623.879	38524.52
624.234	38367.24
624.589	38502.83
624.945	38583.51
625.3	38596.84
625.655	38517.29
626.01	38532.21
626.365	38596.16
626.72	38520.68
627.075	38300.35
627.43	38546.22
627.785	38489.95
628.14	38486.11
628.495	38596.84
628.85	38559.78
629.205	38325.66
629.559	38723.16
629.914	38256.28
630.269	38473.23
630.623	38216.74
630.978	38103.97
631.332	38232.33
631.687	38373.12
632.041	38150.07
632.396	38247.69
632.75	38036.85
633.104	38160.47
633.459	37906.91
633.813	37934.26
634.167	37751.21
634.521	37867.37
634.875	37883.86
635.229	37805.45
635.583	37588.73
635.937	37630.31
636.291	37588.28
636.645	37565
636.999	37348.28
637.352	37539.24
637.706	37413.14
638.06	37433.93
638.413	37213.37
638.767	37240.72
639.121	37273.26
639.474	37124.56
639.828	37135.41
640.181	37102.87
640.534	37134.5
640.888	36887.28
641.241	36781.97
641.594	36879.14
641.947	37036.2
642.301	36702.2
642.654	36772.25
643.007	36658.58
643.36	36880.73
643.713	36612.48
644.066	36694.97
644.419	36563.45
644.771	36195.77
645.124	35869.68
645.477	35803.01
645.83	35758.95
646.182	35681.89
646.535	35689.34
646.888	35861.54
647.24	35740.87
647.593	35817.02
647.945	35649.35
648.298	35497.48
648.65	35386.75
649.002	35125.97
649.355	34993.09
649.707	34759.2
650.059	34898.86
650.411	35372.97
650.763	35602.57
651.115	36250.91
651.467	36051.37
651.819	36159.84
652.171	35951.71
652.523	35904.25
652.875	36011.37
653.227	35743.13
653.578	36141.31
653.93	36047.75
654.282	35816.8
654.633	35776.8
654.985	35938.83
655.337	35970.01
655.688	35752.17
656.039	35986.74
656.391	35562.57
656.742	35759.17
657.094	35808.89
657.445	35791.04
657.796	35848.89
658.147	35717.82
658.498	35688.67
658.849	35925.27
659.2	35736.57
659.551	35618.16
659.902	35908.32
660.253	35852.5
660.604	35892.73
660.955	35699.74
661.306	35982.22
661.656	35921.65
662.007	35909.68
662.358	35960.07
662.708	35852.73
663.059	35948.09
663.409	35678.5
663.76	36000.97
664.11	35999.39
664.461	35970.47
664.811	36017.02
665.161	35838.94
665.511	35764.37
665.862	35878.72
666.212	35834.43
666.562	35940.41
666.912	35880.07
667.262	35793.97
667.612	35885.95
667.962	35911.26
668.312	35866.51
668.662	35967.75
669.011	35921.88
669.361	35855.44
669.711	35902.22
670.06	35713.07
670.41	35664.49
670.76	35648.89
671.109	35752.39
671.459	35733.41
671.808	35753.98
672.157	35719.85
672.507	35617.03
672.856	35629.01
673.205	35677.82
673.554	35656.12
673.904	35638.05
674.253	35955.1
674.602	35615
674.951	35259.52
675.3	35100.88
675.649	35593.3
675.998	35648.22
676.346	35532.29
676.695	35561.89
677.044	35428.11
677.393	35486.19
677.741	35519.63
678.09	35278.96
678.438	35264.04
678.787	35412.52
679.135	35225.18
679.484	34943.6
679.832	35234.44
680.181	34962.13
680.529	35109.92
680.877	35049.59
681.225	35028.12
681.573	35223.14
681.922	34959.87
682.27	34773.89
682.618	34897.5
682.966	34729.14
683.314	34857.05
683.661	34664.51
684.009	34529.15
684.357	34340.68
684.705	34363.05
685.053	34417.74
685.4	34199.21
685.748	34177.29
686.095	34279.21
686.443	33996.06
686.79	33970.29
687.138	33972.55
687.485	33938.2
687.832	33944.98
688.18	33745.67
688.527	33642.62
688.874	33575.28
689.221	33501.83
689.568	33347.26
689.915	33266.36
690.262	33273.59
690.609	33035.4
690.956	32985.01
691.303	32954.5
691.65	32743.88
691.997	32633.61
692.344	32569.65
692.69	32429.77
693.037	32446.72
693.383	32134.86
693.73	32196.55
694.077	32002.66
694.423	31924.25
694.769	31741.43
695.116	31796.34
695.462	31596.12
695.808	31449.23
696.155	31382.34
696.501	31119.75
696.847	31439.51
697.193	31098.73
697.539	30979.86
697.885	30811.51
698.231	30602.7
698.577	30638.18
698.923	30514.56
699.269	30263.72
699.614	30298.3
699.96	30094.01
700.306	30076.16
700.651	30103.05
700.997	29834.81
701.342	29845.2
701.688	29672.33
702.033	29578.09
702.379	29571.31
702.724	29393.92
703.069	29433.46
703.415	29015.17
703.76	29207.48
704.105	29107.14
704.45	29011.1
704.795	28857.43
705.14	28673.03
705.485	28612.02
705.83	28529.76
706.175	28648.85
706.52	28524.11
706.865	28321.18
707.209	28422.87
707.554	28244.12
707.899	28176.55
708.243	28055.42
708.588	27966.16
708.932	27776.11
709.277	27849.32
709.621	27705.6
709.966	27519.84
710.31	27634.64
710.654	27330.02
710.998	27454.98
711.342	27469.45
711.687	27288.44
712.031	27169.57
712.375	27163.92
712.719	27210.47
713.063	27118.04
713.407	27228.32
713.75	27102.9
714.094	27112.39
714.438	26993.08
714.782	27041.21
715.125	26786.98
715.469	26995.11
715.812	26704.5
716.156	26709.02
716.499	26644.84
716.843	26871.27
717.186	26660.43
717.53	26731.61
717.873	26674.67
718.216	26647.1
718.559	26584.05
718.902	26288.01
719.246	26453.2
719.589	26311.96
719.932	26201.46
720.275	26293.88
720.617	26329.82
720.96	26203.94
721.303	26283.72
721.646	26205.3
721.989	26109.03
722.331	26169.14
722.674	26127.79
723.016	26208.92
723.359	26084.4
723.701	26199.42
724.044	26088.92
724.386	25882.37
724.729	25957.62
725.071	25955.14
725.413	26036.49
725.755	25931.41
726.097	25901.13
726.439	25882.14
726.782	25804.18
727.124	25874.23
727.465	25901.13
727.807	25902.93
728.149	25881.69
728.491	25864.52
728.833	25951.75
729.175	26015.02
729.516	25811.41
729.858	25839.66
730.199	25934.12
730.541	25909.49
730.882	25932.31
731.224	25948.13
731.565	25747.01
731.906	25876.49
732.248	26018.41
732.589	25859.32
732.93	25940.67
733.271	25960.11
733.612	26024.97
733.953	25969.37
734.294	25940.9
734.635	25739.78
734.976	26021.58
735.317	26019.09
735.658	26090.05
735.999	25977.28
736.339	25998.98
736.68	26037.85
737.021	26229.71
737.361	26107.9
737.702	26341.57
738.042	26219.08
738.383	26329.36
738.723	26269.25
739.063	26202.14
739.404	26445.29
739.744	26420.89
740.084	26374.33
740.424	26535.01
740.764	26404.84
741.104	26671.73
741.444	26533.88
741.784	26491.39
742.124	26797.15
742.464	26782.91
742.804	26809.8
743.143	26904.72
743.483	26986.52
743.823	26876.47
744.162	27102
744.502	27193.3
744.841	27187.19
745.181	27276.23
745.52	27319.85
745.86	27479.16
746.199	27599.39
746.538	27689.55
746.877	27784.47
747.216	27928.64
747.556	28012.48
747.895	28086.38
748.234	28071.47
748.573	28371.8
748.911	28306.04
749.25	28419.48
749.589	28498.57
749.928	28605.46
750.267	28988.05
750.605	28914.15
750.944	29040.03
751.283	29136.3
751.621	29307.14
751.96	29236.18
752.298	29615.38
752.636	29704.87
752.975	29822.61
753.313	29952.32
753.651	30228.47
753.989	30273.22
754.327	30456.94
754.666	30480.44
755.004	30694.22
