Data from 19-3921_FLMS001491_006.txt Node
Date: Thu Apr 19 16:42:05 BST 2018
User: hsy
Spectrometer: FLMS00149
Trigger mode: 0
Integration Time (sec): 1.000000E-2
Scans to average: 10
Electric dark correction enabled: true
Nonlinearity correction enabled: false
Boxcar width: 0
XAxis mode: Wavelengths
Number of Pixels in Spectrum: 2048
>>>>>Begin Spectral Data<<<<<
341.393	-26.82
341.776	-26.82
342.16	-26.82
342.543	-97.33
342.927	-61.62
343.31	-70.21
343.693	-85.8
344.077	-47.84
344.46	-75.41
344.843	-54.62
345.226	-49.87
345.61	-30.89
345.993	-20.95
346.376	3.69
346.759	-1.29
347.142	21.31
347.525	55.66
347.908	76.68
348.291	84.36
348.674	85.27
349.057	109.9
349.44	142.44
349.823	149.9
350.206	160.97
350.588	202.55
350.971	240.74
351.354	243
351.737	252.49
352.119	278.48
352.502	293.85
352.884	313.73
353.267	321.64
353.65	297.01
354.032	324.58
354.414	337.69
354.797	340.4
355.179	342.21
355.562	345.37
355.944	345.15
356.326	356.22
356.709	365.26
357.091	364.35
357.473	367.97
357.855	359.38
358.238	364.58
358.62	377.69
359.002	362.32
359.384	388.99
359.766	366.16
360.148	362.55
360.53	380.63
360.912	386.95
361.294	367.07
361.676	354.86
362.057	356.9
362.439	367.29
362.821	351.25
363.203	374.98
363.584	360.06
363.966	354.64
364.348	372.04
364.729	370.91
365.111	347.41
365.493	378.82
365.874	369.55
366.256	327.07
366.637	352.15
367.019	358.03
367.4	384.69
367.781	357.35
368.163	382.43
368.544	328.65
368.925	368.42
369.306	364.58
369.688	377.69
370.069	371.81
370.45	363.45
370.831	353.51
371.212	356.9
371.593	367.29
371.974	364.58
372.355	354.41
372.736	367.97
373.117	395.77
373.498	378.59
373.879	360.97
374.26	363.22
374.641	364.58
375.021	379.04
375.402	367.07
375.783	370.68
376.163	394.18
376.544	398.03
376.925	397.57
377.305	413.17
377.686	404.13
378.066	400.51
378.447	409.55
378.827	402.32
379.208	386.95
379.588	386.73
379.968	399.16
380.349	428.53
380.729	386.95
381.109	417.69
381.489	407.07
381.87	397.8
382.25	425.37
382.63	421.98
383.01	439.16
383.39	421.53
383.77	430.34
384.15	426.27
384.53	411.36
384.91	433.05
385.29	442.54
385.67	444.13
386.049	456.1
386.429	456.56
386.809	446.39
387.189	464.92
387.568	457.23
387.948	457.01
388.328	471.24
388.707	481.19
389.087	480.51
389.466	485.71
389.846	501.3
390.225	489.78
390.605	478.93
390.984	506.5
391.363	486.39
391.743	518.48
392.122	504.46
392.501	506.72
392.881	527.97
393.26	526.38
393.639	518.25
394.018	516.67
394.397	517.35
394.776	531.36
395.155	534.52
395.534	532.94
395.913	535.65
396.292	540.17
396.671	549.89
397.05	549.89
397.429	556.21
397.808	567.06
398.186	567.29
398.565	570.9
398.944	567.51
399.323	565.03
399.701	592.15
400.08	576.78
400.458	612.94
400.837	594.63
401.215	587.85
401.594	594.41
401.972	584.01
402.351	610.9
402.729	597.34
403.107	610.9
403.486	612.03
403.864	659.49
404.242	612.03
404.62	645.48
404.999	663.56
405.377	634.63
405.755	654.97
406.133	679.15
406.511	679.37
406.889	668.98
407.267	685.93
407.645	690.9
408.023	689.54
408.401	686.15
408.779	699.94
409.156	716.89
409.534	700.17
409.912	729.77
410.29	772.48
410.667	747.85
411.045	779.26
411.422	768.41
411.8	788.3
412.178	763.44
412.555	780.16
412.933	812.93
413.31	817.9
413.687	823.78
414.065	814.29
414.442	829.88
414.819	859.03
415.197	852.7
415.574	858.58
415.951	880.05
416.328	861.97
416.705	874.62
417.082	889.76
417.46	902.65
417.837	903.32
418.214	917.79
418.591	932.25
418.967	904.45
419.344	916.66
419.721	934.06
420.098	959.14
420.475	968.41
420.852	956.2
421.228	965.47
421.605	968.63
421.982	1019.7
422.358	1019.93
422.735	1030.55
423.111	971.12
423.488	1025.35
423.864	1021.51
424.241	1028.29
424.617	1073.04
424.994	1045.92
425.37	1074.39
425.746	1054.28
426.123	1084.79
426.499	1104
426.875	1106.93
427.251	1151.23
427.627	1149.87
428.003	1162.75
428.379	1157.33
428.756	1199.59
429.132	1210.66
429.507	1228.29
429.883	1203.2
430.259	1270.09
430.635	1278.23
431.011	1270.32
431.387	1311.22
431.763	1289.75
432.138	1311
432.514	1319.81
432.89	1338.34
433.265	1358
433.641	1378.79
434.016	1413.82
434.392	1420.37
434.767	1442.74
435.143	1462.63
435.518	1434.38
435.894	1483.87
436.269	1511.44
436.644	1529.07
437.02	1512.57
437.395	1525.23
437.77	1584.89
438.145	1570.88
438.52	1573.81
438.895	1628.5
439.271	1619.46
439.646	1641.84
440.021	1643.87
440.395	1661.72
440.77	1637.77
441.145	1650.65
441.52	1689.74
441.895	1711.21
442.27	1715.51
442.645	1720.03
443.019	1712.57
443.394	1720.93
443.769	1748.5
444.143	1729.52
444.518	1772.45
444.892	1745.56
445.267	1809.29
445.641	1792.11
446.016	1832.34
446.39	1837.54
446.764	1837.31
447.139	1839.57
447.513	1847.25
447.887	1842.28
448.262	1892.68
448.636	1863.98
449.01	1918.89
449.384	1908.95
449.758	1916.18
450.132	1966.12
450.506	1938.55
450.88	1973.58
451.254	1968.15
451.628	2035.95
452.002	2020.58
452.376	2022.16
452.75	2064.42
453.123	2111.2
453.497	2102.16
453.871	2132.9
454.244	2155.27
454.618	2166.34
454.992	2231.65
455.365	2267.36
455.739	2250.41
456.112	2258.32
456.486	2330.4
456.859	2309.39
457.232	2396.39
457.606	2413.34
457.979	2441.14
458.352	2438.88
458.725	2471.87
459.099	2487.91
459.472	2530.63
459.845	2553.22
460.218	2584.18
460.591	2574.47
460.964	2574.24
461.337	2645.88
461.71	2710.73
462.083	2725.87
462.456	2741.69
462.829	2750.05
463.201	2800.9
463.574	2788.47
463.947	2835.93
464.32	2874.35
464.692	2886.77
465.065	2908.02
465.438	2974
465.81	2993.44
466.183	3039.54
466.555	3054.68
466.928	3103.72
467.3	3103.72
467.672	3129.71
468.045	3192.98
468.417	3179.42
468.789	3222.36
469.161	3284.5
469.534	3286.31
469.906	3387.1
470.278	3441.34
470.65	3427.1
471.022	3460.54
471.394	3527.89
471.766	3565.17
472.138	3634.1
472.51	3681.78
472.882	3699.86
473.253	3755.9
473.625	3809.69
473.997	3832.06
474.369	3887.65
474.74	3962.45
475.112	4023.24
475.484	4095.1
475.855	4099.17
476.227	4128.32
476.598	4234.99
476.97	4320.18
477.341	4356.57
477.713	4436.56
478.084	4466.85
478.455	4567.86
478.827	4624.13
479.198	4773.73
479.569	4726.27
479.94	4853.73
480.311	4914.52
480.682	4990.22
481.053	5092.59
481.424	5175.53
481.795	5201.06
482.166	5261.85
482.537	5320.61
482.908	5450.55
483.279	5546.37
483.65	5622.75
484.021	5726.93
484.391	5802.86
484.762	5840.37
485.133	5879.92
485.503	5975.28
485.874	6092.79
486.244	6151.32
486.615	6229.96
486.985	6348.6
487.356	6444.87
487.726	6426.12
488.097	6645.09
488.467	6681.02
488.837	6805.54
489.207	6874.01
489.578	6996.04
489.948	7103.16
490.318	7155.59
490.688	7189.71
491.058	7267.9
491.428	7355.81
491.798	7475.58
492.168	7578.18
492.538	7688
492.908	7728.68
493.278	7843.03
493.648	7857.04
494.017	8052.74
494.387	8022.46
494.757	8090.25
495.126	8180.42
495.496	8163.47
495.866	8325.95
496.235	8377.93
496.605	8440.53
496.974	8518.72
497.344	8563.91
497.713	8595.32
498.082	8652.95
498.452	8736.34
498.821	8783.57
499.19	8859.5
499.559	8913.06
499.928	8946.73
500.298	8997.8
500.667	9125.03
501.036	9124.58
501.405	9190.11
501.774	9172.03
502.143	9369.09
502.512	9414.74
502.88	9454.06
503.249	9438.01
503.618	9531.8
503.987	9551.91
504.356	9623.55
504.724	9667.84
505.093	9745.35
505.462	9793.26
505.83	9795.97
506.199	9901.05
506.567	10064.89
506.936	10047.72
507.304	10246.81
507.672	10148.28
508.041	10206.13
508.409	10267.6
508.777	10346.24
509.145	10464.43
509.514	10507.82
509.882	10589.85
510.25	10559.12
510.618	10719.11
510.986	10722.27
511.354	10788.04
511.722	10887.24
512.09	11042.49
512.458	11043.4
512.826	11095.15
513.193	11117.29
513.561	11219.66
513.929	11380.11
514.297	11413.1
514.664	11558.41
515.032	11584.62
515.4	11615.81
515.767	11694.23
516.135	11821.23
516.502	11755.47
516.869	12028.91
517.237	12031.84
517.604	12016.03
517.972	12249.01
518.339	12254.66
518.706	12380.76
519.073	12474.54
519.44	12496.92
519.808	12722.22
520.175	12771.26
520.542	12909.79
520.909	12981.2
521.276	13080.86
521.643	13163.79
522.009	13260.29
522.376	13426.61
522.743	13510.68
523.11	13679.71
523.477	13755.64
523.843	13874.51
524.21	14025.01
524.577	14072.69
524.943	14340.48
525.31	14299.58
525.676	14489.63
526.043	14608.27
526.409	14704.54
526.776	14901.15
527.142	14944.54
527.508	15076.06
527.874	15234.47
528.241	15309.05
528.607	15427.46
528.973	15547.46
529.339	15691.64
529.705	15890.5
530.071	16005.98
530.437	16117.39
530.803	16177.27
531.169	16266.99
531.535	16430.6
531.901	16477.6
532.267	16469.47
532.632	16655.45
532.998	16757.82
533.364	16862.45
533.73	16865.62
534.095	17115.55
534.461	17180.86
534.826	17243.46
535.192	17359.84
535.557	17491.81
535.923	17559.83
536.288	17601.87
536.653	17699.49
537.019	17784.46
537.384	17862.65
537.749	17906.49
538.114	17974.74
538.479	17996.66
538.845	18054.74
539.21	18165.92
539.575	18249.31
539.94	18407.27
540.305	18389.87
540.67	18397.78
541.034	18488.4
541.399	18499.02
541.764	18545.8
542.129	18737.66
542.494	18823.53
542.858	18720.71
543.223	18807.26
543.587	18887.94
543.952	18863.53
544.316	19028.27
544.681	19083.41
545.045	19353.46
545.41	19269.39
545.774	19342.16
546.138	19400.92
546.503	19437.75
546.867	19519.33
547.231	19634.58
547.595	19705.54
547.959	19688.82
548.324	19798.87
548.688	19890.62
549.052	19995.03
549.416	19964.29
549.779	19965.65
550.143	20024.85
550.507	20201.8
550.871	20313.89
551.235	20302.59
551.599	20555.01
551.962	20517.27
552.326	20671.84
552.689	20720.88
553.053	20646.53
553.417	20766.08
553.78	20960.42
554.143	21047.88
554.507	20996.58
554.87	21230.02
555.234	21282
555.597	21325.16
555.96	21516.57
556.323	21522.22
556.686	21531.26
557.05	21762.66
557.413	21904.35
557.776	21873.17
558.139	22094.63
558.502	22083.56
558.865	22294.17
559.228	22387.28
559.59	22523.77
559.953	22566.93
560.316	22901.39
560.679	22954.27
561.041	23055.51
561.404	23231.55
561.767	23450.98
562.129	23343.41
562.492	23661.6
562.854	23726.45
563.217	23807.58
563.579	24013.22
563.941	24248.7
564.304	24389.49
564.666	24725.97
565.028	24786.31
565.39	24952.63
565.753	25164.15
566.115	25279.41
566.477	25509
566.839	25772.5
567.201	26055.43
567.563	26084.13
567.925	26370.9
568.287	26480.28
568.648	26634.85
569.01	26974.05
569.372	27222.41
569.734	27228.96
570.095	27634.37
570.457	27966.34
570.819	27887.25
571.18	28196.62
571.542	28564.52
571.903	28587.79
572.265	28871.18
572.626	29160.21
572.987	29247.21
573.349	29560.2
573.71	29786.41
574.071	29932.16
574.432	30290.12
574.794	30527.4
575.155	30650.34
575.516	30717.91
575.877	31084.68
576.238	31075.19
576.599	31435.18
576.96	31533.25
577.32	31595.85
577.681	31797.65
578.042	32075.84
578.403	32032.45
578.763	32157.87
579.124	32360.58
579.485	32637.86
579.845	32836.95
580.206	32726.89
580.566	32791.3
580.927	32812.09
581.287	33052.76
581.648	33064.06
582.008	33260.66
582.368	33321.91
582.728	33408.91
583.089	33442.58
583.449	33402.58
583.809	33650.03
584.169	33616.14
584.529	33462.92
584.889	33870.37
585.249	33593.54
585.609	33564.16
585.969	33753.31
586.329	33588.11
586.688	33754.89
587.048	33824.49
587.408	33700.88
587.768	33748.34
588.127	33680.54
588.487	33629.02
588.846	33990.36
589.206	33655.46
589.565	33746.98
589.925	34032.17
590.284	33826.53
590.643	33786.53
591.003	33738.84
591.362	34032.62
591.721	33816.58
592.08	33811.84
592.44	33977.03
592.799	33789.46
593.158	33928.44
593.517	33772.52
593.876	33744.95
594.235	33812.29
594.593	33900.87
594.952	33847.32
595.311	33779.07
595.67	33952.17
596.029	34018.61
596.387	33950.59
596.746	34095.9
597.104	33844.15
597.463	33902.23
597.822	34038.95
598.18	33907.43
598.538	33861.33
598.897	34101.09
599.255	33887.77
599.613	34226.52
599.972	34036.69
600.33	34028.78
600.688	33924.83
601.046	33980.87
601.404	34135.67
601.762	34121.21
602.12	34154.43
602.478	34152.17
602.836	34161.43
603.194	34089.12
603.552	34169.12
603.91	34182.45
604.268	34279.85
604.625	34049.12
604.983	34408.43
605.341	33971.83
605.698	34299.06
606.056	34455.89
606.413	34187.65
606.771	34337.7
607.128	34350.35
607.485	34252.96
607.843	34259.51
608.2	34319.39
608.557	34508.54
608.914	34352.16
609.272	34558.71
609.629	34646.39
609.986	34678.71
610.343	34725.49
610.7	34885.26
611.057	34818.14
611.414	34678.48
611.771	34783.79
612.127	34887.97
612.484	34974.07
612.841	35041.18
613.198	34885.93
613.554	34865.37
613.911	35058.36
614.267	34982.65
614.624	35050.45
614.98	35105.14
615.337	35355.98
615.693	35226.04
616.05	35244.34
616.406	35339.71
616.762	35155.98
617.118	35256.09
617.475	35262.19
617.831	35460.38
618.187	35320.05
618.543	35502.87
618.899	35510.55
619.255	35652.24
619.611	35429.2
619.967	35677.78
620.323	35742.18
620.678	35540.38
621.034	35623.99
621.39	35526.82
621.746	35575.86
622.101	35918
622.457	35583.77
622.812	35745.12
623.168	35728.62
623.523	35659.25
623.879	35937.88
624.234	35777.89
624.589	35806.36
624.945	35772.46
625.3	35798.9
625.655	35766.81
626.01	35802.97
626.365	35758.23
626.72	35726.36
627.075	35655.86
627.43	35764.78
627.785	35722.3
628.14	35700.6
628.495	35764.33
628.85	35781.95
629.205	35663.77
629.559	35671.45
629.914	35466.71
630.269	35653.14
630.623	35384
630.978	35239.6
631.332	35573.6
631.687	35503.77
632.041	35386.48
632.396	35344.68
632.75	35326.37
633.104	35299.03
633.459	35088.87
633.813	35073.5
634.167	35002.77
634.521	35090.67
634.875	35100.16
635.229	34791.92
635.583	34753.28
635.937	34791.25
636.291	34757.35
636.645	34742.43
636.999	34673.96
637.352	34866.95
637.706	34463.35
638.06	34697.01
638.413	34601.42
638.767	34475.55
639.121	34559.39
639.474	34367.75
639.828	34238.04
640.181	34321.43
640.534	34406.4
640.888	34177.7
641.241	34098.84
641.594	33991.04
641.947	34136.12
642.301	34045.5
642.654	34069.46
643.007	33977.48
643.36	34005.5
643.713	34035.79
644.066	34134.77
644.419	33762.57
644.771	33340.66
645.124	33176.15
645.477	33205.53
645.83	33128.92
646.182	33080.78
646.535	32980.67
646.888	33194.23
647.24	32944.97
647.593	33091.18
647.945	32907.68
648.298	32904.97
648.65	32547.01
649.002	32325.1
649.355	32240.35
649.707	32039.23
650.059	32076.29
650.411	32540.23
650.763	32736.16
651.115	33477.16
651.467	33219.54
651.819	33188.12
652.171	33174.34
652.523	33010.95
652.875	33219.31
653.227	32929.83
653.578	33289.14
653.93	33160.55
654.282	32933.44
654.633	32968.24
654.985	32983.16
655.337	33008.92
655.688	33028.58
656.039	33055.47
656.391	32736.16
656.742	32770.96
657.094	32845.31
657.445	32777.06
657.796	32885.08
658.147	32796.5
658.498	32862.26
658.849	32828.59
659.2	32757.85
659.551	32780.9
659.902	32954.46
660.253	32678.53
660.604	32854.12
660.955	32717.63
661.306	32848.02
661.656	32821.13
662.007	32923.72
662.358	32836.04
662.708	32896.83
663.059	32778.64
663.409	32557.86
663.76	32913.33
664.11	32751.75
664.461	32826.1
664.811	32843.73
665.161	32733.22
665.511	32672.66
665.862	32766.44
666.212	32840.79
666.562	32706.78
666.912	32720.57
667.262	32638.53
667.612	32716.95
667.962	32695.26
668.312	32689.61
668.662	32884.4
669.011	32856.38
669.361	32656.16
669.711	32681.47
670.06	32427.24
670.41	32633.34
670.76	32692.77
671.109	32703.39
671.459	32635.14
671.808	32674.92
672.157	32688.02
672.507	32466.79
672.856	32524.64
673.205	32576.39
673.554	32558.99
673.904	32493.45
674.253	32757.18
674.602	32614.35
674.951	32117.64
675.3	31885.79
675.649	32633.11
675.998	32525.09
676.346	32457.07
676.695	32550.18
677.044	32183.41
677.393	32287.81
677.741	32463.85
678.09	32303.85
678.438	32329.84
678.787	32307.24
679.135	32216.4
679.484	32022.28
679.832	32071.77
680.181	31964.88
680.529	32108.6
680.877	31913.13
681.225	31938.44
681.573	32078.55
681.922	31797.43
682.27	31777.31
682.618	31838.78
682.966	31671.78
683.314	31708.16
683.661	31690.08
684.009	31635.62
684.357	31385.46
684.705	31445.8
685.053	31426.59
685.4	31333.71
685.748	31192.47
686.095	31145.69
686.443	31036.99
686.79	30919.03
687.138	31079.03
687.485	31088.74
687.832	30731.92
688.18	30959.93
688.527	30723.1
688.874	30744.12
689.221	30606.72
689.568	30498.93
689.915	30295.77
690.262	30368.54
690.609	30348.43
690.956	30086.29
691.303	30204.25
691.65	30036.12
691.997	29850.36
692.344	29831.15
692.69	29695.11
693.037	29717.71
693.383	29538.28
693.73	29579.41
694.077	29383.7
694.423	29329.69
694.769	29214.67
695.116	29207.44
695.462	29028.69
695.808	28928.12
696.155	29056.71
696.501	28850.16
696.847	28858.97
697.193	28531.07
697.539	28479.55
697.885	28265.77
698.231	28314.58
698.577	28120.46
698.923	28312.09
699.269	28043.85
699.614	27837.76
699.96	27737.65
700.306	27720.92
700.651	27632.79
700.997	27562.06
701.342	27423.3
701.688	27391.21
702.033	27403.64
702.379	27407.03
702.724	27144.44
703.069	27182.41
703.415	26857.9
703.76	26878.01
704.105	26894.96
704.45	26809.99
704.795	26558.24
705.14	26518.47
705.485	26595.08
705.83	26330.9
706.175	26505.14
706.52	26374.07
706.865	26317.8
707.209	26109.67
707.554	26106.73
707.899	25993.51
708.243	25956.9
708.588	25870.58
708.932	25720.52
709.277	25770.24
709.621	25620.19
709.966	25459.97
710.31	25501.1
710.654	25292.06
710.998	25348.78
711.342	25356.69
711.687	25268.78
712.031	25271.5
712.375	25116.7
712.719	25044.16
713.063	25127.09
713.407	25162.12
713.75	25017.27
714.094	24996.7
714.438	24866.99
714.782	24782.47
715.125	24753.32
715.469	24930.49
715.812	24675.81
716.156	24589.71
716.499	24588.12
716.843	24660.44
717.186	24456.6
717.53	24664.28
717.873	24613.66
718.216	24525.3
718.559	24379.32
718.902	24221.35
719.246	24414.8
719.589	24314.23
719.932	24190.4
720.275	24265.42
720.617	24388.13
720.96	24218.64
721.303	24179.77
721.646	24176.61
721.989	24097.74
722.331	24102.49
722.674	23938.42
723.016	23984.07
723.359	23950.4
723.701	24071.53
724.044	23941.59
724.386	23845.09
724.729	23843.06
725.071	23829.5
725.413	23760.35
725.755	23813
726.097	23766.68
726.439	23591.09
726.782	23801.03
727.124	23842.38
727.465	23782.5
727.807	23638.77
728.149	23606.68
728.491	23571.43
728.833	23665.89
729.175	23657.53
729.516	23575.04
729.858	23558.1
730.199	23616.85
730.541	23646.45
730.882	23592.67
731.224	23529.85
731.565	23486.68
731.906	23475.84
732.248	23582.28
732.589	23525.55
732.93	23463.86
733.271	23594.03
733.612	23516.06
733.953	23603.97
734.294	23564.65
734.635	23461.6
734.976	23499.11
735.317	23530.53
735.658	23507.25
735.999	23461.83
736.339	23507.02
736.68	23603.97
737.021	23660.69
737.361	23539.79
737.702	23686.45
738.042	23550.86
738.383	23681.71
738.723	23652.78
739.063	23735.04
739.404	23650.97
739.744	23608.26
740.084	23563.97
740.424	23791.54
740.764	23641.71
741.104	23916.5
741.444	23750.63
741.784	23603.29
742.124	23735.94
742.464	23814.36
742.804	23794.25
743.143	23861.82
743.483	23904.98
743.823	23839.22
744.162	24027.69
744.502	24025.43
744.841	23978.2
745.181	24142.71
745.52	24093.22
745.86	24216.16
746.199	24123.73
746.538	24267.91
746.877	24432.2
747.216	24345.65
747.556	24264.29
747.895	24335.02
748.234	24403.72
748.573	24556.04
748.911	24469.94
749.25	24721.91
749.589	24617.73
749.928	24757.61
750.267	24879.42
750.605	24850.94
750.944	24986.08
751.283	24927.32
751.621	25105.63
751.96	24992.86
752.298	25083.7
752.636	25233.76
752.975	25229.92
753.313	25190.37
753.651	25563.47
753.989	25317.82
754.327	25483.02
754.666	25459.06
755.004	25643.01
