Data from 19-3935_FLMS001491_008.txt Node
Date: Thu Apr 19 16:40:20 BST 2018
User: hsy
Spectrometer: FLMS00149
Trigger mode: 0
Integration Time (sec): 1.000000E-2
Scans to average: 10
Electric dark correction enabled: true
Nonlinearity correction enabled: false
Boxcar width: 0
XAxis mode: Wavelengths
Number of Pixels in Spectrum: 2048
>>>>>Begin Spectral Data<<<<<
341.393	-19.96
341.776	-19.96
342.16	-19.96
342.543	-56.79
342.927	-48.2
343.31	-79.84
343.693	-77.81
344.077	-69.45
344.46	-47.98
344.843	-45.95
345.226	-41.43
345.61	-24.93
345.993	-17.7
346.376	-3.01
346.759	4.9
347.142	13.04
347.525	40.38
347.908	71.57
348.291	62.98
348.674	76.54
349.057	138.68
349.44	126.25
349.823	160.83
350.206	186.82
350.588	215.74
350.971	249.64
351.354	245.12
351.737	265.01
352.119	273.59
352.502	309.98
352.884	285.8
353.267	320.15
353.65	313.59
354.032	327.15
354.414	312.01
354.797	352.91
355.179	346.13
355.562	358.34
355.944	346.59
356.326	367.15
356.709	352.24
357.091	382.29
357.473	385.68
357.855	370.99
358.238	405.12
358.62	362.18
359.002	362.86
359.384	368.51
359.766	367.38
360.148	371.9
360.53	388.17
360.912	347.72
361.294	369.19
361.676	386.36
362.057	370.99
362.439	366.7
362.821	347.94
363.203	374.16
363.584	358.79
363.966	364.89
364.348	390.43
364.729	368.96
365.111	379.81
365.493	359.69
365.874	360.15
366.256	369.41
366.637	371.67
367.019	362.86
367.4	358.34
367.781	350.65
368.163	380.26
368.544	358.34
368.925	368.96
369.306	353.59
369.688	369.64
370.069	346.59
370.45	365.8
370.831	355.85
371.212	353.82
371.593	370.99
371.974	354.95
372.355	380.26
372.736	370.09
373.117	365.34
373.498	375.96
373.879	371.9
374.26	383.87
374.641	374.16
375.021	367.15
375.402	389.98
375.783	392.46
376.163	395.17
376.544	373.03
376.925	384.55
377.305	398.79
377.686	378.22
378.066	381.84
378.447	394.27
378.827	389.98
379.208	385.23
379.588	390.88
379.968	409.64
380.349	422.07
380.729	417.77
381.109	414.38
381.489	442.86
381.87	415.06
382.25	427.49
382.63	404.89
383.01	444.66
383.39	410.09
383.77	427.26
384.15	408.28
384.53	440.6
384.91	435.85
385.29	447.15
385.67	446.47
386.049	448.51
386.429	433.36
386.809	478.11
387.189	450.09
387.568	447.15
387.948	443.08
388.328	455.28
388.707	460.71
389.087	471.56
389.466	486.47
389.846	484.89
390.225	479.01
390.605	499.35
390.984	462.74
391.363	487.83
391.743	497.77
392.122	497.32
392.501	519.92
392.881	519.92
393.26	512.46
393.639	528.73
394.018	508.39
394.397	509.75
394.776	498.22
395.155	539.12
395.534	533.47
395.913	543.87
396.292	559.24
396.671	529.86
397.05	537.77
397.429	555.85
397.808	537.32
398.186	557.88
398.565	560.59
398.944	552.01
399.323	583.42
399.701	566.92
400.08	581.83
400.458	579.12
400.837	562.17
401.215	593.36
401.594	602.17
401.972	598.56
402.351	602.17
402.729	597.88
403.107	609.86
403.486	620.93
403.864	622.06
404.242	625
404.62	627.03
404.999	641.27
405.377	631.1
405.755	668.16
406.133	665
406.511	652.34
406.889	673.13
407.267	691.66
407.645	664.54
408.023	698.67
408.401	712.23
408.779	718.33
409.156	732.79
409.534	715.62
409.912	735.28
410.29	742.28
410.667	771.66
411.045	763.98
411.422	753.36
411.8	760.36
412.178	772.56
412.555	803.75
412.933	804.2
413.31	818.66
413.687	812.79
414.065	816.18
414.442	837.65
414.819	849.17
415.197	875.39
415.574	861.83
415.951	879.45
416.328	903.18
416.705	885.56
417.082	905.67
417.46	888.27
417.837	919
418.214	923.97
418.591	947.7
418.967	931.88
419.344	922.17
419.721	939.34
420.098	965.78
420.475	934.14
420.852	978.21
421.228	979.79
421.605	997.42
421.982	1007.81
422.358	1024.31
422.735	1017.3
423.111	1019.34
423.488	1053.91
423.864	1038.32
424.241	1083.29
424.617	1064.99
424.994	1096.17
425.37	1061.6
425.746	1087.36
426.123	1092.78
426.499	1121.93
426.875	1137.3
427.251	1143.18
427.627	1188.6
428.003	1198.32
428.379	1173.23
428.756	1196.51
429.132	1230.18
429.507	1223.4
429.883	1238.31
430.259	1247.13
430.635	1263.4
431.011	1294.36
431.387	1314.92
431.763	1340.69
432.138	1319.89
432.514	1337.07
432.89	1341.59
433.265	1391.08
433.641	1404.19
434.016	1394.02
434.392	1462.26
434.767	1450.06
435.143	1458.65
435.518	1457.29
435.894	1496.16
436.269	1550.62
436.644	1520.12
437.02	1556.27
437.395	1563.05
437.77	1594.92
438.145	1629.49
438.52	1620.45
438.895	1652.54
439.271	1623.84
439.646	1671.75
440.021	1681.24
440.395	1712.65
440.77	1699.77
441.145	1714.69
441.52	1724.86
441.895	1739.77
442.27	1743.16
442.645	1750.17
443.019	1760.11
443.394	1770.28
443.769	1796.49
444.143	1799.66
444.518	1798.53
444.892	1794.68
445.267	1823.16
445.641	1837.85
446.016	1868.13
446.39	1880.11
446.764	1881.01
447.139	1849.6
447.513	1896.6
447.887	1918.75
448.262	1919.65
448.636	1927.79
449.01	1934.34
449.384	1974.57
449.758	2000.78
450.132	1986.09
450.506	2014.79
450.88	2051.4
451.254	2038.29
451.628	2055.47
452.002	2105.86
452.376	2123.04
452.75	2125.3
453.123	2136.82
453.497	2163.94
453.871	2181.11
454.244	2237.38
454.618	2223.6
454.992	2260.89
455.365	2293.2
455.739	2349.92
456.112	2329.13
456.486	2386.76
456.859	2393.54
457.232	2426.76
457.606	2450.71
457.979	2478.28
458.352	2517.15
458.725	2551.73
459.099	2578.84
459.472	2585.85
459.845	2670.14
460.218	2663.59
460.591	2692.06
460.964	2716.02
461.337	2737.71
461.71	2792.4
462.083	2818.61
462.456	2821.32
462.829	2864.94
463.201	2918.95
463.574	2859.74
463.947	2946.97
464.32	2911.04
464.692	2991.49
465.065	3012.96
465.438	3067.42
465.81	3086.63
466.183	3085.27
466.555	3160.98
466.928	3193.74
467.3	3183.35
467.672	3242.33
468.045	3316
468.417	3258.83
468.789	3329.56
469.161	3359.16
469.534	3404.13
469.906	3476
470.278	3496.33
470.65	3517.13
471.022	3566.62
471.394	3628.76
471.766	3679.38
472.138	3693.62
472.51	3804.35
472.882	3802.99
473.253	3808.64
473.625	3870.11
473.997	3936.78
474.369	3965.93
474.74	4019.26
475.112	4061.29
475.484	4167.96
475.855	4195.53
476.227	4225.58
476.598	4321.62
476.97	4362.3
477.341	4490.88
477.713	4505.35
478.084	4534.05
478.455	4671.67
478.827	4698.11
479.198	4793.7
479.569	4806.58
479.94	4995.96
480.311	4976.07
480.682	5054.49
481.053	5149.85
481.424	5216.29
481.795	5305.78
482.166	5380.13
482.537	5452.89
482.908	5516.17
483.279	5630.74
483.65	5691.53
484.021	5799.55
484.391	5890.62
484.762	5985.31
485.133	6032.31
485.503	6139.43
485.874	6238.64
486.244	6231.18
486.615	6368.12
486.985	6438.4
487.356	6518.85
487.726	6601.11
488.097	6741.45
488.467	6796.81
488.837	6897.15
489.207	6953.19
489.578	7163.81
489.948	7217.37
490.318	7280.87
490.688	7289
491.058	7431.82
491.428	7477.92
491.798	7580.75
492.168	7707.3
492.538	7804.02
492.908	7898.93
493.278	8003.33
493.648	8064.12
494.017	8127.85
494.387	8202.2
494.757	8241.52
495.126	8339.6
495.496	8388.64
495.866	8479.03
496.235	8514.73
496.605	8569.65
496.974	8667.72
497.344	8720.83
497.713	8769.42
498.082	8822.52
498.452	8922.18
498.821	8916.31
499.19	8943.2
499.559	9002.18
499.928	9095.51
500.298	9163.76
500.667	9234.26
501.036	9256.64
501.405	9253.92
501.774	9359.01
502.143	9507.25
502.512	9468.61
502.88	9599.9
503.249	9527.59
503.618	9629.28
503.987	9637.87
504.356	9796.06
504.724	9841.25
505.093	9847.13
505.462	9853.68
505.83	9906.11
506.199	10004.86
506.567	10093.9
506.936	10092.77
507.304	10217.51
507.672	10204.41
508.041	10341.13
508.409	10420.45
508.777	10457.28
509.145	10488.47
509.514	10568.92
509.882	10654.56
510.25	10681.46
510.618	10793.77
510.986	10682.13
511.354	10809.59
511.722	10934.11
512.09	11022.46
512.458	11049.58
512.826	11155.34
513.193	11099.3
513.561	11271.72
513.929	11271.72
514.297	11413.87
514.664	11394.21
515.032	11474.88
515.4	11617.93
515.767	11644.59
516.135	11732.28
516.502	11685.05
516.869	11962.78
517.237	11898.37
517.604	11914.87
517.972	12116.9
518.339	12179.95
518.706	12214.52
519.073	12240.96
519.44	12323
519.808	12497.45
520.175	12570.45
520.542	12677.56
520.909	12723.44
521.276	12792.36
521.643	12947.16
522.009	13056.54
522.376	13182.86
522.743	13228.06
523.11	13354.38
523.477	13485.45
523.843	13554.83
524.21	13697.42
524.577	13799.57
524.943	13840.47
525.31	14002.05
525.676	14148.48
526.043	14274.81
526.409	14395.03
526.776	14485.88
527.142	14513.67
527.508	14625.76
527.874	14783.72
528.241	14887.67
528.607	14907.79
528.973	15128.12
529.339	15126.31
529.705	15312.75
530.071	15490.14
530.437	15555.68
530.803	15601.55
531.169	15713.41
531.535	15797.71
531.901	15845.39
532.267	15912.28
532.632	16078.6
532.998	16179.39
533.364	16226.85
533.73	16263
534.095	16493.06
534.461	16441.3
534.826	16624.8
535.192	16622.09
535.557	16794.74
535.923	16824.35
536.288	16836.32
536.653	17011.91
537.019	16995.19
537.384	17052.59
537.749	17052.14
538.114	17153.83
538.479	17161.06
538.845	17353.6
539.21	17273.6
539.575	17412.13
539.94	17543.65
540.305	17509.98
540.67	17479.92
541.034	17652.8
541.399	17704.32
541.764	17761.27
542.129	17786.13
542.494	17897.09
542.858	17967.14
543.223	17912.9
543.587	17989.51
543.952	18001.49
544.316	18149.51
544.681	18114.03
545.045	18209.17
545.41	18307.02
545.774	18313.57
546.138	18233.12
546.503	18438.31
546.867	18439.67
547.231	18531.42
547.595	18614.81
547.959	18594.02
548.324	18648.03
548.688	18600.12
549.052	18799.21
549.416	18770.06
549.779	18782.03
550.143	18980.67
550.507	19055.47
550.871	19048.69
551.235	19026.1
551.599	19183.38
551.962	19274
552.326	19315.81
552.689	19325.3
553.053	19339.76
553.417	19425.18
553.78	19680.99
554.143	19626.98
554.507	19678.73
554.87	19847.09
555.234	19964.15
555.597	19881.67
555.96	19955.79
556.323	20125.05
556.686	20064.71
557.05	20262.45
557.413	20383.57
557.776	20349.9
558.139	20602.1
558.502	20584.47
558.865	20657.47
559.228	20739.5
559.59	20908.31
559.953	20952.82
560.316	21293.38
560.679	21175.87
561.041	21313.95
561.404	21591.68
561.767	21805.46
562.129	21734.27
562.492	21951.44
562.854	22106.24
563.217	22119.12
563.579	22230.31
563.941	22438.44
564.304	22725.21
564.666	22842.27
565.028	22910.29
565.39	23062.83
565.753	23151.86
566.115	23308.02
566.477	23537.62
566.839	23707.55
567.201	23984.84
567.563	23978.28
567.925	24331.72
568.287	24350.7
568.648	24600.41
569.01	24891.48
569.372	25218.7
569.734	25194.3
570.095	25547.28
570.457	25671.12
570.819	25897.33
571.18	26035.18
571.542	26329.63
571.903	26430.87
572.265	26672.67
572.626	26846.68
572.987	27070.86
573.349	27261.13
573.71	27489.38
574.071	27660.22
574.432	27827.22
574.794	28191.96
575.155	28328
575.516	28308.34
575.877	28486.41
576.238	28643.47
576.599	28930.47
576.96	29001.43
577.32	29162.78
577.681	29417.01
578.042	29616.78
578.403	29738.36
578.763	29762.99
579.124	29808.64
579.485	30013.6
579.845	30147.16
580.206	30164.33
580.566	30213.82
580.927	30303.31
581.287	30499.92
581.648	30423.54
582.008	30763.87
582.368	30807.93
582.728	30789.4
583.089	30922.28
583.449	30817.88
583.809	31054.25
584.169	31166.57
584.529	30989.17
584.889	31126.57
585.249	31127.7
585.609	31065.55
585.969	31320.91
586.329	31241.37
586.688	31406.34
587.048	31333.12
587.408	31326.56
587.768	31222.61
588.127	31295.38
588.487	31263.74
588.846	31600.68
589.206	31337.18
589.565	31334.7
589.925	31578.76
590.284	31515.26
590.643	31583.05
591.003	31507.12
591.362	31675.93
591.721	31622.15
592.08	31603.39
592.44	31725.2
592.799	31719.77
593.158	31673.22
593.517	31616.73
593.876	31776.72
594.235	31702.37
594.593	31745.54
594.952	31872.54
595.311	31850.17
595.67	31904.4
596.029	32160.21
596.387	32099.42
596.746	32097.39
597.104	31938.75
597.463	32004.06
597.822	32144.85
598.18	31997.73
598.538	32071.18
598.897	32226.2
599.255	32165.19
599.613	32438.17
599.972	32273.43
600.33	32369.25
600.688	32341.68
601.046	32364.5
601.404	32684.72
601.762	32554.1
602.12	32639.3
602.478	32578.51
602.836	32559.98
603.194	32332.64
603.552	32567.43
603.91	32679.07
604.268	32709.8
604.625	32590.71
604.983	32800.87
605.341	32558.62
605.698	32736.24
606.056	33051.49
606.413	32816.47
606.771	33115.44
607.128	32897.82
607.485	32752.97
607.843	32843.13
608.2	33004.03
608.557	33033.41
608.914	33086.74
609.272	33048.1
609.629	33271.82
609.986	33419.16
610.343	33387.53
610.7	33605.83
611.057	33400.41
611.414	33360.18
611.771	33586.16
612.127	33634.53
612.484	33575.77
612.841	33705.94
613.198	33568.54
613.554	33454.42
613.911	33711.36
614.267	33822.09
614.624	33881.52
614.98	34010.79
615.337	34248.29
615.693	33914.74
616.05	34128.75
616.406	34092.82
616.762	34001.75
617.118	34031.35
617.475	34160.16
617.831	34326.48
618.187	34363.77
618.543	34367.84
618.899	34517.67
619.255	34414.62
619.611	34394.73
619.967	34541.85
620.323	34601.05
620.678	34547.72
621.034	34390.89
621.39	34466.14
621.746	34396.77
622.101	34808.05
622.457	34543.2
622.812	34711.11
623.168	34800.37
623.523	34839.92
623.879	34828.84
624.234	34492.13
624.589	34686.25
624.945	34759.02
625.3	34738
625.655	34788.85
626.01	34709.3
626.365	34745.91
626.72	34601.51
627.075	34523.99
627.43	34792.46
627.785	34726.02
628.14	34613.93
628.495	34677.21
628.85	34738.45
629.205	34595.86
629.559	34745.23
629.914	34563.54
630.269	34639.24
630.623	34448.06
630.978	34270.67
631.332	34511.79
631.687	34546.14
632.041	34363.32
632.396	34267.05
632.75	34272.25
633.104	34439.7
633.459	34140.95
633.813	34202.42
634.167	34150.22
634.521	34063.44
634.875	34071.35
635.229	34080.39
635.583	33986.15
635.937	33884.69
636.291	33924.01
636.645	33813.96
636.999	33668.2
637.352	33710.46
637.706	33718.36
638.06	33846.27
638.413	33667.07
638.767	33464.81
639.121	33630.23
639.474	33458.03
639.828	33315.21
640.181	33494.42
640.534	33492.38
640.888	33348.21
641.241	33163.35
641.594	33247.19
641.947	33466.39
642.301	33200.19
642.654	33365.83
643.007	33229.11
643.36	33229.79
643.713	33098.72
644.066	33260.98
644.419	32940.98
644.771	32667.55
645.124	32427.78
645.477	32410.15
645.83	32232.75
646.182	32199.31
646.535	32100.78
646.888	32257.61
647.24	32127.67
647.593	32333.54
647.945	32200.44
648.298	32064.62
648.65	31918.19
649.002	31764.74
649.355	31557.74
649.707	31463.73
650.059	31437.97
650.411	31909.82
650.763	32086.32
651.115	32780.76
651.467	32536.02
651.819	32475.69
652.171	32500.77
652.523	32336.25
652.875	32441.79
653.227	32294.9
653.578	32578.06
653.93	32444.95
654.282	32121.8
654.633	32325.41
654.985	32195.92
655.337	32470.49
655.688	32445.4
656.039	32467.55
656.391	32203.38
656.742	32357.04
657.094	32223.49
657.445	32431.84
657.796	32306.88
658.147	32226.43
658.498	32289.48
658.849	32658.05
659.2	32316.14
659.551	32311.62
659.902	32476.14
660.253	32211.51
660.604	32332.19
660.955	32194.11
661.306	32355.24
661.656	32403.15
662.007	32409.02
662.358	32398.63
662.708	32452.41
663.059	32393.43
663.409	32266.43
663.76	32557.72
664.11	32444.73
664.461	32500.54
664.811	32490.83
665.161	32466.19
665.511	32466.42
665.862	32448.57
666.212	32416.25
666.562	32475.01
666.912	32546.19
667.262	32298.29
667.612	32421.9
667.962	32442.24
668.312	32355.46
668.662	32591.16
669.011	32472.75
669.361	32536.48
669.711	32509.58
670.06	32377.84
670.41	32318.18
670.76	32402.47
671.109	32454.44
671.459	32348.01
671.808	32240.66
672.157	32288.8
672.507	32202.47
672.856	32246.99
673.205	32231.17
673.554	32354.11
673.904	32202.7
674.253	32446.08
674.602	32153.21
674.951	31804.29
675.3	31514.35
675.649	32055.58
675.998	32225.3
676.346	32182.36
676.695	32243.38
677.044	31881.35
677.393	31979.43
677.741	32030.27
678.09	31920.45
678.438	31814.69
678.787	31896.27
679.135	31848.58
679.484	31705.31
679.832	31723.16
680.181	31659.66
680.529	31641.13
680.877	31560.46
681.225	31516.16
681.573	31707.57
681.922	31421.7
682.27	31432.1
682.618	31357.07
682.966	31324.98
683.314	31223.06
683.661	31255.83
684.009	31079.34
684.357	31057.87
684.705	30950.08
685.053	30952.79
685.4	30831.89
685.748	30867.14
686.095	30708.95
686.443	30539.47
686.79	30564.55
687.138	30644.55
687.485	30534.72
687.832	30372.46
688.18	30328.17
688.527	30216.54
688.874	30225.35
689.221	30095.86
689.568	29897.9
689.915	29763.67
690.262	29864.23
690.609	29747.85
690.956	29649.55
691.303	29575.65
691.65	29447.97
691.997	29358.03
692.344	29235.54
692.69	29185.15
693.037	29267.86
693.383	28900.64
693.73	29020.86
694.077	28772.51
694.423	28725.28
694.769	28550.82
695.116	28476.24
695.462	28261.33
695.808	28278.51
696.155	28384.27
696.501	28199.64
696.847	28217.04
697.193	28059.3
697.539	27885.98
697.885	27694.79
698.231	27662.48
698.577	27576.38
698.923	27715.58
699.269	27368.02
699.614	27224.07
699.96	27158.31
700.306	27186.33
700.651	27053
700.997	26867.92
701.342	26837.87
701.688	26754.93
702.033	26635.16
702.379	26687.59
702.724	26368.73
703.069	26538.67
703.415	26209.18
703.76	26072.69
704.105	26211.44
704.45	26033.14
704.795	25977.55
705.14	25838.35
705.485	25803.32
705.83	25742.53
706.175	25752.02
706.52	25551.8
706.865	25420.96
707.209	25387.51
707.554	25351.13
707.899	25300.51
708.243	25139.38
708.588	25139.83
708.932	24926.28
709.277	25009.22
709.621	25015.77
709.966	24854.64
710.31	24780.07
710.654	24620.98
710.998	24693.74
711.342	24784.81
711.687	24574.2
712.031	24512.51
712.375	24357.93
712.719	24515.22
713.063	24481.77
713.407	24485.16
713.75	24339.18
714.094	24264.83
714.438	24202
714.782	24255.34
715.125	23935.12
715.469	24209.69
715.812	23943.25
716.156	23964.72
716.499	23987.55
716.843	24017.38
717.186	23948.9
717.53	23966.98
717.873	24129.46
718.216	23871.17
718.559	23818.96
718.902	23609.03
719.246	23844.05
719.589	23759.76
719.932	23579.65
720.275	23685.41
720.617	23570.38
720.96	23530.38
721.303	23604.96
721.646	23650.83
721.989	23391.18
722.331	23604.96
722.674	23534.45
723.016	23452.42
723.359	23443.15
723.701	23476.6
724.044	23381.69
724.386	23287.9
724.729	23390.95
725.071	23331.97
725.413	23315.93
725.755	23370.61
726.097	23324.29
726.439	23258.75
726.782	23213.78
727.124	23321.8
727.465	23352.99
727.807	23181.69
728.149	23305.53
728.491	23314.12
728.833	23344.4
729.175	23287.45
729.516	23297.4
729.858	23316.83
730.199	23379.88
730.541	23315.7
730.882	23363.83
731.224	23338.07
731.565	23312.99
731.906	23305.31
732.248	23465.75
732.589	23365.19
732.93	23456.94
733.271	23351.63
733.612	23333.1
733.953	23470.72
734.294	23223.27
734.635	23353.21
734.976	23546.2
735.317	23445.19
735.658	23472.31
735.999	23507.56
736.339	23483.15
736.68	23578.07
737.021	23625.97
737.361	23582.59
737.702	23783.03
738.042	23710.27
738.383	23706.88
738.723	23838.17
739.063	23737.61
739.404	23955.68
739.744	23823.26
740.084	23950.26
740.424	23881.11
740.764	24029.81
741.104	24087.88
741.444	24033.42
741.784	24043.59
742.124	24159.97
742.464	24232.51
742.804	24238.84
743.143	24342.11
743.483	24525.61
743.823	24336.46
744.162	24583.24
744.502	24668.66
744.841	24703.46
745.181	24823.91
745.52	24827.53
745.86	24949.33
746.199	25028.88
746.538	25127.18
746.877	25404.23
747.216	25334.86
747.556	25464.34
747.895	25651.23
748.234	25724.9
748.573	25850.78
748.911	25794.96
749.25	25970.09
749.589	26105.23
749.928	26304.55
750.267	26412.79
750.605	26485.11
750.944	26651.66
751.283	26876.51
751.621	27006.45
751.96	26999.67
752.298	27241.7
752.636	27466.55
752.975	27612.08
753.313	27681.91
753.651	27982.24
753.989	27922.81
754.327	28191.05
754.666	28153.77
755.004	28545.62
