Data from 19-3935_FLMS001491_005.txt Node
Date: Thu Apr 19 16:40:12 BST 2018
User: hsy
Spectrometer: FLMS00149
Trigger mode: 0
Integration Time (sec): 1.000000E-2
Scans to average: 10
Electric dark correction enabled: true
Nonlinearity correction enabled: false
Boxcar width: 0
XAxis mode: Wavelengths
Number of Pixels in Spectrum: 2048
>>>>>Begin Spectral Data<<<<<
341.393	-9.53
341.776	-9.53
342.16	-9.53
342.543	-70.55
342.927	-63.77
343.31	-72.81
343.693	-77.1
344.077	-73.03
344.46	-44.79
344.843	-74.84
345.226	-49.76
345.61	-16.09
345.993	-17.67
346.376	-13.38
346.759	11.48
347.142	17.81
347.525	64.36
347.908	55.78
348.291	81.54
348.674	99.16
349.057	109.33
349.44	137.13
349.823	150.24
350.206	174.87
350.588	228.88
350.971	242.21
351.354	264.13
351.737	278.37
352.119	296.67
352.502	307.07
352.884	304.13
353.267	324.47
353.65	328.76
354.032	334.19
354.414	351.36
354.797	349.1
355.179	381.42
355.562	363.11
355.944	370.57
356.326	358.82
356.709	362.89
357.091	366.95
357.473	383
357.855	384.13
358.238	404.92
358.62	399.5
359.002	380.51
359.384	402.43
359.766	376.67
360.148	390.68
360.53	396.56
360.912	393.17
361.294	385.94
361.676	383.45
362.057	398.14
362.439	373.96
362.821	370.34
363.203	361.53
363.584	354.07
363.966	371.93
364.348	392.04
364.729	371.02
365.111	360.4
365.493	381.87
365.874	360.85
366.256	371.02
366.637	370.12
367.019	363.56
367.4	391.81
367.781	384.35
368.163	350.46
368.544	368.54
368.925	395.43
369.306	368.99
369.688	373.96
370.069	381.87
370.45	374.19
370.831	361.3
371.212	367.41
371.593	378.25
371.974	373.73
372.355	372.6
372.736	369.44
373.117	382.55
373.498	374.86
373.879	386.61
374.26	370.34
374.641	394.3
375.021	375.54
375.402	379.16
375.783	389.1
376.163	389.33
376.544	390.46
376.925	400.17
377.305	398.37
377.686	413.05
378.066	407.63
378.447	413.51
378.827	416.9
379.208	412.6
379.588	427.97
379.968	426.61
380.349	415.09
380.729	415.99
381.109	432.26
381.489	425.03
381.87	416.67
382.25	423.9
382.63	414.41
383.01	423.9
383.39	432.71
383.77	436.33
384.15	437.23
384.53	442.66
384.91	468.65
385.29	454.41
385.67	461.87
386.049	461.87
386.429	462.09
386.809	485.59
387.189	466.61
387.568	466.84
387.948	467.74
388.328	492.37
388.707	466.61
389.087	486.95
389.466	475.2
389.846	486.72
390.225	505.48
390.605	492.83
390.984	505.48
391.363	487.18
391.743	500.06
392.122	520.85
392.501	524.92
392.881	509.77
393.26	508.64
393.639	531.92
394.018	533.5
394.397	521.98
394.776	543.67
395.155	541.19
395.534	549.77
395.913	538.02
396.292	555.65
396.671	568.98
397.05	563.78
397.429	552.49
397.808	574.41
398.186	592.71
398.565	583.9
398.944	575.31
399.323	579.6
399.701	583.67
400.08	603.78
400.458	584.35
400.837	590.45
401.215	609.89
401.594	617.79
401.972	602.2
402.351	628.87
402.729	615.31
403.107	615.53
403.486	648.53
403.864	635.65
404.242	619.83
404.62	649.88
404.999	637.91
405.377	640.84
405.755	661.18
406.133	663.89
406.511	661.64
406.889	687.17
407.267	713.16
407.645	714.06
408.023	706.15
408.401	706.38
408.779	725.14
409.156	750.22
409.534	743.21
409.912	749.77
410.29	749.77
410.667	766.94
411.045	771.69
411.422	773.5
411.8	782.54
412.178	788.64
412.555	807.39
412.933	831.12
413.31	826.6
413.687	835.87
414.065	827.96
414.442	846.26
414.819	862.76
415.197	893.72
415.574	896.21
415.951	898.01
416.328	924.68
416.705	911.57
417.082	886.94
417.46	926.71
417.837	932.14
418.214	908.18
418.591	951.35
418.967	967.84
419.344	981.85
419.721	960.61
420.098	969.2
420.475	1000.38
420.852	1012.36
421.228	1001.29
421.605	1026.37
421.982	1017.78
422.358	1031.34
422.735	1034.73
423.111	1041.51
423.488	1041.06
423.864	1046.48
424.241	1083.77
424.617	1110.21
424.994	1105.92
425.37	1105.24
425.746	1141.4
426.123	1155.41
426.499	1155.18
426.875	1173.03
427.251	1185.01
427.627	1203.09
428.003	1185.24
428.379	1219.36
428.756	1225.69
429.132	1273.82
429.507	1272.24
429.883	1286.03
430.259	1299.81
430.635	1314.05
431.011	1326.25
431.387	1340.26
431.763	1347.94
432.138	1376.19
432.514	1372.8
432.89	1387.94
433.265	1419.36
433.641	1462.74
434.016	1453.03
434.392	1474.5
434.767	1495.29
435.143	1506.81
435.518	1529.18
435.894	1550.65
436.269	1587.26
436.644	1599.46
437.02	1575.51
437.395	1602.63
437.77	1633.81
438.145	1619.58
438.52	1664.77
438.895	1683.76
439.271	1678.56
439.646	1729.86
440.021	1746.35
440.395	1744.32
440.77	1745.9
441.145	1733.92
441.52	1774.15
441.895	1784.32
442.27	1800.14
442.645	1794.26
443.019	1806.46
443.394	1829.97
443.769	1834.94
444.143	1840.14
444.518	1882.85
444.892	1869.06
445.267	1861.6
445.641	1908.16
446.016	1926.69
446.39	1928.72
446.764	1927.36
447.139	1953.58
447.513	1923.75
447.887	1947.03
448.262	1961.26
448.636	2002.39
449.01	2014.14
449.384	2043.07
449.758	2048.27
450.132	2091.2
450.506	2104.08
450.88	2075.16
451.254	2078.55
451.628	2094.37
452.002	2150.41
452.376	2157.42
452.75	2159.45
453.123	2192.67
453.497	2221.59
453.871	2262.05
454.244	2292.55
454.618	2303.4
454.992	2328.26
455.365	2318.31
455.739	2387.69
456.112	2360.8
456.486	2423.85
456.859	2422.94
457.232	2493.23
457.606	2524.64
457.979	2536.61
458.352	2608.93
458.725	2614.58
459.099	2611.64
459.472	2663.39
459.845	2705.65
460.218	2695.25
460.591	2727.34
460.964	2738.87
461.337	2763.95
461.71	2833.78
462.083	2868.13
462.456	2859.54
462.829	2866.77
463.201	2955.13
463.574	2940.9
463.947	2974.12
464.32	3048.47
464.692	3069.48
465.065	3052.98
465.438	3106.32
465.81	3168.24
466.183	3171.17
466.555	3234.67
466.928	3205.75
467.3	3229.7
467.672	3309.93
468.045	3382.24
468.417	3361.68
468.789	3365.97
469.161	3434.67
469.534	3457.49
469.906	3499.3
470.278	3526.19
470.65	3602.8
471.022	3636.92
471.394	3716.24
471.766	3722.35
472.138	3777.71
472.51	3799.86
472.882	3846.41
473.253	3925.96
473.625	3945.16
473.997	4023.13
474.369	4047.99
474.74	4104.26
475.112	4134.54
475.484	4231.94
475.855	4261.77
476.227	4318.26
476.598	4408.43
476.97	4426.06
477.341	4530.01
477.713	4563.91
478.084	4635.32
478.455	4713.73
478.827	4778.82
479.198	4892.26
479.569	4893.61
479.94	4987.17
480.311	5069.88
480.682	5195.75
481.053	5276.88
481.424	5357.1
481.795	5452.7
482.166	5442.53
482.537	5550.09
482.908	5693.37
483.279	5678.23
483.65	5805
484.021	5896.53
484.391	5997.77
484.762	5977.88
485.133	6050.19
485.503	6172.22
485.874	6319.34
486.244	6349.17
486.615	6474.59
486.985	6473.23
487.356	6690.63
487.726	6695.37
488.097	6868.03
488.467	6895.14
488.837	6973.11
489.207	7136.95
489.578	7184.63
489.948	7289.03
490.318	7400.67
490.688	7455.58
491.058	7525.86
491.428	7618.97
491.798	7673.88
492.168	7864.38
492.538	7872.74
492.908	7993.19
493.278	8075.68
493.648	8186.41
494.017	8212.85
494.387	8289.68
494.757	8307.54
495.126	8372.84
495.496	8518.38
495.866	8613.29
496.235	8668.88
496.605	8775.55
496.974	8806.73
497.344	8853.06
497.713	8827.07
498.082	8978.25
498.452	8975.31
498.821	8990.68
499.19	9025.71
499.559	9206.04
499.928	9207.85
500.298	9319.03
500.667	9360.39
501.036	9390.67
501.405	9468.86
501.774	9474.96
502.143	9563.55
502.512	9622.53
502.88	9665.69
503.249	9617.78
503.618	9785.01
503.987	9763.54
504.356	9795.86
504.724	9926.02
505.093	9932.8
505.462	9894.16
505.83	10115.85
506.199	10139.13
506.567	10227.71
506.936	10250.99
507.304	10296.18
507.672	10393.58
508.041	10304.55
508.409	10476.07
508.777	10543.64
509.145	10613.24
509.514	10669.28
509.882	10773.69
510.25	10720.35
510.618	10793.35
510.986	10775.27
511.354	10961.93
511.722	11022.72
512.09	11091.42
512.458	11114.69
512.826	11262.49
513.193	11213.45
513.561	11327.8
513.929	11381.81
514.297	11440.79
514.664	11606.43
515.032	11682.36
515.4	11713.77
515.767	11711.29
516.135	11793.32
516.502	11735.69
516.869	12010.49
517.237	12082.8
517.604	12020.21
517.972	12118.51
518.339	12307.43
518.706	12371.38
519.073	12417.48
519.44	12439.18
519.808	12635.33
520.175	12616.35
520.542	12826.29
520.909	12907.41
521.276	12985.83
521.643	13160.52
522.009	13198.25
522.376	13274.64
522.743	13393.28
523.11	13600.05
523.477	13623.55
523.843	13761.86
524.21	13936.54
524.577	14071.23
524.943	14097.67
525.31	14105.58
525.676	14308.06
526.043	14400.48
526.409	14402.29
526.776	14733.58
527.142	14774.48
527.508	14887.93
527.874	15024.2
528.241	15129.5
528.607	15167.24
528.973	15366.33
529.339	15342.61
529.705	15548.7
530.071	15648.59
530.437	15836.83
530.803	15907.79
531.169	15992.76
531.535	16021.68
531.901	16057.61
532.267	16166.54
532.632	16332.86
532.998	16496.7
533.364	16529.69
533.73	16629.58
534.095	16691.95
534.461	16751.83
534.826	16859.85
535.192	17009.45
535.557	17100.3
535.923	17113.18
536.288	17239.5
536.653	17187.75
537.019	17246.96
537.384	17416.67
537.749	17420.52
538.114	17569.44
538.479	17639.04
538.845	17704.12
539.21	17696.44
539.575	17712.94
539.94	17839.71
540.305	17964.01
540.67	18018.24
541.034	18005.59
541.399	18024.57
541.764	18158.35
542.129	18244.45
542.494	18257.33
542.858	18235.64
543.223	18294.84
543.587	18465.91
543.952	18449.42
544.316	18461.85
544.681	18523.99
545.045	18634.5
545.41	18695.96
545.774	18789.52
546.138	18800.14
546.503	18881.72
546.867	18883.3
547.231	18994.26
547.595	18967.37
547.959	19072.45
548.324	19070.19
548.688	19165.78
549.052	19240.13
549.416	19170.98
549.779	19282.16
550.143	19321.26
550.507	19410.07
550.871	19560.57
551.235	19555.38
551.599	19691.42
551.962	19699.78
552.326	19831.07
552.689	19846.44
553.053	19795.82
553.417	19883.73
553.78	20084.63
554.143	20051.63
554.507	20211.86
554.87	20249.14
555.234	20512.64
555.597	20395.13
555.96	20467.89
556.323	20551.73
556.686	20673.76
557.05	20839.18
557.413	20860.88
557.776	20923.93
558.139	21011.16
558.502	21215.22
558.865	21220.19
559.228	21430.35
559.59	21416.57
559.953	21567.3
560.316	21801.42
560.679	21765.26
561.041	21997.35
561.404	22052.94
561.767	22341.97
562.129	22328.86
562.492	22614.96
562.854	22751.9
563.217	22812.92
563.579	22912.12
563.941	23044.78
564.304	23358.21
564.666	23642.5
565.028	23633.91
565.39	23817.18
565.753	23997.74
566.115	24155.03
566.477	24420.56
566.839	24491.29
567.201	24790.49
567.563	24948.23
567.925	25193.87
568.287	25398.16
568.648	25556.57
569.01	25732.39
569.372	26133.73
569.734	26193.62
570.095	26537.34
570.457	26750.21
570.819	26975.07
571.18	27120.15
571.542	27444.43
571.903	27541.38
572.265	27806.46
572.626	28089.61
572.987	28309.5
573.349	28584.29
573.71	28792.87
574.071	28943.38
574.432	29230.38
574.794	29530.93
575.155	29579.74
575.516	29711.49
575.877	29962.33
576.238	30115.1
576.599	30419.5
576.96	30464.92
577.32	30750.11
577.681	30885.7
578.042	31271.45
578.403	31272.81
578.763	31299.93
579.124	31498.11
579.485	31738.33
579.845	31836.41
580.206	31884.09
580.566	31971.77
580.927	32009.74
581.287	32192.11
581.648	32172.22
582.008	32574.24
582.368	32588.25
582.728	32563.17
583.089	32605.65
583.449	32644.75
583.809	32924.06
584.169	33041.12
584.529	32840.9
584.889	33064.85
585.249	32884.97
585.609	32854.01
585.969	33081.35
586.329	33072.31
586.688	33279.31
587.048	33131.97
587.408	33125.41
587.768	33110.05
588.127	33177.39
588.487	33187.56
588.846	33437.95
589.206	33123.38
589.565	33364.73
589.925	33470.72
590.284	33360.21
590.643	33415.12
591.003	33419.42
591.362	33640.2
591.721	33516.14
592.08	33485.4
592.44	33721.56
592.799	33574.89
593.158	33563.14
593.517	33614.44
593.876	33569.02
594.235	33632.29
594.593	33653.31
594.952	33787.54
595.311	33810.37
595.67	33873.64
596.029	33995.22
596.387	34004.26
596.746	34049.91
597.104	33847.43
597.463	33849.46
597.822	34106.86
598.18	33999.52
598.538	33971.72
598.897	34247.87
599.255	34054.88
599.613	34432.72
599.972	34188.44
600.33	34283.35
600.688	34156.35
601.046	34242.67
601.404	34462.33
601.762	34415.78
602.12	34570.8
602.478	34379.62
602.836	34499.62
603.194	34368.77
603.552	34572.83
603.91	34513.63
604.268	34458.26
604.625	34620.52
604.983	34712.27
605.341	34564.7
605.698	34756.56
606.056	34867.52
606.413	34645.15
606.771	34923.79
607.128	34853.96
607.485	34704.13
607.843	34757.24
608.2	34836.78
608.557	34875.65
608.914	34891.7
609.272	35184.57
609.629	35283.55
609.986	35210.33
610.343	35246.04
610.7	35447.39
611.057	35384.34
611.414	35293.72
611.771	35351.34
612.127	35459.36
612.484	35488.52
612.841	35768.28
613.198	35646.25
613.554	35562.86
613.911	35820.71
614.267	35862.07
614.624	35702.97
614.98	35784.33
615.337	36107.26
615.693	36082.4
616.05	35983.64
616.406	36093.7
616.762	35996.53
617.118	36077.43
617.475	35864.55
617.831	36218.67
618.187	36245.78
618.543	36246.91
618.899	36382.28
619.255	36324.2
619.611	36184.09
619.967	36436.97
620.323	36406.23
620.678	36394.25
621.034	36400.58
621.39	36368.49
621.746	36322.62
622.101	36693.91
622.457	36335.27
622.812	36713.79
623.168	36656.85
623.523	36740.91
623.879	36849.61
624.234	36560.8
624.589	36633.57
624.945	36646.45
625.3	36713.57
625.655	36803.28
626.01	36792.89
626.365	36590.18
626.72	36508.38
627.075	36528.49
627.43	36494.82
627.785	36587.92
628.14	36436.74
628.495	36619.56
628.85	36613.91
629.205	36255.5
629.559	36585.44
629.914	36566.23
630.269	36449.85
630.623	36327.82
630.978	36155.84
631.332	36343.63
631.687	36440.36
632.041	36256.41
632.396	36181.38
632.75	36089.63
633.104	36224.99
633.459	36024.1
633.813	35999.92
634.167	36091.21
634.521	35968.5
634.875	36060.93
635.229	35886.02
635.583	35728.28
635.937	35790.2
636.291	35763.54
636.645	35578.91
636.999	35518.57
637.352	35631.79
637.706	35352.02
638.06	35485.13
638.413	35445.35
638.767	35265.02
639.121	35342.76
639.474	35128.53
639.828	35277
640.181	35085.59
640.534	35194.96
640.888	35132.37
641.241	34978.92
641.594	35045.14
641.947	35137.56
642.301	34945.03
642.654	34963.11
643.007	34961.3
643.36	34944.8
643.713	34806.73
644.066	35034.06
644.419	34731.93
644.771	34423.01
645.124	34128.55
645.477	34220.98
645.83	33995
646.182	34057.14
646.535	33990.7
646.888	33980.53
647.24	33990.48
647.593	34197.25
647.945	33922.23
648.298	33841.78
648.65	33571.05
649.002	33395.24
649.355	33294.22
649.707	33096.71
650.059	33139.43
650.411	33674.78
650.763	33934.88
651.115	34443.57
651.467	34360.64
651.819	34440.63
652.171	34319.96
652.523	34230.92
652.875	34223.92
653.227	34111.83
653.578	34329.9
653.93	34318.15
654.282	33992.51
654.633	34037.03
654.985	34025.96
655.337	34122.45
655.688	34177.59
656.039	34306.85
656.391	33923.36
656.742	34034.32
657.094	34064.82
657.445	34108.21
657.796	34225.5
658.147	34064.15
658.498	34234.76
658.849	34139.85
659.2	34133.07
659.551	34135.11
659.902	34259.62
660.253	34198.83
660.604	34295.78
660.955	34154.31
661.306	34321.77
661.656	34223.92
662.007	34296.01
662.358	34248.55
662.708	34407.87
663.059	34192.28
663.409	34061.43
663.76	34317.93
664.11	34435.89
664.461	34376.45
664.811	34471.59
665.161	34375.1
665.511	34202
665.862	34246.51
666.212	34391.82
666.562	34445.38
666.912	34339.17
667.262	34138.5
667.612	34189.34
667.962	34363.57
668.312	34204.03
668.662	34377.36
669.011	34456
669.361	34237.7
669.711	34322.44
670.06	34166.74
670.41	34098.95
670.76	34302.56
671.109	34466.4
671.459	34089
671.808	34192.05
672.157	34332.16
672.507	34074.99
672.856	33896.24
673.205	34060.53
673.554	34263.92
673.904	34037.48
674.253	34355.44
674.602	34009.46
674.951	33649.92
675.3	33431.17
675.649	34084.49
675.998	33996.8
676.346	33936.24
676.695	33949.57
677.044	33638.17
677.393	33819.86
677.741	33920.87
678.09	33657.38
678.438	33494.67
678.787	33689.02
679.135	33550.71
679.484	33317.27
679.832	33597.27
680.181	33459.42
680.529	33505.29
680.877	33331.06
681.225	33326.54
681.573	33476.37
681.922	33281.57
682.27	33170.16
682.618	33089.48
682.966	33175.58
683.314	33058.98
683.661	32974.23
684.009	32877.96
684.357	32845.87
684.705	32707.12
685.053	32853.11
685.4	32707.57
685.748	32460.35
686.095	32486.56
686.443	32314.59
686.79	32291.09
687.138	32388.03
687.485	32285.21
687.832	32070.98
688.18	32041.6
688.527	31901.04
688.874	31912.34
689.221	31876.18
689.568	31694.72
689.915	31606.36
690.262	31658.33
690.609	31468.73
690.956	31283.65
691.303	31422.41
691.65	31238.68
691.997	31087.28
692.344	31059.48
692.69	30979.03
693.037	30945.58
693.383	30680.28
693.73	30692.48
694.077	30497.46
694.423	30459.04
694.769	30294.75
695.116	30312.83
695.462	30187.64
695.808	29967.31
696.155	30029.45
696.501	29683.7
696.847	29702.23
697.193	29508.56
697.539	29591.5
697.885	29403.03
698.231	29183.82
698.577	29119.19
698.923	29145.86
699.269	28908.12
699.614	28862.7
699.96	28697.51
700.306	28597.4
700.651	28603.27
700.997	28311.98
701.342	28430.4
701.688	28304.52
702.033	28159.44
702.379	28154.25
702.724	27881.94
703.069	27990.86
703.415	27644.2
703.76	27611.44
704.105	27592.45
704.45	27500.93
704.795	27402.4
705.14	27285.57
705.485	27262.97
705.83	27119.02
706.175	27193.82
706.52	27253.48
706.865	26972.36
707.209	26954.5
707.554	26815.52
707.899	26826.6
708.243	26561.07
708.588	26582.31
708.932	26453.73
709.277	26424.12
709.621	26211.02
709.966	26238.82
710.31	26129.44
710.654	25904.36
710.998	26084.92
711.342	26095.32
711.687	26029.33
712.031	25837.02
712.375	25721.54
712.719	25626.4
713.063	25662.79
713.407	25855.55
713.75	25573.97
714.094	25604.71
714.438	25478.84
714.782	25460.76
715.125	25363.36
715.469	25392.06
715.812	25285.39
716.156	25250.37
716.499	25300.08
716.843	25167.21
717.186	25133.08
717.53	25204.94
717.873	25290.59
718.216	25136.7
718.559	25044.5
718.902	24863.71
719.246	24981.67
719.589	24870.04
719.932	24936.7
720.275	24846.08
720.617	24947.32
720.96	24785.52
721.303	24991.39
721.646	24824.84
721.989	24771.06
722.331	24879.53
722.674	24864.39
723.016	24762.24
723.359	24731.51
723.701	24644.73
724.044	24645.41
724.386	24464.63
724.729	24703.26
725.071	24616.94
725.413	24693.55
725.755	24757.72
726.097	24520.44
726.439	24495.36
726.782	24594.11
727.124	24599.08
727.465	24641.34
727.807	24557.5
728.149	24633.89
728.491	24567.22
728.833	24574.45
729.175	24556.6
729.516	24609.48
729.858	24522.48
730.199	24565.87
730.541	24592.98
730.882	24631.4
731.224	24742.36
731.565	24531.52
731.906	24612.87
732.248	24783.71
732.589	24518.18
732.93	24569.93
733.271	24572.64
733.612	24676.6
733.953	24776.48
734.294	24666.88
734.635	24626.2
734.976	24835.01
735.317	24712.98
735.658	24780.77
735.999	24722.02
736.339	24831.62
736.68	24888.79
737.021	24799.08
737.361	24811.96
737.702	25060.77
738.042	24974.44
738.383	25009.47
738.723	25099.64
739.063	25077.26
739.404	25176.24
739.744	25099.64
740.084	25129.47
740.424	25287.43
740.764	25282.46
741.104	25510.93
741.444	25324.04
741.784	25365.39
742.124	25481.1
742.464	25630.24
742.804	25595.22
743.143	25669.79
743.483	25904.36
743.823	25728.77
744.162	25879.05
744.502	26003.57
744.841	26064.58
745.181	26280.17
745.52	26240.17
745.86	26236.56
746.199	26340.51
746.538	26488.07
746.877	26846.71
747.216	26816.43
747.556	26902.08
747.895	27004.9
748.234	26988.85
748.573	27280.6
748.911	27301.39
749.25	27406.92
749.589	27485.79
749.928	27796.97
750.267	27881.94
750.605	27964.65
750.944	28135.49
751.283	28231.76
751.621	28505.87
751.96	28585.65
752.298	28711.97
752.636	28864.51
752.975	28964.85
753.313	29027.22
753.651	29423.14
753.989	29361.67
754.327	29728.44
754.666	29658.84
