Data from 19-3921_FLMS001491_004.txt Node
Date: Thu Apr 19 16:42:00 BST 2018
User: hsy
Spectrometer: FLMS00149
Trigger mode: 0
Integration Time (sec): 1.000000E-2
Scans to average: 10
Electric dark correction enabled: true
Nonlinearity correction enabled: false
Boxcar width: 0
XAxis mode: Wavelengths
Number of Pixels in Spectrum: 2048
>>>>>Begin Spectral Data<<<<<
341.393	5.18
341.776	5.18
342.16	5.18
342.543	-71.42
342.927	-74.59
343.31	-68.26
343.693	-83.18
344.077	-63.74
344.46	-65.1
344.843	-41.82
345.226	-55.83
345.61	-45.89
345.993	0.44
346.376	-16.51
346.759	9.7
347.142	29.14
347.525	60.32
347.908	72.75
348.291	69.14
348.674	100.55
349.057	98.29
349.44	135.8
349.823	125.63
350.206	157.5
350.588	213.99
350.971	254.44
351.354	260.77
351.737	271.39
352.119	267.78
352.502	270.49
352.884	293.09
353.267	304.61
353.65	320.43
354.032	313.2
354.414	324.05
354.797	323.82
355.179	336.47
355.562	350.26
355.944	359.07
356.326	354.33
356.709	364.72
357.091	351.84
357.473	364.27
357.855	381.44
358.238	355.68
358.62	365.85
359.002	373.54
359.384	360.88
359.766	386.87
360.148	354.55
360.53	358.39
360.912	366.08
361.294	356.36
361.676	354.33
362.057	367.89
362.439	358.85
362.821	359.98
363.203	382.35
363.584	366.08
363.966	365.85
364.348	373.99
364.729	355.23
365.111	351.84
365.493	342.8
365.874	357.72
366.256	381.67
366.637	348
367.019	372.41
367.4	356.13
367.781	345.74
368.163	368.79
368.544	336.47
368.925	336.7
369.306	359.07
369.688	359.07
370.069	359.07
370.45	360.88
370.831	369.24
371.212	357.04
371.593	353.65
371.974	361.33
372.355	349.58
372.736	358.85
373.117	358.62
373.498	351.84
373.879	367.21
374.26	349.81
374.641	360.43
375.021	349.36
375.402	368.34
375.783	378.73
376.163	384.38
376.544	388.45
376.925	406.3
377.305	390.71
377.686	368.34
378.066	375.8
378.447	382.8
378.827	386.19
379.208	378.28
379.588	403.14
379.968	394.78
380.349	399.52
380.729	404.04
381.109	411.27
381.489	403.82
381.87	392.52
382.25	412.63
382.63	419.86
383.01	414.21
383.39	417.6
383.77	423.25
384.15	417.15
384.53	441.56
384.91	437.94
385.29	433.19
385.67	417.83
386.049	449.69
386.429	435.68
386.809	457.37
387.189	450.6
387.568	444.27
387.948	452.63
388.328	448.11
388.707	457.15
389.087	445.85
389.466	456.47
389.846	477.26
390.225	459.63
390.605	474.32
390.984	464.15
391.363	468
391.743	486.53
392.122	492.18
392.501	515.23
392.881	479.75
393.26	498.05
393.639	493.98
394.018	526.98
394.397	504.61
394.776	512.51
395.155	498.5
395.534	527.2
395.913	512.74
396.292	522.46
396.671	532.85
397.05	532.85
397.429	534.44
397.808	529.24
398.186	528.33
398.565	527.43
398.944	567.2
399.323	523.14
399.701	563.13
400.08	553.42
400.458	553.42
400.837	563.59
401.215	568.78
401.594	584.15
401.972	586.41
402.351	552.74
402.729	579.41
403.107	580.54
403.486	589.57
403.864	610.37
404.242	596.13
404.62	603.13
404.999	606.07
405.377	612.4
405.755	627.77
406.133	619.86
406.511	675
406.889	665.28
407.267	647.43
407.645	666.64
408.023	636.13
408.401	671.15
408.779	668.22
409.156	663.7
409.534	680.42
409.912	705.73
410.29	717.26
410.667	704.6
411.045	720.87
411.422	721.55
411.8	730.36
412.178	757.48
412.555	773.75
412.933	766.75
413.31	764.71
413.687	786.18
414.065	766.07
414.442	796.8
414.819	798.61
415.197	802.9
415.574	808.33
415.951	821.66
416.328	797.25
416.705	833.41
417.082	827.99
417.46	831.83
417.837	832.96
418.214	844.94
418.591	846.07
418.967	859.62
419.344	867.76
419.721	883.58
420.098	889.68
420.475	905.5
420.852	893.97
421.228	867.76
421.605	901.43
421.982	911.15
422.358	955.89
422.735	932.16
423.111	937.36
423.488	929.68
423.864	969.9
424.241	976.46
424.617	981.65
424.994	972.62
425.37	997.7
425.746	1014.65
426.123	999.96
426.499	1016.91
426.875	1034.53
427.251	1051.48
427.627	1054.87
428.003	1049.68
428.379	1091.93
428.756	1104.14
429.132	1102.56
429.507	1150.24
429.883	1128.77
430.259	1135.1
430.635	1170.8
431.011	1172.16
431.387	1187.98
431.763	1215.1
432.138	1208.09
432.514	1206.28
432.89	1201.08
433.265	1278.37
433.641	1281.08
434.016	1281.53
434.392	1294.87
434.767	1313.85
435.143	1320.4
435.518	1330.8
435.894	1375.54
436.269	1388.42
436.644	1363.57
437.02	1440.17
437.395	1430.23
437.77	1421.19
438.145	1438.59
438.52	1431.13
438.895	1479.27
439.271	1464.13
439.646	1514.75
440.021	1536.44
440.395	1527.18
440.77	1525.82
441.145	1546.84
441.52	1567.4
441.895	1594.97
442.27	1551.36
442.645	1557.01
443.019	1597.68
443.394	1607.4
443.769	1600.85
444.143	1614.41
444.518	1625.25
444.892	1647.4
445.267	1651.69
445.641	1621.19
446.016	1640.62
446.39	1694.4
446.764	1674.74
447.139	1668.19
447.513	1684.01
447.887	1702.77
448.262	1689.43
448.636	1704.35
449.01	1762.2
449.384	1735.76
449.758	1776.44
450.132	1786.38
450.506	1784.12
450.88	1783.67
451.254	1768.75
451.628	1827.96
452.002	1863.21
452.376	1873.16
452.75	1922.65
453.123	1873.16
453.497	1949.77
453.871	1942.76
454.244	1997.9
454.618	1995.87
454.992	2001.29
455.365	2014.62
455.739	2055.75
456.112	2099.14
456.486	2099.59
456.859	2112.25
457.232	2152.7
457.606	2159.03
457.979	2196.99
458.352	2243.99
458.725	2248.29
459.099	2271.79
459.472	2292.13
459.845	2314.73
460.218	2305.24
460.591	2372.13
460.964	2382.3
461.337	2410.09
461.71	2434.27
462.083	2474.05
462.456	2505.46
462.829	2516.76
463.201	2551.78
463.574	2575.96
463.947	2601.5
464.32	2611.89
464.692	2636.98
465.065	2685.79
465.438	2705.9
465.81	2750.65
466.183	2754.72
466.555	2827.71
466.928	2842.85
467.3	2836.97
467.672	2832.91
468.045	2928.5
468.417	2885.56
468.789	2934.37
469.161	3005.1
469.534	2996.74
469.906	3095.05
470.278	3124.65
470.65	3153.58
471.022	3169.62
471.394	3261.14
471.766	3236.28
472.138	3282.61
472.51	3294.14
472.882	3347.02
473.253	3417.3
473.625	3432.44
473.997	3505.43
474.369	3531.19
474.74	3568.25
475.112	3637.18
475.484	3671.53
475.855	3714.24
476.227	3754.46
476.598	3904.97
476.97	3910.39
477.341	3947
477.713	4040.78
478.084	4035.59
478.455	4143.61
478.827	4162.81
479.198	4280.78
479.569	4271.74
479.94	4364.39
480.311	4431.73
480.682	4525.29
481.053	4636.47
481.424	4694.33
481.795	4764.38
482.166	4849.12
482.537	4832.18
482.908	4929.57
483.279	4979.74
483.65	5147.87
484.021	5190.58
484.391	5308.32
484.762	5308.32
485.133	5345.16
485.503	5407.53
485.874	5594.87
486.244	5578.82
486.615	5716.22
486.985	5788.53
487.356	5853.39
487.726	5904.92
488.097	6015.42
488.467	6068.3
488.837	6160.05
489.207	6246.83
489.578	6354.4
489.948	6408.63
490.318	6566.59
490.688	6526.14
491.058	6671
491.428	6756.19
491.798	6784.89
492.168	6928.17
492.538	6972.68
492.908	7049.07
493.278	7087.48
493.648	7164.54
494.017	7245.22
494.387	7362.28
494.757	7353.69
495.126	7368.83
495.496	7452.45
495.866	7579.45
496.235	7616.73
496.605	7741.7
496.974	7746.67
497.344	7830.06
497.713	7914.13
498.082	7896.95
498.452	7960.91
498.821	8050.62
499.19	8055.37
499.559	8155.25
499.928	8153.9
500.298	8229.6
500.667	8261.69
501.036	8315.7
501.405	8381.23
501.774	8422.82
502.143	8507.11
502.512	8523.38
502.88	8599.99
503.249	8581.46
503.618	8686.31
503.987	8730.6
504.356	8811.05
504.724	8890.37
505.093	8854.22
505.462	8965.85
505.83	8940.32
506.199	9081.78
506.567	9127.43
506.936	9161.1
507.304	9231.83
507.672	9276.8
508.041	9321.32
508.409	9433.86
508.777	9511.15
509.145	9577.36
509.514	9575.78
509.882	9651.26
510.25	9696.91
510.618	9786.4
510.986	9787.98
511.354	9832.95
511.722	9983.9
512.09	10110.68
512.458	10070
512.826	10155.65
513.193	10261.41
513.561	10248.3
513.929	10325.14
514.297	10398.36
514.664	10503.66
515.032	10549.31
515.4	10653.94
515.767	10661.85
516.135	10791.57
516.502	10731.68
516.869	10982.3
517.237	10974.16
517.604	10872.24
517.972	11105.46
518.339	11233.59
518.706	11257.32
519.073	11328.05
519.44	11439.91
519.808	11543.86
520.175	11470.64
520.542	11738.89
520.909	11834.93
521.276	11882.16
521.643	11900.69
522.009	12090.29
522.376	12247.12
522.743	12285.09
523.11	12380.45
523.477	12482.82
523.843	12649.82
524.21	12782.7
524.577	12832.87
524.943	13008.68
525.31	13043.94
525.676	13162.8
526.043	13312.63
526.409	13418.16
526.776	13471.95
527.142	13512.85
527.508	13704.48
527.874	13867.87
528.241	13777.25
528.607	13998.71
528.973	14133.63
529.339	14166.39
529.705	14372.72
530.071	14426.5
530.437	14509.89
530.803	14604.8
531.169	14761.41
531.535	14751.69
531.901	14892.02
532.267	14976.54
532.632	15082.98
532.998	15196.65
533.364	15273.93
533.73	15287.95
534.095	15538.56
534.461	15542.4
534.826	15592.12
535.192	15615.17
535.557	15745.11
535.923	15857.87
536.288	15989.85
536.653	16090.18
537.019	16032.33
537.384	16078.43
537.749	16098.55
538.114	16143.97
538.479	16216.73
538.845	16350.74
539.21	16309.39
539.575	16456.28
539.94	16515.26
540.305	16675.93
540.67	16594.13
541.034	16739.66
541.399	16755.03
541.764	16816.72
542.129	16945.08
542.494	16845.87
542.858	17057.39
543.223	17006.09
543.587	17100.1
543.952	17099.42
544.316	17177.61
544.681	17244.28
545.045	17323.15
545.41	17358.4
545.774	17406.08
546.138	17424.39
546.503	17552.29
546.867	17537.83
547.231	17691.95
547.595	17729.01
547.959	17776.92
548.324	17771.5
548.688	17961.32
549.052	17997.25
549.416	18043.58
549.779	18046.52
550.143	18128.77
550.507	18217.13
550.871	18255.78
551.235	18269.11
551.599	18439.28
551.962	18496.45
552.326	18527.41
552.689	18640.17
553.053	18595.43
553.417	18759.49
553.78	18829.55
554.143	18835.87
554.507	18973.72
554.87	19031.35
555.234	19227.73
555.597	19070.9
555.96	19302.3
556.323	19356.99
556.686	19373.26
557.05	19561.51
557.413	19586.59
557.776	19643.76
558.139	19974.38
558.502	19814.83
558.865	19904.77
559.228	20166.69
559.59	20200.13
559.953	20173.47
560.316	20490.29
560.679	20639.44
561.041	20725.09
561.404	20847.35
561.767	21082.14
562.129	20945.2
562.492	21149.49
562.854	21231.97
563.217	21387.67
563.579	21464.51
563.941	21579.98
564.304	21809.36
564.666	22180.87
565.028	22084.38
565.39	22259.97
565.753	22540.86
566.115	22500.19
566.477	22735.43
566.839	22848.2
567.201	23089.1
567.563	23237.34
567.925	23375.64
568.287	23430.56
568.648	23741.96
569.01	23922.97
569.372	24206.13
569.734	24207.26
570.095	24474.14
570.457	24733.8
570.819	24846.79
571.18	24879.56
571.542	25179.66
571.903	25345.08
572.265	25464.85
572.626	25624.4
572.987	25858.06
573.349	25907.33
573.71	26220.77
574.071	26391.38
574.432	26554.99
574.794	26781.88
575.155	26931.93
575.516	27043.34
575.877	27166.96
576.238	27250.34
576.599	27488.98
576.96	27599.94
577.32	27702.99
577.681	27916.99
578.042	28225.23
578.403	28156.99
578.763	28258
579.124	28454.15
579.485	28650.53
579.845	28620.7
580.206	28732.11
580.566	28732.56
580.927	28871.77
581.287	29087.81
581.648	29146.34
582.008	29134.36
582.368	29355.37
582.728	29251.65
583.089	29236.51
583.449	29300.91
583.809	29438.08
584.169	29409.83
584.529	29333.23
584.889	29672.2
585.249	29445.09
585.609	29343.17
585.969	29674.23
586.329	29509.27
586.688	29665.65
587.048	29646.21
587.408	29595.82
587.768	29767.34
588.127	29712.88
588.487	29709.94
588.846	29976.6
589.206	29697.06
589.565	29663.84
589.925	29894.57
590.284	29828.58
590.643	29756.27
591.003	29765.3
591.362	29898.86
591.721	29889.82
592.08	29942.7
592.44	29973.89
592.799	29831.74
593.158	29787.45
593.517	29806.89
593.876	29874.45
594.235	29975.47
594.593	30022.25
594.952	29933.44
595.311	29874.45
595.67	29938.41
596.029	30083.71
596.387	30054.79
596.746	30201.45
597.104	30022.93
597.463	30085.3
597.822	30231.06
598.18	30015.69
598.538	30153.32
598.897	30117.84
599.255	29955.36
599.613	30408.68
599.972	30104.05
600.33	30161.23
600.688	29993.32
601.046	30266.31
601.404	30388.34
601.762	30269.47
602.12	30380.43
602.478	30393.76
602.836	30369.36
603.194	30223.82
603.552	30309.7
603.91	30390.15
604.268	30298.17
604.625	30328
604.983	30471.5
605.341	30352.63
605.698	30382.46
606.056	30716.24
606.413	30458.85
606.771	30743.13
607.128	30564.15
607.485	30429.24
607.843	30458.39
608.2	30684.38
608.557	30723.92
608.914	30537.71
609.272	30738.16
609.629	30907.87
609.986	30923.92
610.343	30886.63
610.7	31054.76
611.057	30893.18
611.414	30982.9
611.771	31055.21
612.127	31026.97
612.484	31146.74
612.841	31163.69
613.198	31021.09
613.554	31042.33
613.911	31348.31
614.267	31255.44
614.624	31066.97
614.98	31310.35
615.337	31559.38
615.693	31434.87
616.05	31473.28
616.406	31570.46
616.762	31595.54
617.118	31504.92
617.475	31541.08
617.831	31717.12
618.187	31548.53
618.543	31659.94
618.899	31817.23
619.255	31661.75
619.611	31640.51
619.967	31936.55
620.323	31939.49
620.678	31835.31
621.034	31869.2
621.39	31748.98
621.746	31789.43
622.101	31984.68
622.457	31790.79
622.812	31968.64
623.168	31933.61
623.523	31946.04
623.879	32033.49
624.234	31887.51
624.589	31966.15
624.945	31856.55
625.3	31940.61
625.655	32137.22
626.01	32077.79
626.365	32046.83
626.72	31985.13
627.075	31858.58
627.43	31929.32
627.785	31978.13
628.14	31982.87
628.495	32088.86
628.85	32015.64
629.205	32003.21
629.559	32082.31
629.914	31835.98
630.269	31781.75
630.623	31771.35
630.978	31596.22
631.332	31831.47
631.687	31882.99
632.041	31685.25
632.396	31760.05
632.75	31718.47
633.104	31807.96
633.459	31521.87
633.813	31565.26
634.167	31560.51
634.521	31572.94
634.875	31465.6
635.229	31468.31
635.583	31207.75
635.937	31273.97
636.291	31306.06
636.645	31309.22
636.999	31156
637.352	31258.37
637.706	31053.18
638.06	31152.84
638.413	31063.35
638.767	30950.13
639.121	30928.66
639.474	30825.16
639.828	30897.93
640.181	30848.21
640.534	30820.64
640.888	30715.11
641.241	30684.15
641.594	30631.72
641.947	30630.59
642.301	30542.23
642.654	30542.46
643.007	30505.62
643.36	30528.67
643.713	30472.18
644.066	30596.47
644.419	30371.62
644.771	30134.56
645.124	29816.15
645.477	29686.44
645.83	29750.39
646.182	29746.55
646.535	29656.38
646.888	29812.31
647.24	29570.51
647.593	29826.55
647.945	29639.66
648.298	29461.58
648.65	29336.16
649.002	29157.41
649.355	29034.48
649.707	28954.03
650.059	28716.29
650.411	29428.82
650.763	29422.94
651.115	30078.52
651.467	29885.75
651.819	29979.08
652.171	29845.98
652.523	29778.86
652.875	29794.46
653.227	29707
653.578	29830.84
653.93	29830.39
654.282	29641.69
654.633	29656.83
654.985	29744.74
655.337	29634.01
655.688	29530.73
656.039	29674.46
656.391	29545.65
656.742	29498.65
657.094	29617.96
657.445	29580.68
657.796	29668.58
658.147	29540.9
658.498	29730.73
658.849	29641.92
659.2	29588.59
659.551	29508.36
659.902	29682.37
660.253	29536.38
660.604	29668.36
660.955	29449.61
661.306	29697.96
661.656	29544.97
662.007	29620
662.358	29641.92
662.708	29623.16
663.059	29613.9
663.409	29437.63
663.76	29480.34
664.11	29651.18
664.461	29709.71
664.811	29640.56
665.161	29627.68
665.511	29555.14
665.862	29625.42
666.212	29691.18
666.562	29650.05
666.912	29607.34
667.262	29547.46
667.612	29539.55
667.962	29657.96
668.312	29622.48
668.662	29714.23
669.011	29605.54
669.361	29666.32
669.711	29598.53
670.06	29495.48
670.41	29570.51
670.76	29503.84
671.109	29828.13
671.459	29572.32
671.808	29602.82
672.157	29497.74
672.507	29373.68
672.856	29425.88
673.205	29476.95
673.554	29512.88
673.904	29367.8
674.253	29507.68
674.602	29343.17
674.951	28912.9
675.3	28857.98
675.649	29338.2
675.998	29346.78
676.346	29368.71
676.695	29338.2
677.044	29338.2
677.393	29151.99
677.741	29344.75
678.09	29239.67
678.438	29107.47
678.787	29326.9
679.135	29232.44
679.484	28911.54
679.832	29224.75
680.181	28969.17
680.529	28975.95
680.877	28940.47
681.225	28899.79
681.573	29121.03
681.922	28799.45
682.27	28707.93
682.618	28840.36
682.966	28591.32
683.314	28736.18
683.661	28575.28
684.009	28558.56
684.357	28516.52
684.705	28431.1
685.053	28411.44
685.4	28138
685.748	28164.9
686.095	28178.23
686.443	28100.49
686.79	28052.36
687.138	28104.11
687.485	28101.17
687.832	27969.87
688.18	27855.98
688.527	27683.55
688.874	27662.08
689.221	27639.26
689.568	27491.92
689.915	27375.09
690.262	27444.46
690.609	27356.55
690.956	27183.9
691.303	27091.7
691.65	27106.62
691.997	27049.44
692.344	26903.46
692.69	26811.48
693.037	26873.86
693.383	26649.45
693.73	26719.96
694.077	26564.03
694.423	26433.42
694.769	26338.05
695.116	26378.5
695.462	26343.7
695.808	26035.23
696.155	26140.09
696.501	25966.53
696.847	26050.37
697.193	25715.69
697.539	25811.06
697.885	25564.29
698.231	25633.66
698.577	25495.59
698.923	25441.58
699.269	25238.87
699.614	25191.19
699.96	25058.31
700.306	25063.51
700.651	24992.78
700.997	24928.37
701.342	24894.25
701.688	24788.94
702.033	24546.01
702.379	24640.02
702.724	24427.37
703.069	24515.05
703.415	24201.16
703.76	24278.67
704.105	24277.31
704.45	24060.37
704.795	23987.38
705.14	23847.72
705.485	23879.13
705.83	23701.96
706.175	23774.5
706.52	23745.35
706.865	23563.21
707.209	23550.1
707.554	23496.09
707.899	23437.79
708.243	23334.74
708.588	23277.11
708.932	23233.27
709.277	23084.8
709.621	23082.09
709.966	22942.21
710.31	23054.52
710.654	22840.52
710.998	22981.75
711.342	22933.85
711.687	22857.92
712.031	22711.25
712.375	22628.09
712.719	22674.19
713.063	22572.73
713.407	22769.56
713.75	22620.63
714.094	22482.78
714.438	22458.38
714.782	22544.93
715.125	22291.83
715.469	22488.43
715.812	22237.14
716.156	22183.36
716.499	22215.9
716.843	22250.47
717.186	22238.05
717.53	22127.09
717.873	22231.49
718.216	22077.6
718.559	21974.1
718.902	21868.56
719.246	21941.56
719.589	22058.61
719.932	21874.21
720.275	21833.99
720.617	21928.9
720.96	21883.03
721.303	21923.93
721.646	21859.52
721.989	21683.94
722.331	21869.69
722.674	21786.53
723.016	21748.11
723.359	21730.71
723.701	21836.02
724.044	21530.49
724.386	21567.33
724.729	21594.22
725.071	21606.2
725.413	21650.26
725.755	21534.56
726.097	21563.71
726.439	21468.57
726.782	21591.06
727.124	21641.22
727.465	21487.33
727.807	21410.72
728.149	21555.8
728.491	21402.81
728.833	21478.52
729.175	21401.01
729.516	21363.04
729.858	21418.86
730.199	21537.05
730.541	21455.47
730.882	21425.41
731.224	21437.61
731.565	21429.48
731.906	21407.78
732.248	21450.04
732.589	21388.35
732.93	21424.96
733.271	21306.32
733.612	21360.55
733.953	21452.76
734.294	21381.8
734.635	21316.94
734.976	21542.02
735.317	21358.29
735.658	21449.14
735.999	21427.45
736.339	21369.59
736.68	21436.71
737.021	21522.81
737.361	21429.7
737.702	21540.44
738.042	21520.78
738.383	21521.68
738.723	21607.33
739.063	21584.05
739.404	21610.04
739.744	21601.68
740.084	21605.52
740.424	21693.65
740.764	21616.82
741.104	21780.66
741.444	21603.03
741.784	21568.91
742.124	21811.39
742.464	21753.09
742.804	21696.36
743.143	21822.69
743.483	21782.46
743.823	21862.69
744.162	21912.18
744.502	22123.47
744.841	21990.59
745.181	22127.31
745.52	22196.01
745.86	22232.62
746.199	22236.92
746.538	22273.98
746.877	22477.13
747.216	22453.18
747.556	22487.98
747.895	22612.5
748.234	22585.15
748.573	22645.27
748.911	22671.03
749.25	22698.37
749.589	22807.3
749.928	22894.53
750.267	22996.22
750.605	23027.4
750.944	22995.31
751.283	23156.67
751.621	23237.57
751.96	23173.61
752.298	23282.76
752.636	23319.82
752.975	23420.39
753.313	23442.99
753.651	23625.13
753.989	23667.61
754.327	23706.26
754.666	23697.89
755.004	23836.2
755.342	23925.23
755.679	24000.94
756.017	24007.72
