Data from 19-3935_FLMS001491_007.txt Node
Date: Thu Apr 19 16:40:17 BST 2018
User: hsy
Spectrometer: FLMS00149
Trigger mode: 0
Integration Time (sec): 1.000000E-2
Scans to average: 10
Electric dark correction enabled: true
Nonlinearity correction enabled: false
Boxcar width: 0
XAxis mode: Wavelengths
Number of Pixels in Spectrum: 2048
>>>>>Begin Spectral Data<<<<<
341.393	1.72
341.776	1.72
342.16	1.72
342.543	-54.77
342.927	-52.06
343.31	-74.43
343.693	-59.74
344.077	-37.82
344.46	-75.56
344.843	-58.39
345.226	-39.86
345.61	-47.09
345.993	-13.64
346.376	5.34
346.759	14.83
347.142	25.9
347.525	38.56
347.908	48.28
348.291	78.78
348.674	76.3
349.057	118.56
349.44	128.95
349.823	123.98
350.206	171.21
350.588	234.03
350.971	245.33
351.354	263.41
351.737	258.21
352.119	279.23
352.502	301.6
352.884	300.25
353.267	308.16
353.65	330.53
354.032	348.83
354.414	328.95
354.797	338.89
355.179	376.85
355.562	343.64
355.944	352.22
356.326	381.37
356.709	370.98
357.091	368.49
357.473	368.49
357.855	374.14
358.238	360.81
358.62	383.41
359.002	360.81
359.384	378.89
359.766	394.03
360.148	377.08
360.53	366.01
360.912	347.25
361.294	377.31
361.676	369.62
362.057	370.53
362.439	387.48
362.821	395.39
363.203	380.24
363.584	358.78
363.966	365.78
364.348	356.29
364.729	360.13
365.111	352.22
365.493	367.82
365.874	386.12
366.256	362.39
366.637	360.58
367.019	356.52
367.4	354.03
367.781	365.56
368.163	351.32
368.544	367.82
368.925	362.17
369.306	358.55
369.688	362.62
370.069	392.22
370.45	358.1
370.831	368.49
371.212	362.84
371.593	369.4
371.974	373.92
372.355	354.03
372.736	381.83
373.117	382.28
373.498	361.94
373.879	385.67
374.26	375.72
374.641	353.58
375.021	371.88
375.402	410.07
375.783	387.48
376.163	386.35
376.544	400.13
376.925	402.84
377.305	387.93
377.686	379.57
378.066	382.96
378.447	391.54
378.827	393.13
379.208	401.71
379.588	389.51
379.968	422.05
380.349	408.04
380.729	410.53
381.109	409.62
381.489	430.86
381.87	423.18
382.25	424.99
382.63	434.03
383.01	439.9
383.39	415.95
383.77	410.75
384.15	445.55
384.53	436.97
384.91	431.54
385.29	435.16
385.67	423.18
386.049	473.8
386.429	439.68
386.809	464.54
387.189	477.19
387.568	459.79
387.948	467.93
388.328	473.12
388.707	476.74
389.087	461.6
389.466	481.48
389.846	485.1
390.225	483.97
390.605	476.74
390.984	500.69
391.363	491.2
391.743	510.18
392.122	504.08
392.501	516.74
392.881	503.63
393.26	526.91
393.639	498.43
394.018	516.29
394.397	513.12
394.776	527.81
395.155	541.6
395.534	525.78
395.913	548.83
396.292	531.2
396.671	554.93
397.05	519
397.429	536.4
397.808	545.66
398.186	543.4
398.565	585.44
398.944	549.73
399.323	554.25
399.701	568.49
400.08	559
400.458	571.88
400.837	581.37
401.215	585.44
401.594	598.54
401.972	587.24
402.351	593.35
402.729	594.02
403.107	607.36
403.486	620.92
403.864	608.26
404.242	608.49
404.62	639.45
404.999	638.32
405.377	638.54
405.755	639.67
406.133	654.14
406.511	663.85
406.889	664.53
407.267	684.19
407.645	681.03
408.023	668.15
408.401	687.58
408.779	686.9
409.156	733.23
409.534	727.81
409.912	728.48
410.29	736.62
410.667	753.12
411.045	756.05
411.422	751.76
411.8	778.2
412.178	785.66
412.555	806.9
412.933	791.31
413.31	787.47
413.687	813.23
414.065	792.44
414.442	811.65
414.819	845.99
415.197	846.45
415.574	873.34
415.951	872.21
416.328	878.99
416.705	869.72
417.082	866.79
417.46	870.4
417.837	903.39
418.214	897.97
418.591	924.41
418.967	929.16
419.344	911.98
419.721	940.23
420.098	941.13
420.475	959.21
420.852	976.16
421.228	983.39
421.605	956.27
421.982	993.79
422.358	994.47
422.735	994.01
423.111	1014.35
423.488	1014.8
423.864	1049.15
424.241	1058.87
424.617	1073.33
424.994	1072.43
425.37	1063.84
425.746	1063.84
426.123	1097.06
426.499	1111.3
426.875	1108.81
427.251	1136.16
427.627	1161.92
428.003	1158.75
428.379	1201.01
428.756	1178.87
429.132	1200.56
429.507	1217.74
429.883	1209.6
430.259	1226.55
430.635	1275.14
431.011	1261.58
431.387	1266.1
431.763	1306.55
432.138	1293.89
432.514	1358.75
432.89	1349.26
433.265	1384.96
433.641	1379.77
434.016	1407.79
434.392	1434.68
434.767	1469.71
435.143	1469.03
435.518	1460.44
435.894	1469.26
436.269	1503.83
436.644	1534.56
437.02	1515.58
437.395	1567.56
437.77	1569.59
438.145	1561
438.52	1591.51
438.895	1608.91
439.271	1635.13
439.646	1640.78
440.021	1674.67
440.395	1668.35
440.77	1669.02
441.145	1676.93
441.52	1717.61
441.895	1718.06
442.27	1726.2
442.645	1714.67
443.019	1750.38
443.394	1749.7
443.769	1763.94
444.143	1731.4
444.518	1773.88
444.892	1804.61
445.267	1800.77
445.641	1805.52
446.016	1841.45
446.39	1820.66
446.764	1848.91
447.139	1863.82
447.513	1831.73
447.887	1868.79
448.262	1910.6
448.636	1908.34
449.01	1916.93
449.384	1921.22
449.758	1945.17
450.132	1966.19
450.506	1984.5
450.88	2010.03
451.254	2018.62
451.628	2019.75
452.002	2073.99
452.376	2081.22
452.75	2116.24
453.123	2125.06
453.497	2120.31
453.871	2116.92
454.244	2195.79
454.618	2194.66
454.992	2201.89
455.365	2248.67
455.739	2304.71
456.112	2304.04
456.486	2332.28
456.859	2356.69
457.232	2363.92
457.606	2405.95
457.979	2440.76
458.352	2500.19
458.725	2507.42
459.099	2470.13
459.472	2523.69
459.845	2573.86
460.218	2556.46
460.591	2654.99
460.964	2640.98
461.337	2667.42
461.71	2701.99
462.083	2739.96
462.456	2786.51
462.829	2763.91
463.201	2839.61
463.574	2821.54
463.947	2844.36
464.32	2881.2
464.692	2935.43
465.065	2958.93
465.438	2960.52
465.81	2997.8
466.183	3016.33
466.555	3066.73
466.928	3089.78
467.3	3090
467.672	3142.43
468.045	3214.29
468.417	3202.99
468.789	3192.83
469.161	3257.46
469.534	3310.79
469.906	3346.27
470.278	3374.29
470.65	3430.56
471.022	3473.27
471.394	3525.92
471.766	3520.05
472.138	3589.43
472.51	3693.38
472.882	3704.68
473.253	3699.93
473.625	3778.57
473.997	3812.7
474.369	3877.33
474.74	3881.85
475.112	3976.08
475.484	4073.03
475.855	4101.28
476.227	4106.7
476.598	4209.52
476.97	4229.18
477.341	4331.33
477.713	4378.33
478.084	4422.62
478.455	4557.76
478.827	4546.69
479.198	4671.43
479.569	4721.82
479.94	4794.82
480.311	4833.23
480.682	4920.69
481.053	5065.32
481.424	5107.8
481.795	5178.31
482.166	5221.47
482.537	5329.72
482.908	5422.37
483.279	5458.98
483.65	5583.5
484.021	5643.38
484.391	5723.61
484.762	5814.45
485.133	5808.58
485.503	5943.71
485.874	6040.66
486.244	6116.82
486.615	6218.06
486.985	6275.68
487.356	6409.01
487.726	6450.82
488.097	6609.91
488.467	6618.95
488.837	6696.69
489.207	6803.58
489.578	6884.48
489.948	6957.02
490.318	7098.71
490.688	7088.09
491.058	7228.65
491.428	7322.43
491.798	7363.56
492.168	7516.55
492.538	7599.04
492.908	7582.99
493.278	7716.55
493.648	7765.59
494.017	7864.79
494.387	7898.01
494.757	8004.68
495.126	8022.3
495.496	8104.79
495.866	8174.16
496.235	8291.45
496.605	8371.45
496.974	8321.96
497.344	8353.37
497.713	8483.99
498.082	8621.16
498.452	8605.34
498.821	8685.56
499.19	8724.66
499.559	8759.01
499.928	8864.99
500.298	8876.52
500.667	8983.63
501.036	9004.2
501.405	9019.11
501.774	9095.04
502.143	9142.95
502.512	9129.39
502.88	9280.12
503.249	9296.17
503.618	9346.79
503.987	9344.75
504.356	9387.01
504.724	9397.18
505.093	9545.88
505.462	9570.74
505.83	9574.8
506.199	9702.71
506.567	9783.84
506.936	9778.19
507.304	9889.82
507.672	9993.32
508.041	9995.13
508.409	10109.03
508.777	10116.71
509.145	10122.59
509.514	10176.6
509.882	10211.4
510.25	10273.09
510.618	10452.07
510.986	10421.11
511.354	10483.26
511.722	10644.16
512.09	10671.73
512.458	10613.87
512.826	10747.43
513.193	10753.98
513.561	10783.59
513.929	10950.59
514.297	11068.55
514.664	11058.38
515.032	11117.36
515.4	11279.62
515.767	11203.46
516.135	11401.65
516.502	11304.02
516.869	11516.9
517.237	11537.24
517.604	11514.41
517.972	11716.9
518.339	11783.11
518.706	11833.05
519.073	11878.92
519.44	11986.94
519.808	12091.8
520.175	12103.33
520.542	12367.95
520.909	12350.55
521.276	12362.53
521.643	12521.85
522.009	12610.43
522.376	12701.95
522.743	12779.69
523.11	12959.12
523.477	13099.68
523.843	13221.71
524.21	13303.97
524.577	13383.97
524.943	13484.98
525.31	13530.86
525.676	13741.7
526.043	13814.92
526.409	13938.98
526.776	14086.78
527.142	14181.46
527.508	14223.72
527.874	14448.57
528.241	14503.26
528.607	14586.65
528.973	14652.41
529.339	14703.03
529.705	14851.73
530.071	15062.57
530.437	15130.36
530.803	15240.42
531.169	15331.72
531.535	15335.11
531.901	15426.85
532.267	15522.22
532.632	15668.2
532.998	15704.14
533.364	15874.75
533.73	15790.46
534.095	16012.6
534.461	16002.66
534.826	16122.66
535.192	16239.04
535.557	16385.47
535.923	16298.47
536.288	16488.52
536.653	16499.82
537.019	16511.12
537.384	16637.22
537.749	16704.33
538.114	16802.86
538.479	16834.95
538.845	16888.06
539.21	16918.11
539.575	17018.68
539.94	17082.18
540.305	17180.71
540.67	17222.06
541.034	17326.69
541.399	17345.9
541.764	17370.53
542.129	17492.56
542.494	17431.77
542.858	17547.48
543.223	17556.06
543.587	17555.61
543.952	17648.72
544.316	17701.6
544.681	17749.96
545.045	17724.87
545.41	17897.3
545.774	17851.42
546.138	17941.82
546.503	18079.21
546.867	18058.88
547.231	18137.74
547.595	18218.42
547.959	18283.05
548.324	18227.68
548.688	18321.24
549.052	18409.83
549.416	18353.56
549.779	18501.35
550.143	18445.08
550.507	18658.86
550.871	18736.37
551.235	18672.64
551.599	18879.42
551.962	18837.84
552.326	18909.25
552.689	19028.12
553.053	18950.15
553.417	19036.25
553.78	19221.33
554.143	19244.61
554.507	19390.82
554.87	19456.13
555.234	19600.98
555.597	19505.39
555.96	19655.9
556.323	19720.53
556.686	19815.21
557.05	19929.56
557.413	19859.51
557.776	20043.91
558.139	20221.76
558.502	20335.43
558.865	20316.67
559.228	20536.55
559.59	20641.18
559.953	20652.25
560.316	20816.32
560.679	20888.41
561.041	21153.94
561.404	21187.61
561.767	21371.33
562.129	21408.39
562.492	21742.85
562.854	21760.47
563.217	21840.47
563.579	21895.61
563.941	22112.78
564.304	22327.24
564.666	22647.23
565.028	22576.27
565.39	22775.59
565.753	23013.55
566.115	23101.91
566.477	23334.89
566.839	23557.94
567.201	23752.74
567.563	23834.54
567.925	24058.72
568.287	24384.81
568.648	24428.2
569.01	24769.43
569.372	25064.34
569.734	25180.95
570.095	25433.37
570.457	25653.7
570.819	25870.42
571.18	25988.84
571.542	26318.32
571.903	26372.33
572.265	26728.7
572.626	26954.69
572.987	27086.43
573.349	27354.68
573.71	27518.97
574.071	27803.03
574.432	27916.7
574.794	28360.07
575.155	28440.75
575.516	28571.59
575.877	28763.45
576.238	28877.12
576.599	29004.12
576.96	29207.06
577.32	29412.7
577.681	29620.61
578.042	29900.6
578.403	29929.52
578.763	30126.35
579.124	30215.17
579.485	30407.48
579.845	30635.72
580.206	30626.91
580.566	30593.91
580.927	30902.61
581.287	30924.3
581.648	30944.41
582.008	31105.76
582.368	31191.64
582.728	31314.8
583.089	31291.3
583.449	31429.15
583.809	31459.2
584.169	31588.92
584.529	31439.54
584.889	31805.41
585.249	31499.2
585.609	31445.87
585.969	31822.13
586.329	31547.33
586.688	31752.75
587.048	31687.22
587.408	31821.23
587.768	31738.74
588.127	31853.09
588.487	31771.96
588.846	32092.4
589.206	31800.66
589.565	31823.49
589.925	32068
590.284	31940.54
590.643	31940.54
591.003	31977.15
591.362	32193.65
591.721	31979.87
592.08	31964.05
592.44	32164.49
592.799	32188.45
593.158	32211.27
593.517	32117.49
593.876	32342.12
594.235	32274.09
594.593	32343.02
594.952	32299.86
595.311	32247.2
595.67	32309.12
596.029	32511.15
596.387	32475.45
596.746	32600.41
597.104	32536.01
597.463	32421.66
597.822	32758.38
598.18	32402.45
598.538	32452.85
598.897	32677.93
599.255	32556.8
599.613	33026.39
599.972	32681.99
600.33	32764.03
600.688	32730.58
601.046	32785.04
601.404	33016.9
601.762	32977.58
602.12	33118.14
602.478	33048.54
602.836	33039.27
603.194	32893.29
603.552	33101.87
603.91	32917.69
604.268	33097.8
604.625	32973.74
604.983	33117.69
605.341	33148.42
605.698	33209.66
606.056	33484.91
606.413	33208.08
606.771	33222.54
607.128	33405.36
607.485	33298.93
607.843	33277.68
608.2	33319.94
608.557	33606.49
608.914	33548.86
609.272	33610.56
609.629	33680.61
609.986	33712.48
610.343	33823.21
610.7	34010.55
611.057	33921.96
611.414	33834.96
611.771	33972.36
612.127	34180.49
612.484	34185.91
612.841	34209.41
613.198	34057.32
613.554	34112.01
613.911	34377.99
614.267	34342.97
614.624	34345
614.98	34392.68
615.337	34525.11
615.693	34596.97
616.05	34583.41
616.406	34619.8
616.762	34521.49
617.118	34544.54
617.475	34481.72
617.831	34669.29
618.187	34824.08
618.543	34841.94
618.899	35051.87
619.255	34792.22
619.611	34861.15
619.967	34993.35
620.323	35055.49
620.678	35031.08
621.034	34825.89
621.39	34980.01
621.746	34936.4
622.101	35239.67
622.457	35109.27
622.812	35245.77
623.168	35174.13
623.523	35164.41
623.879	35255.94
624.234	35004.42
624.589	35320.12
624.945	35222.94
625.3	35218.65
625.655	35085.09
626.01	35149.95
626.365	35241.47
626.72	35062.72
627.075	35155.38
627.43	35034.7
627.785	35098.88
628.14	35189.72
628.495	35222.49
628.85	35230.85
629.205	35049.39
629.559	35217.75
629.914	35019.79
630.269	35034.02
630.623	34856.63
630.978	34789.51
631.332	35071.99
631.687	34966
632.041	34892.33
632.396	34771.66
632.75	34757.87
633.104	34947.24
633.459	34746.12
633.813	34720.13
634.167	34593.13
634.521	34675.84
634.875	34705.9
635.229	34645.56
635.583	34516.97
635.937	34439.24
636.291	34498.67
636.645	34339.35
636.999	34263.65
637.352	34418.22
637.706	33971.9
638.06	34330.76
638.413	34121.96
638.767	34080.6
639.121	34142.75
639.474	33935.75
639.828	33889.87
640.181	33990.66
640.534	34035.4
640.888	33815.75
641.241	33641.74
641.594	33669.76
641.947	33888.52
642.301	33697.79
642.654	33715.41
643.007	33663.21
643.36	33650.78
643.713	33512.71
644.066	33608.98
644.419	33435.87
644.771	33106.16
645.124	32757.02
645.477	32953.63
645.83	32842.67
646.182	32716.57
646.535	32657.36
646.888	32864.59
647.24	32663.01
647.593	32954.08
647.945	32670.92
648.298	32511.83
648.65	32322.68
649.002	32179.86
649.355	32201.55
649.707	31763.6
650.059	31699.42
650.411	32453.3
650.763	32632.96
651.115	33062.55
651.467	33178.48
651.819	33101.87
652.171	32916.34
652.523	32938.48
652.875	32962.21
653.227	32729.9
653.578	33095.99
653.93	32877.47
654.282	32839.96
654.633	32772.61
654.985	32891.48
655.337	32946.62
655.688	32872.5
656.039	33027.52
656.391	32514.31
656.742	32702.11
657.094	32791.14
657.445	32950.46
657.796	32795.44
658.147	32743.91
658.498	32837.7
658.849	32928.31
659.2	32777.13
659.551	32605.39
659.902	33035.66
660.253	32955.43
660.604	32940.97
660.955	32767.19
661.306	33095.77
661.656	32868.88
662.007	33020.29
662.358	32903.68
662.708	32943.68
663.059	32856
663.409	32792.27
663.76	32897.58
664.11	33078.14
664.461	33083.79
664.811	33194.07
665.161	32982.55
665.511	32900.52
665.862	33041.08
666.212	32999.95
666.562	33107.75
666.912	33040.63
667.262	32885.83
667.612	32859.84
667.962	32849.9
668.312	32767.19
668.662	32950.46
669.011	32997.24
669.361	32984.58
669.711	32907.98
670.06	32769.22
670.41	32910.01
670.76	32832.27
671.109	33069.55
671.459	32870.92
671.808	32886.51
672.157	32970.8
672.507	32819.84
672.856	32832.27
673.205	32882.44
673.554	32841.76
673.904	32740.98
674.253	33042.44
674.602	32898.94
674.951	32298.95
675.3	32206.75
675.649	32762.44
675.998	32830.92
676.346	32831.37
676.695	32826.17
677.044	32581.66
677.393	32574.43
677.741	32604.93
678.09	32566.74
678.438	32499.17
678.787	32484.26
679.135	32499.17
679.484	32254.43
679.832	32365.39
680.181	32310.03
680.529	32381.89
680.877	32234.32
681.225	32133.99
681.573	32436.58
681.922	32015.8
682.27	31980.32
682.618	31881.56
682.966	31944.84
683.314	32089.92
683.661	31956.59
684.009	31726.54
684.357	31665.07
684.705	31526.54
685.053	31661.68
685.4	31469.14
685.748	31387.56
686.095	31315.02
686.443	31189.6
686.79	31100.34
687.138	31321.8
687.485	31147.12
687.832	30801.14
688.18	31077.52
688.527	30970.85
688.874	30899.67
689.221	30802.27
689.568	30597.3
689.915	30462.39
690.262	30616.06
690.609	30536.97
690.956	30338.33
691.303	30233.7
691.65	29936.76
691.997	30005.91
692.344	29900.37
692.69	29764.78
693.037	29795.97
693.383	29563.21
693.73	29567.95
694.077	29527.05
694.423	29451.57
694.769	29130.9
695.116	29143.56
695.462	28998.47
695.808	28947.18
696.155	28987.18
696.501	28640.07
696.847	28729.56
697.193	28575.21
697.539	28552.61
697.885	28256.35
698.231	28216.35
698.577	28301.77
698.923	28085.5
699.269	27883.02
699.614	27912.63
699.96	27642.35
700.306	27743.59
700.651	27603.94
700.997	27441
701.342	27386.09
701.688	27298.63
702.033	27123.27
702.379	27044.18
702.724	26963.05
703.069	27063.38
703.415	26697.74
703.76	26571.42
704.105	26593.57
704.45	26485.32
704.795	26435.15
705.14	26333.46
705.485	26394.7
705.83	26110.87
706.175	26114.48
706.52	26119.91
706.865	25987.71
707.209	25897.09
707.554	25904.54
707.899	25791.55
708.243	25668.39
708.588	25486.93
708.932	25428.4
709.277	25504.1
709.621	25329.87
709.966	25219.37
710.31	25300.72
710.654	25022.76
710.998	25156.99
711.342	25047.17
711.687	24972.59
712.031	24905.93
712.375	24780.51
712.719	24864.57
713.063	24726.72
713.407	24719.94
713.75	24710.45
714.094	24685.82
714.438	24632.26
714.782	24495.99
715.125	24461.87
715.469	24563.34
715.812	24443.11
716.156	24303.91
716.499	24324.93
716.843	24376.9
717.186	24248.09
717.53	24389.56
717.873	24460.74
718.216	24290.12
718.559	24269.11
718.902	24086.06
719.246	24172.39
719.589	24065.05
719.932	24038.15
720.275	24122.67
720.617	24096.68
720.96	24011.04
721.303	24031.83
721.646	24046.97
721.989	23933.75
722.331	24028.44
722.674	23992.28
723.016	23914.54
723.359	23852.4
723.701	23993.18
724.044	23893.3
724.386	23831.83
724.729	23960.19
725.071	23918.83
725.413	23863.47
725.755	23850.59
726.097	23805.17
726.439	23891.26
726.782	23786.18
727.124	23904.6
727.465	23874.99
727.807	23753.41
728.149	23793.64
728.491	23774.21
728.833	23892.62
729.175	23811.72
729.516	23790.48
729.858	23787.99
730.199	23823.47
730.541	23942.56
730.882	23845.39
731.224	23912.05
731.565	23803.58
731.906	23783.02
732.248	23924.71
732.589	23781.21
732.93	23851.94
733.271	23845.39
733.612	23879.74
733.953	23920.42
734.294	23903.69
734.635	23963.13
734.976	24104.14
735.317	23992.28
735.658	23985.95
735.999	24031.37
736.339	24104.59
736.68	24054.42
737.021	24086.06
737.361	24132.39
737.702	24329.22
738.042	24206.06
738.383	24232.95
738.723	24384.36
739.063	24254.87
739.404	24387.52
739.744	24378.94
740.084	24462.32
740.424	24442.89
740.764	24467.75
741.104	24623.9
741.444	24584.81
741.784	24710.68
742.124	24829.32
742.464	24915.19
742.804	24890.56
743.143	24924.68
743.483	25135.53
743.823	24915.19
744.162	25135.3
744.502	25221.85
744.841	25339.14
745.181	25428.4
745.52	25376.2
745.86	25616.19
746.199	25630.88
746.538	25681.95
746.877	25922.85
747.216	25976.18
747.556	26124.88
747.895	26287.36
748.234	26289.62
748.573	26400.35
748.911	26516.28
749.25	26659.78
749.589	26725.31
749.928	27033.78
750.267	27107
750.605	27220.44
750.944	27386.09
751.283	27482.81
751.621	27696.81
751.96	27727.55
752.298	27866.75
752.636	27975.45
752.975	28111.49
753.313	28207.54
753.651	28456.57
753.989	28484.36
754.327	28737.92
754.666	28709.67
755.004	29054.97
755.342	29254.51
