Data from 19-3921_FLMS001491_009.txt Node
Date: Thu Apr 19 16:42:13 BST 2018
User: hsy
Spectrometer: FLMS00149
Trigger mode: 0
Integration Time (sec): 1.000000E-2
Scans to average: 10
Electric dark correction enabled: true
Nonlinearity correction enabled: false
Boxcar width: 0
XAxis mode: Wavelengths
Number of Pixels in Spectrum: 2048
>>>>>Begin Spectral Data<<<<<
341.393	-4.73
341.776	-4.73
342.16	-4.73
342.543	-56.93
342.927	-34.11
343.31	-105.07
343.693	-77.95
344.077	-51.28
344.46	-47.67
344.843	-47.89
345.226	-20.1
345.61	-26.65
345.993	-39.53
346.376	-17.39
346.759	3.4
347.142	35.95
347.525	42.5
347.908	64.42
348.291	70.07
348.674	111.42
349.057	105.77
349.44	135.83
349.823	133.12
350.206	153.68
350.588	214.7
350.971	251.08
351.354	254.02
351.737	265.32
352.119	298.99
352.502	281.14
352.884	296.5
353.267	315.26
353.65	321.36
354.032	336.05
354.414	311.19
354.797	347.58
355.179	357.74
355.562	347.12
355.944	355.94
356.326	372.43
356.709	360.46
357.091	378.08
357.473	374.92
357.855	383.51
358.238	374.69
358.62	382.83
359.002	361.81
359.384	378.76
359.766	375.6
360.148	385.54
360.53	371.08
360.912	386.44
361.294	370.63
361.676	370.17
362.057	377.41
362.439	369.04
362.821	365.65
363.203	384.64
363.584	384.18
363.966	364.52
364.348	385.77
364.729	362.72
365.111	367.24
365.493	375.6
365.874	355.03
366.256	366.56
366.637	374.47
367.019	359.1
367.4	377.41
367.781	375.6
368.163	365.2
368.544	352.77
368.925	378.31
369.306	355.26
369.688	378.31
370.069	375.6
370.45	369.72
370.831	374.92
371.212	371.98
371.593	379.21
371.974	353.68
372.355	344.19
372.736	385.31
373.117	407.01
373.498	375.15
373.879	383.96
374.26	381.02
374.641	370.85
375.021	396.16
375.402	396.84
375.783	391.87
376.163	388.03
376.544	413.34
376.925	392.55
377.305	397.29
377.686	407.69
378.066	400.23
378.447	387.8
378.827	417.18
379.208	412.88
379.588	417.63
379.968	417.18
380.349	402.72
380.729	425.54
381.109	419.21
381.489	418.08
381.87	424.64
382.25	436.16
382.63	408.36
383.01	428.25
383.39	433.45
383.77	430.74
384.15	452.21
384.53	432.09
384.91	454.92
385.29	455.37
385.67	445.88
386.049	469.83
386.429	454.69
386.809	463.73
387.189	460.57
387.568	461.02
387.948	484.97
388.328	482.71
388.707	463.05
389.087	477.97
389.466	500.57
389.846	496.72
390.225	487.68
390.605	501.47
390.984	506.44
391.363	494.92
391.743	498.98
392.122	511.87
392.501	513.45
392.881	541.02
393.26	523.62
393.639	532.43
394.018	542.6
394.397	538.31
394.776	531.75
395.155	561.58
395.534	548.02
395.913	547.8
396.292	552.77
396.671	578.08
397.05	568.36
397.429	578.76
397.808	569.26
398.186	582.37
398.565	540.79
398.944	581.69
399.323	587.34
399.701	580.79
400.08	592.31
400.458	595.7
400.837	609.26
401.215	605.2
401.594	616.95
401.972	630.05
402.351	617.17
402.729	613.56
403.107	633.44
403.486	628.25
403.864	631.18
404.242	612.65
404.62	650.62
404.999	659.21
405.377	651.97
405.755	689.49
406.133	664.18
406.511	676.61
406.889	705.53
407.267	693.1
407.645	717.74
408.023	708.02
408.401	727.45
408.779	737.85
409.156	736.72
409.534	723.38
409.912	730.39
410.29	741.24
410.667	759.09
411.045	761.8
411.422	790.28
411.8	782.14
412.178	795.02
412.555	806.77
412.933	824.63
413.31	821.69
413.687	838.41
414.065	846.09
414.442	850.61
414.819	863.95
415.197	851.74
415.574	879.54
415.951	912.08
416.328	896.49
416.705	885.41
417.082	918.63
417.46	896.04
417.837	939.65
418.214	955.7
418.591	966.32
418.967	951.85
419.344	923.61
419.721	954.34
420.098	966.77
420.475	984.62
420.852	975.13
421.228	983.94
421.605	997.95
421.982	986.2
422.358	1015.81
422.735	1019.65
423.111	1018.52
423.488	1038.86
423.864	1050.83
424.241	1061.46
424.617	1051.29
424.994	1106.43
425.37	1099.42
425.746	1130.38
426.123	1106.88
426.499	1117.72
426.875	1112.98
427.251	1144.39
427.627	1167.89
428.003	1182.58
428.379	1202.24
428.756	1190.94
429.132	1218.97
429.507	1246.99
429.883	1247.66
430.259	1261.22
430.635	1294.22
431.011	1297.61
431.387	1324.05
431.763	1298.06
432.138	1348.68
432.514	1351.39
432.89	1403.14
433.265	1416.47
433.641	1442.24
434.016	1429.13
434.392	1430.48
434.767	1474.55
435.143	1471.39
435.518	1466.64
435.894	1475.23
436.269	1517.71
436.644	1548
437.02	1573.31
437.395	1568.11
437.77	1589.12
438.145	1591.61
438.52	1620.54
438.895	1631.84
439.271	1640.87
439.646	1656.47
440.021	1681.1
440.395	1699.4
440.77	1665.28
441.145	1715.9
441.52	1741.89
441.895	1713.42
442.27	1748.44
442.645	1731.04
443.019	1793.64
443.394	1745.28
443.769	1772.17
444.143	1776.92
444.518	1796.35
444.892	1776.24
445.267	1821.89
445.641	1801.77
446.016	1842.23
446.39	1867.31
446.764	1883.35
447.139	1832.96
447.513	1902.34
447.887	1892.62
448.262	1909.57
448.636	1917.48
449.01	1914.31
449.384	1952.05
449.758	1962.9
450.132	1964.03
450.506	1996.35
450.88	2013.97
451.254	2026.85
451.628	2051.03
452.002	2068.21
452.376	2067.76
452.75	2108.89
453.123	2096.23
453.497	2155.21
453.871	2179.84
454.244	2212.39
454.618	2192.27
454.992	2242.89
455.365	2236.11
455.739	2301.2
456.112	2320.18
456.486	2308.88
456.859	2383.91
457.232	2401.76
457.606	2387.75
457.979	2434.53
458.352	2498.03
458.725	2534.64
459.099	2518.37
459.472	2591.58
459.845	2591.13
460.218	2622.77
460.591	2641.53
460.964	2685.14
461.337	2677.46
461.71	2750.45
462.083	2785.03
462.456	2790.9
462.829	2819.83
463.201	2838.13
463.574	2861.18
463.947	2878.13
464.32	2940.95
464.692	2945.93
465.065	2971.69
465.438	3022.99
465.81	3056.88
466.183	3115.86
466.555	3133.94
466.928	3163.32
467.3	3159.93
467.672	3239.25
468.045	3284.9
468.417	3267.27
468.789	3287.84
469.161	3367.16
469.534	3381.17
469.906	3447.16
470.278	3486.02
470.65	3493.71
471.022	3569.86
471.394	3621.39
471.766	3599.24
472.138	3728.73
472.51	3782.74
472.882	3773.7
473.253	3813.7
473.625	3865
473.997	3920.59
474.369	3979.12
474.74	4033.58
475.112	4088.72
475.484	4095.05
475.855	4159
476.227	4239.9
476.598	4377.98
476.97	4377.98
477.341	4458.2
477.713	4514.7
478.084	4594.02
478.455	4645.32
478.827	4704.98
479.198	4844.86
479.569	4869.72
479.94	4981.8
480.311	5061.8
480.682	5135.7
481.053	5235.13
481.424	5283.49
481.795	5392.87
482.166	5434.45
482.537	5512.64
482.908	5646.87
483.279	5720.54
483.65	5775.91
484.021	5887.54
484.391	5951.27
484.762	6002.57
485.133	6142.9
485.503	6176.57
485.874	6256.8
486.244	6355.55
486.615	6420.64
486.985	6513.29
487.356	6623.12
487.726	6673.06
488.097	6838.93
488.467	6866.27
488.837	7034.18
489.207	7134.97
489.578	7183.33
489.948	7315.53
490.318	7325.47
490.688	7431.23
491.058	7564.56
491.428	7674.39
491.798	7704.44
492.168	7902.41
492.538	7873.48
492.908	8065.11
493.278	8090.65
493.648	8130.65
494.017	8260.36
494.387	8319.12
494.757	8406.57
495.126	8505.33
495.496	8507.36
495.866	8602.05
496.235	8665.77
496.605	8739.22
496.974	8814.7
497.344	8840.46
497.713	8942.83
498.082	8996.61
498.452	9068.93
498.821	9079.32
499.19	9123.84
499.559	9188.02
499.928	9343.27
500.298	9363.16
500.667	9457.62
501.036	9402.25
501.405	9478.41
501.774	9569.48
502.143	9666.2
502.512	9663.26
502.88	9776.71
503.249	9729.48
503.618	9921.79
503.987	9920.43
504.356	9952.29
504.724	9954.1
505.093	10075.46
505.462	10110.71
505.83	10181.22
506.199	10359.74
506.567	10350.25
506.936	10394.32
507.304	10536.46
507.672	10538.27
508.041	10588.21
508.409	10735.78
508.777	10716.34
509.145	10901.65
509.514	10919.95
509.882	10939.16
510.25	11047.41
510.618	11150.91
510.986	11139.83
511.354	11196.1
511.722	11311.36
512.09	11367.85
512.458	11448.75
512.826	11580.5
513.193	11706.82
513.561	11596.77
513.929	11778.01
514.297	11907.05
514.664	11892.13
515.032	12069.08
515.4	12097.78
515.767	12155.63
516.135	12260.93
516.502	12200.37
516.869	12449.4
517.237	12567.14
517.604	12453.25
517.972	12782.5
518.339	12761.94
518.706	12956.06
519.073	12903.63
519.44	13051.42
519.808	13180.23
520.175	13242.83
520.542	13418.87
520.909	13448.02
521.276	13542.26
521.643	13699.77
522.009	13833.77
522.376	13857.28
522.743	13993.54
523.11	14188.12
523.477	14247.32
523.843	14421.78
524.21	14571.16
524.577	14675.33
524.943	14842.11
525.31	14944.93
525.676	15087.3
526.043	15223.12
526.409	15271.93
526.776	15457.01
527.142	15521.41
527.508	15589.89
527.874	15878.92
528.241	15902.19
528.607	15944.45
528.973	16201.85
529.339	16183.32
529.705	16473.93
530.071	16596.87
530.437	16692.46
530.803	16847.93
531.169	16970.42
531.535	16931.55
531.901	17155.5
532.267	17175.38
532.632	17232.56
532.998	17427.8
533.364	17558.42
533.73	17569.95
534.095	17734.69
534.461	17685.65
534.826	17985.08
535.192	17983.27
535.557	18159.31
535.923	18195.47
536.288	18238.86
536.653	18354.11
537.019	18395.24
537.384	18501.22
537.749	18603.14
538.114	18641.78
538.479	18665.51
538.845	18658.28
539.21	18813.3
539.575	18751.61
539.94	18912.29
540.305	19052.85
540.67	19030.93
541.034	19188.44
541.399	19225.05
541.764	19281.99
542.129	19331.48
542.494	19391.37
542.858	19574.87
543.223	19433.18
543.587	19548.88
543.952	19673.85
544.316	19731.7
544.681	19702.55
545.045	19865.25
545.41	19938.25
545.774	19926.72
546.138	20041.75
546.503	20071.12
546.867	20142.76
547.231	20347.73
547.595	20344.11
547.959	20412.58
548.324	20536.88
548.688	20592.02
549.052	20556.76
549.416	20594.27
549.779	20682.63
550.143	20751.78
550.507	20939.58
550.871	20864.55
551.235	20988.84
551.599	21126.92
551.962	21135.28
552.326	21245.33
552.689	21306.12
553.053	21196.97
553.417	21417.3
553.78	21588.15
554.143	21657.07
554.507	21757.63
554.87	21886.9
555.234	21967.8
555.597	21992.66
555.96	22119.21
556.323	22246.43
556.686	22280.33
557.05	22458.18
557.413	22630.38
557.776	22606.65
558.139	22787.44
558.502	22867.66
558.865	22931.61
559.228	23118.73
559.59	23264.71
559.953	23230.14
560.316	23563.01
560.679	23575.67
561.041	23783.12
561.404	23961.64
561.767	24044.13
562.129	24104.24
562.492	24354.18
562.854	24437.79
563.217	24456.55
563.579	24567.96
563.941	24800.72
564.304	25095.17
564.666	25309.86
565.028	25378.78
565.39	25504.2
565.753	25825.32
566.115	25788.49
566.477	26137.63
566.839	26275.03
567.201	26608.13
567.563	26766.09
567.925	26986.2
568.287	27043.37
568.648	27268
569.01	27592.28
569.372	27904.37
569.734	27960.63
570.095	28264.36
570.457	28488.08
570.819	28604.01
571.18	28726.72
571.542	29048.29
571.903	29142.3
572.265	29363.31
572.626	29758.55
572.987	29803.07
573.349	30116.74
573.71	30417.97
574.071	30626.33
574.432	30777.28
574.794	31013.89
575.155	31181.34
575.516	31239.19
575.877	31519.41
576.238	31592.86
576.599	31819.97
576.96	32021.32
577.32	32105.38
577.681	32288.2
578.042	32406.39
578.403	32538.14
578.763	32662.88
579.124	32751.24
579.485	33049.31
579.845	33194.17
580.206	33242.3
580.566	33362.98
580.927	33365.01
581.287	33459.47
581.648	33462.64
582.008	33725
582.368	33885.9
582.728	33786.92
583.089	33845
583.449	33893.81
583.809	34004.32
584.169	33989.4
584.529	34008.61
584.889	34204.09
585.249	33873.93
585.609	34035.73
585.969	34125.67
586.329	34121.38
586.688	34187.14
587.048	34146.46
587.408	34119.79
587.768	34165.67
588.127	33990.31
588.487	34150.08
588.846	34356.62
589.206	34079.34
589.565	34052.68
589.925	34300.36
590.284	34158.89
590.643	34175.16
591.003	34092.45
591.362	34411.99
591.721	34300.58
592.08	34265.55
592.44	34428.94
592.799	34263.52
593.158	34230.75
593.517	34176.29
593.876	34221.26
594.235	34158.89
594.593	34371.99
594.952	34289.28
595.311	34092.45
595.67	34354.59
596.029	34433.23
596.387	34423.52
596.746	34346.91
597.104	34137.42
597.463	34314.37
597.822	34463.06
598.18	34276.63
598.538	34320.92
598.897	34555.49
599.255	34299.68
599.613	34666.45
599.972	34489.05
600.33	34549.84
600.688	34517.07
601.046	34446.11
601.404	34658.99
601.762	34640.69
602.12	34699.21
602.478	34616.05
602.836	34589.16
603.194	34476.4
603.552	34638.88
603.91	34602.72
604.268	34597.3
604.625	34599.78
604.983	34792.09
605.341	34487.92
605.698	34671.64
606.056	34952.32
606.413	34710.74
606.771	34906.44
607.128	34852.88
607.485	34715.71
607.843	34816.73
608.2	34897.85
608.557	35159.09
608.914	34938.76
609.272	35111.18
609.629	35328.12
609.986	35418.29
610.343	35139.43
610.7	35370.38
611.057	35320.22
611.414	35279.31
611.771	35435.01
612.127	35400.44
612.484	35404.05
612.841	35564.73
613.198	35411.06
613.554	35251.06
613.911	35585.29
614.267	35571.96
614.624	35597.5
614.98	35711.17
615.337	35813.31
615.693	35624.16
616.05	35935.11
616.406	35939.86
616.762	35709.36
617.118	35792.52
617.475	35739.64
617.831	35884.27
618.187	35871.39
618.543	35891.27
618.899	36117.03
619.255	36054.89
619.611	35977.83
619.967	36170.59
620.323	36116.58
620.678	36099.4
621.034	36137.14
621.39	36060.31
621.746	36135.79
622.101	36440.19
622.457	36097.82
622.812	36260.98
623.168	36338.04
623.523	36220.98
623.879	36341.43
624.234	36075.45
624.589	36307.53
624.945	36284.03
625.3	36332.17
625.655	36411.26
626.01	36384.37
626.365	36286.74
626.72	36166.75
627.075	36084.04
627.43	36193.64
627.785	36193.64
628.14	36222.11
628.495	36210.59
628.85	36321.32
629.205	36117.71
629.559	36179.18
629.914	35982.12
630.269	36140.98
630.623	35730.15
630.978	35715.69
631.332	36149.8
631.687	35921.78
632.041	35869.81
632.396	35889.01
632.75	35850.82
633.104	35883.82
633.459	35600.66
633.813	35599.98
634.167	35598.4
634.521	35622.58
634.875	35685.18
635.229	35418.74
635.583	35352.08
635.937	35275.7
636.291	35373.77
636.645	35368.35
636.999	35256.04
637.352	35241.8
637.706	35196.15
638.06	35320.89
638.413	35118.41
638.767	34993.67
639.121	34944.86
639.474	34786.9
639.828	34826.67
640.181	34812.66
640.534	34891.75
640.888	34611.08
641.241	34489.95
641.594	34675.71
641.947	34721.14
642.301	34535.38
642.654	34648.82
643.007	34568.82
643.36	34426
643.713	34395.04
644.066	34634.36
644.419	34370.18
644.771	33901.27
645.124	33634.84
645.477	33719.81
645.83	33552.35
646.182	33541.73
646.535	33452.69
646.888	33463.54
647.24	33437.1
647.593	33610.66
647.945	33452.92
648.298	33333.83
648.65	33128.63
649.002	32801.41
649.355	32866.04
649.707	32757.34
650.059	32632.6
650.411	33114.4
650.763	33396.65
651.115	33907.82
651.467	33747.15
651.819	33591.9
652.171	33706.02
652.523	33626.93
652.875	33538.79
653.227	33553.48
653.578	33712.57
653.93	33662.41
654.282	33423.32
654.633	33341.28
654.985	33448.85
655.337	33447.5
655.688	33508.51
656.039	33510.32
656.391	33128.86
656.742	33148.3
657.094	33251.57
657.445	33376.99
657.796	33244.56
658.147	33309.65
658.498	33433.49
658.849	33328.18
659.2	33404.79
659.551	33180.61
659.902	33530.21
660.253	33285.92
660.604	33379.7
660.955	33210.67
661.306	33381.96
661.656	33357.1
662.007	33252.02
662.358	33238.69
662.708	33326.82
663.059	33325.01
663.409	33108.3
663.76	33304.9
664.11	33303.09
664.461	33311.68
664.811	33266.71
665.161	33282.75
665.511	33241.63
665.862	33316.43
666.212	33471.68
666.562	33317.56
666.912	33260.38
667.262	33227.39
667.612	33234.85
667.962	33300.38
668.312	33146.94
668.662	33411.11
669.011	33301.06
669.361	33159.37
669.711	33259.48
670.06	33151.68
670.41	33089.77
670.76	33040.28
671.109	33321.4
671.459	33193.94
671.808	33071.91
672.157	33333.37
672.507	33059.26
672.856	32919.37
673.205	33052.7
673.554	33133.15
673.904	32964.12
674.253	33236.65
674.602	32955.53
674.951	32595.99
675.3	32358.94
675.649	33103.1
675.998	32977.68
676.346	32998.92
676.695	33015.87
677.044	32849.55
677.393	32782.65
677.741	32810.68
678.09	32828.53
678.438	32717.8
678.787	32916.89
679.135	32820.17
679.484	32541.08
679.832	32657.46
680.181	32580.4
680.529	32726.16
680.877	32452.95
681.225	32419.73
681.573	32626.5
681.922	32330.92
682.27	32402.33
682.618	32216.79
682.966	32213.86
683.314	32257.92
683.661	32264.25
684.009	32137.02
684.357	32045.27
684.705	31947.87
685.053	31904.03
685.4	31787.2
685.748	31785.62
686.095	31768.9
686.443	31679.63
686.79	31567.77
687.138	31569.81
687.485	31490.71
687.832	31466.08
688.18	31359.87
688.527	31271.28
688.874	31193.09
689.221	31062.47
689.568	30979.99
689.915	30781.35
690.262	30906.09
690.609	30708.81
690.956	30613.22
691.303	30649.15
691.65	30533.45
691.997	30455.03
692.344	30245.09
692.69	30303.17
693.037	30243.29
693.383	29964.88
693.73	30047.59
694.077	29796.29
694.423	29800.81
694.769	29675.84
695.116	29550.88
695.462	29437.43
695.808	29413.7
696.155	29520.37
696.501	29054.62
696.847	29243.99
697.193	28964.45
697.539	29023.43
697.885	28651.46
698.231	28665.93
698.577	28654.63
698.923	28628.64
699.269	28413.28
699.614	28295.77
699.96	28164.7
700.306	28163.57
700.651	28126.05
700.997	28015.1
701.342	27939.39
701.688	27736.23
702.033	27503.47
702.379	27720.64
702.724	27424.38
703.069	27438.39
703.415	27325.85
703.76	27219.86
704.105	27267.09
704.45	27101
704.795	27103.48
705.14	26882.92
705.485	26811.51
705.83	26752.08
706.175	26822.36
706.52	26751.18
706.865	26577.39
707.209	26505.08
707.554	26564.51
707.899	26437.06
708.243	26315.93
708.588	26171.53
708.932	26078.42
709.277	26124.75
709.621	26038.65
709.966	25776.96
710.31	25906.68
710.654	25721.82
710.998	25747.36
711.342	25717.98
711.687	25718.66
712.031	25579.68
712.375	25530.87
712.719	25493.13
713.063	25546.24
713.407	25526.8
713.75	25321.83
714.094	25370.87
714.438	25315.28
714.782	25335.39
715.125	25166.81
715.469	25217.66
715.812	24992.58
716.156	25075.29
716.499	24927.95
716.843	25021.28
717.186	24878
717.53	24988.28
717.873	24986.25
718.216	24886.14
718.559	24787.38
718.902	24675.75
719.246	24777.67
719.589	24654.73
719.932	24581.06
720.275	24667.39
720.617	24649.31
720.96	24442.76
721.303	24510.56
721.646	24628.52
721.989	24384.46
722.331	24497.9
722.674	24362.54
723.016	24338.81
723.359	24312.82
723.701	24473.27
724.044	24238.92
724.386	24220.62
724.729	24289.32
725.071	24248.64
725.413	24311.47
725.755	24271.01
726.097	24031.25
726.439	24004.81
726.782	23909.44
727.124	24137.01
727.465	24097.69
727.807	24007.97
728.149	24005.26
728.491	23981.3
728.833	24016.56
729.175	23928.42
729.516	23954.64
729.858	23936.11
730.199	24010.91
730.541	24047.29
730.882	23963.45
731.224	24000.74
731.565	23820.86
731.906	23915.77
732.248	24044.13
732.589	23829.22
732.93	23825.83
733.271	23841.42
733.612	23919.39
733.953	23881.19
734.294	23862.89
734.635	23812.72
734.976	23957.58
735.317	23838.03
735.658	23939.5
735.999	23838.71
736.339	23867.41
736.68	23870.57
737.021	23927.52
737.361	23792.83
737.702	23998.71
738.042	23967.75
738.383	24044.35
738.723	23907.41
739.063	24004.35
739.404	23947.18
739.744	24014.75
740.084	23988.76
740.424	24040.51
740.764	24080.06
741.104	24271.69
741.444	24138.81
741.784	24063.79
742.124	24247.51
742.464	24158.02
742.804	24163.45
743.143	24202.99
743.483	24183.33
743.823	24219.49
744.162	24375.19
744.502	24355.76
744.841	24335.19
745.181	24494.96
745.52	24417.45
745.86	24431.24
746.199	24430.56
746.538	24470.78
746.877	24666.03
747.216	24673.49
747.556	24663.55
747.895	24814.5
748.234	24689.76
748.573	24704.9
748.911	24779.25
749.25	24944.89
749.589	24817.67
749.928	25053.14
750.267	25098.34
750.605	25203.19
750.944	25049.75
751.283	25353.92
751.621	25404.54
751.96	25322.96
752.298	25283.42
752.636	25448.84
752.975	25534.94
753.313	25615.39
753.651	25811.09
753.989	25661.71
754.327	25882.95
754.666	25794.36
