Data from 19-3921_FLMS001491_005.txt Node
Date: Thu Apr 19 16:42:02 BST 2018
User: hsy
Spectrometer: FLMS00149
Trigger mode: 0
Integration Time (sec): 1.000000E-2
Scans to average: 10
Electric dark correction enabled: true
Nonlinearity correction enabled: false
Boxcar width: 0
XAxis mode: Wavelengths
Number of Pixels in Spectrum: 2048
>>>>>Begin Spectral Data<<<<<
341.393	8.01
341.776	8.01
342.16	8.01
342.543	-53.01
342.927	-71.09
343.31	-75.15
343.693	-76.51
344.077	-63.63
344.46	-80.8
344.843	-60.69
345.226	-43.52
345.61	-24.76
345.993	-11.88
346.376	4.39
346.759	17.73
347.142	34.9
347.525	35.35
347.908	56.14
348.291	72.19
348.674	90.72
349.057	125.52
349.44	133.43
349.823	136.37
350.206	175.01
350.588	218.62
350.971	235.35
351.354	251.39
351.737	274.89
352.119	293.65
352.502	293.42
352.884	295.23
353.267	321.67
353.65	318.73
354.032	338.4
354.414	344.27
354.797	356.93
355.179	358.28
355.562	342.24
355.944	355.8
356.326	356.02
356.709	379.75
357.091	380.65
357.473	387.89
357.855	389.24
358.238	380.43
358.62	385.63
359.002	398.28
359.384	376.36
359.766	382.24
360.148	389.69
360.53	391.73
360.912	389.47
361.294	396.7
361.676	375.46
362.057	365.06
362.439	392.86
362.821	377.72
363.203	386.53
363.584	354.67
363.966	373.87
364.348	372.97
364.729	374.55
365.111	365.96
365.493	375
365.874	390.15
366.256	360.99
366.637	376.59
367.019	366.42
367.4	375
367.781	378.62
368.163	370.71
368.544	363.25
368.925	391.73
369.306	377.72
369.688	381.56
370.069	381.33
370.45	384.04
370.831	374.78
371.212	368.22
371.593	382.46
371.974	386.98
372.355	366.64
372.736	387.21
373.117	391.73
373.498	399.18
373.879	397.83
374.26	384.72
374.641	391.73
375.021	385.63
375.402	398.28
375.783	416.13
376.163	413.65
376.544	404.16
376.925	398.96
377.305	409.81
377.686	401.44
378.066	418.17
378.447	402.12
378.827	431.95
379.208	431.95
379.588	426.53
379.968	421.78
380.349	430.14
380.729	403.7
381.109	426.3
381.489	438.96
381.87	433.76
382.25	423.14
382.63	430.37
383.01	433.99
383.39	431.95
383.77	460.43
384.15	464.49
384.53	466.75
384.91	465.85
385.29	436.92
385.67	462.91
386.049	484.38
386.429	480.54
386.809	471.72
387.189	482.8
387.568	471.5
387.948	481.22
388.328	493.19
388.707	488.45
389.087	499.07
389.466	494.32
389.846	525.28
390.225	500.88
390.605	500.65
390.984	529.58
391.363	519.86
391.743	525.28
392.122	538.84
392.501	536.13
392.881	536.81
393.26	560.76
393.639	547.2
394.018	538.39
394.397	548.11
394.776	556.02
395.155	546.07
395.534	566.41
395.913	576.13
396.292	577.94
396.671	580.2
397.05	572.29
397.429	598.05
397.808	597.6
398.186	612.06
398.565	605.05
398.944	603.25
399.323	587.2
399.701	612.74
400.08	623.81
400.458	618.84
400.837	604.15
401.215	631.49
401.594	635.56
401.972	640.08
402.351	658.61
402.729	640.31
403.107	655.9
403.486	662.91
403.864	663.13
404.242	681.66
404.62	681.21
404.999	679.4
405.377	699.29
405.755	692.51
406.133	708.33
406.511	719.4
406.889	722.79
407.267	726.41
407.645	738.38
408.023	763.24
408.401	742.68
408.779	772.28
409.156	766.86
409.534	766.86
409.912	808.89
410.29	790.59
410.667	820.19
411.045	830.81
411.422	814.77
411.8	831.72
412.178	843.01
412.555	875.33
412.933	873.3
413.31	883.47
413.687	907.42
414.065	884.82
414.442	882.11
414.819	897.7
415.197	920.98
415.574	939.06
415.951	937.7
416.328	938.38
416.705	941.32
417.082	971.6
417.46	964.37
417.837	977.7
418.214	997.36
418.591	1000.75
418.967	1010.47
419.344	1017.02
419.721	1023.8
420.098	1016.12
420.475	1066.51
420.852	1062.44
421.228	1048.43
421.605	1066.74
421.982	1076.45
422.358	1075.78
422.735	1102.22
423.111	1089.34
423.488	1117.13
423.864	1109.45
424.241	1105.15
424.617	1141.31
424.994	1165.04
425.37	1160.97
425.746	1182.44
426.123	1192.84
426.499	1217.47
426.875	1193.29
427.251	1217.69
427.627	1282.33
428.003	1264.92
428.379	1293.17
428.756	1293.62
429.132	1288.65
429.507	1343.79
429.883	1321.19
430.259	1335.88
430.635	1363.23
431.011	1372.27
431.387	1414.75
431.763	1409.78
432.138	1447.07
432.514	1446.16
432.89	1458.14
433.265	1481.87
433.641	1515.54
434.016	1501.3
434.392	1566.16
434.767	1579.04
435.143	1593.5
435.518	1588.53
435.894	1606.38
436.269	1664.24
436.644	1668.98
437.02	1682.99
437.395	1670.56
437.77	1711.47
438.145	1732.26
438.52	1727.06
438.895	1781.97
439.271	1747.62
439.646	1792.59
440.021	1802.31
440.395	1821.52
440.77	1795.76
441.145	1832.59
441.52	1817.23
441.895	1878.92
442.27	1877.11
442.645	1872.14
443.019	1883.44
443.394	1900.39
443.769	1909.2
444.143	1913.27
444.518	1974.28
444.892	1944.68
445.267	1973.38
445.641	1993.04
446.016	2012.02
446.39	1997.11
446.764	1998.01
447.139	2012.93
447.513	2020.61
447.887	2020.61
448.262	2047.28
448.636	2040.27
449.01	2094.73
449.384	2120.95
449.758	2088.18
450.132	2119.59
450.506	2175.86
450.88	2209.76
451.254	2188.74
451.628	2188.06
452.002	2253.82
452.376	2278.68
452.75	2324.56
453.123	2279.81
453.497	2334.73
453.871	2335.86
454.244	2403.43
454.618	2456.08
454.992	2420.6
455.365	2437.32
455.739	2514.16
456.112	2516.42
456.486	2578.34
456.859	2550.54
457.232	2623.53
457.606	2638.45
457.979	2696.75
458.352	2728.39
458.725	2736.75
459.099	2727.48
459.472	2811.1
459.845	2790.76
460.218	2837.54
460.591	2865.79
460.964	2898.33
461.337	2991.21
461.71	3003.18
462.083	3026.23
462.456	3036.4
462.829	3026.91
463.201	3139.9
463.574	3138.32
463.947	3171.09
464.32	3199.34
464.692	3240.01
465.065	3277.3
465.438	3351.2
465.81	3377.41
466.183	3386.22
466.555	3436.17
466.928	3477.07
467.3	3484.98
467.672	3492.66
468.045	3638.42
468.417	3580.12
468.789	3617.86
469.161	3668.93
469.534	3699.66
469.906	3791.41
470.278	3830.28
470.65	3821.69
471.022	3926.32
471.394	3924.97
471.766	4011.74
472.138	4055.81
472.51	4128.8
472.882	4185.53
473.253	4231.17
473.625	4249.25
473.997	4366.31
474.369	4414.22
474.74	4407.89
475.112	4449.7
475.484	4567.66
475.855	4638.39
476.227	4648.79
476.598	4756.13
476.97	4806.98
477.341	4889.91
477.713	5001.1
478.084	5056.46
478.455	5171.71
478.827	5165.39
479.198	5364.48
479.569	5352.27
479.94	5463.46
480.311	5560.63
480.682	5695.54
481.053	5765.82
481.424	5856.44
481.795	5922.66
482.166	6029.54
482.537	6102.31
482.908	6208.07
483.279	6288.75
483.65	6395.86
484.021	6488.74
484.391	6596.08
484.762	6571.9
485.133	6685.35
485.503	6786.36
485.874	6931.22
486.244	6986.81
486.615	7171.89
486.985	7241.94
487.356	7337.31
487.726	7464.31
488.097	7548.37
488.467	7576.17
488.837	7705.21
489.207	7842.38
489.578	7967.35
489.948	8031.07
490.318	8172.99
490.688	8206.21
491.058	8314.91
491.428	8494.34
491.798	8539.99
492.168	8746.76
492.538	8737.72
492.908	8887.55
493.278	8993.08
493.648	9021.1
494.017	9102.46
494.387	9228.1
494.757	9316.24
495.126	9310.14
495.496	9377.03
495.866	9504.26
496.235	9605.04
496.605	9723.23
496.974	9709.9
497.344	9824.93
497.713	9951.93
498.082	9861.76
498.452	10032.83
498.821	10082.55
499.19	10182.66
499.559	10218.81
499.928	10248.42
500.298	10343.33
500.667	10391.24
501.036	10355.31
501.405	10555.53
501.774	10447.96
502.143	10704.9
502.512	10724.56
502.88	10779.25
503.249	10771.34
503.618	10863.54
503.987	10931.11
504.356	10941.28
504.724	11045.01
505.093	11081.16
505.462	11164.55
505.83	11174.27
506.199	11289.52
506.567	11418.78
506.936	11455.39
507.304	11575.16
507.672	11673.01
508.041	11626.23
508.409	11740.36
508.777	11882.27
509.145	11931.08
509.514	11976.73
509.882	12049.5
510.25	12088.37
510.618	12280.68
510.986	12238.65
511.354	12348.47
511.722	12437.29
512.09	12540.56
512.458	12520.22
512.826	12667.79
513.193	12790.5
513.561	12788.69
513.929	12947.33
514.297	13110.94
514.664	13184.84
515.032	13176.48
515.4	13455.34
515.767	13382.8
516.135	13502.34
516.502	13440.65
516.869	13711.6
517.237	13742.56
517.604	13713.86
517.972	13972.84
518.339	13999.5
518.706	14142.1
519.073	14152.5
519.44	14295.77
519.808	14509.55
520.175	14444.69
520.542	14636.32
520.909	14731.69
521.276	14859.14
521.643	15014.17
522.009	15055.07
522.376	15204.9
522.743	15383.65
523.11	15475.17
523.477	15642.85
523.843	15789.29
524.21	15894.14
524.577	16053.01
524.943	16102.27
525.31	16262.27
525.676	16516.73
526.043	16643.96
526.409	16735.03
526.776	16991.74
527.142	17082.14
527.508	17086.66
527.874	17288.01
528.241	17352.41
528.607	17419.75
528.973	17619.97
529.339	17708.33
529.705	17962.79
530.071	18111.26
530.437	18291.37
530.803	18337.24
531.169	18393.74
531.535	18487.07
531.901	18622.89
532.267	18636.67
532.632	18817.23
532.998	18892.26
533.364	19052.25
533.73	19189.42
534.095	19333.83
534.461	19301.96
534.826	19415.41
535.192	19484.78
535.557	19668.51
535.923	19685.01
536.288	19830.31
536.653	19971.78
537.019	19957.99
537.384	20069.63
537.749	20163.64
538.114	20118.67
538.479	20092.45
538.845	20274.82
539.21	20299.9
539.575	20386.23
539.94	20573.34
540.305	20662.61
540.67	20613.34
541.034	20770.4
541.399	20800.91
541.764	20858.76
542.129	20919.55
542.494	21047.23
542.858	21074.57
543.223	21124.29
543.587	21329.48
543.952	21176.49
544.316	21333.78
544.681	21333.55
545.045	21526.99
545.41	21558.85
545.774	21563.83
546.138	21645.18
546.503	21741.9
546.867	21749.81
547.231	21972.18
547.595	22031.84
547.959	22069.58
548.324	22132.4
548.688	22152.74
549.052	22330.13
549.416	22168.33
549.779	22327.42
550.143	22386.18
550.507	22509.56
550.871	22656.23
551.235	22628.88
551.599	22809.89
551.962	22871.81
552.326	22988.42
552.689	23065.03
553.053	22962.66
553.417	23286.04
553.78	23406.94
554.143	23520.38
554.507	23481.74
554.87	23569.2
555.234	23761.28
555.597	23660.95
555.96	23805.12
556.323	23995.4
556.686	24040.6
557.05	24209.18
557.413	24216.41
557.776	24183.42
558.139	24523.52
558.502	24702.05
558.865	24669.73
559.228	24872.44
559.59	24886.22
559.953	25086.67
560.316	25323.27
560.679	25236.05
561.041	25525.08
561.404	25712.42
561.767	25945.18
562.129	25924.61
562.492	26199.41
562.854	26194.89
563.217	26313.31
563.579	26455.9
563.941	26786.97
564.304	26950.58
564.666	27122.32
565.028	27281.42
565.39	27286.39
565.753	27726.15
566.115	27821.74
566.477	27963.66
566.839	28209.3
567.201	28616.52
567.563	28590.99
567.925	28884.31
568.287	29069.17
568.648	29313.9
569.01	29431.42
569.372	29708.92
569.734	29870.73
570.095	30136.48
570.457	30359.98
570.819	30441.78
571.18	30534.66
571.542	30935.33
571.903	31072.95
572.265	31370.35
572.626	31648.53
572.987	31707.06
573.349	32035.64
573.71	32235.41
574.071	32447.61
574.432	32740.93
574.794	33018.21
575.155	33159.9
575.516	33117.65
575.877	33377.3
576.238	33581.59
576.599	33810.28
576.96	33962.14
577.32	34113.55
577.681	34313.55
578.042	34435.13
578.403	34680.77
578.763	34657.27
579.124	34870.82
579.485	34987.43
579.845	35146.29
580.206	35162.79
580.566	35228.33
580.927	35323.24
581.287	35467.87
581.648	35381.32
582.008	35689.56
582.368	35639.84
582.728	35740.85
583.089	35804.58
583.449	35806.16
583.809	35886.61
584.169	35987.63
584.529	35819.72
584.889	36380.84
585.249	36166.61
585.609	36044.35
585.969	36300.16
586.329	36077.12
586.688	36286.6
587.048	36132.26
587.408	36072.37
587.768	36072.14
588.127	36257.9
588.487	36148.98
588.846	36384.23
589.206	36245.7
589.565	36038.02
589.925	36334.51
590.284	36393.27
590.643	36378.8
591.003	36334.06
591.362	36436.43
591.721	36308.3
592.08	36412.93
592.44	36483.43
592.799	36380.61
593.158	36260.16
593.517	36244.34
593.876	36251.8
594.235	36301.74
594.593	36228.52
594.952	36270.78
595.311	36331.35
595.67	36288.41
596.029	36421.97
596.387	36400.05
596.746	36566.37
597.104	36391.68
597.463	36349.88
597.822	36505.58
598.18	36400.5
598.538	36281.86
598.897	36464.9
599.255	36384.68
599.613	36784.89
599.972	36467.39
600.33	36581.96
600.688	36518.23
601.046	36486.6
601.404	36774.5
601.762	36482.53
602.12	36681.39
602.478	36666.48
602.836	36732.01
603.194	36478.69
603.552	36579.93
603.91	36578.12
604.268	36596.88
604.625	36643.43
604.983	36838.23
605.341	36473.49
605.698	36787.38
606.056	37041.38
606.413	36770.21
606.771	36928.62
607.128	36841.84
607.485	36703.99
607.843	36787.83
608.2	36936.53
608.557	37043.42
608.914	37017.88
609.272	37062.4
609.629	37198.89
609.986	37262.62
610.343	37192.12
610.7	37359.79
611.057	37242.96
611.414	37143.53
611.771	37375.84
612.127	37419.68
612.484	37340.13
612.841	37576.51
613.198	37460.58
613.554	37540.81
613.911	37786.68
614.267	37652.44
614.624	37783.06
614.98	37763.63
615.337	37858.99
615.693	37905.09
616.05	37937.18
616.406	37955.03
616.762	37922.94
617.118	37962.49
617.475	37944.19
617.831	38111.64
618.187	38076.16
618.543	38016.05
618.899	38287.91
619.255	38161.36
619.611	38222.82
619.967	38384.85
620.323	38337.85
620.678	38201.81
621.034	38119.32
621.39	38209.49
621.746	38094.24
622.101	38650.38
622.457	38211.75
622.812	38499.65
623.168	38440.9
623.523	38362.25
623.879	38477.96
624.234	38236.83
624.589	38367.9
624.945	38275.93
625.3	38289.94
625.655	38429.82
626.01	38456.49
626.365	38434.12
626.72	38282.26
627.075	38244.07
627.43	38312.76
627.785	38333.1
628.14	38252.2
628.495	38336.72
628.85	38399.09
629.205	38083.39
629.559	38285.42
629.914	38187.8
630.269	38278.19
630.623	38086.56
630.978	37922.72
631.332	38111.87
631.687	38067.57
632.041	37891.53
632.396	37996.84
632.75	38009.72
633.104	37997.29
633.459	37858.31
633.813	37698.54
634.167	37740.35
634.521	37843.17
634.875	37748.03
635.229	37571.09
635.583	37434.59
635.937	37412.22
636.291	37327.7
636.645	37396.86
636.999	37266.46
637.352	37273.7
637.706	37097.88
638.06	37294.71
638.413	37095.85
638.767	36941.95
639.121	37069.63
639.474	36799.81
639.828	36826.02
640.181	36846.14
640.534	36956.64
640.888	36661.51
641.241	36482.3
641.594	36628.74
641.947	36679.36
642.301	36454.28
642.654	36597.1
643.007	36518.46
643.36	36556.65
643.713	36344.68
644.066	36595.29
644.419	36215.19
644.771	35884.81
645.124	35532.72
645.477	35464.03
645.83	35413.41
646.182	35544.02
646.535	35352.16
646.888	35433.07
647.24	35276.23
647.593	35433.29
647.945	35323.46
648.298	35218.38
648.65	35079.63
649.002	34822.46
649.355	34636.48
649.707	34611.62
650.059	34596.93
650.411	35181.32
650.763	35202.56
651.115	35934.07
651.467	35590.12
651.819	35676.22
652.171	35653.4
652.523	35641.2
652.875	35636
653.227	35460.64
653.578	35668.54
653.93	35505.83
654.282	35407.08
654.633	35356.01
654.985	35243.92
655.337	35542.22
655.688	35353.75
656.039	35631.48
656.391	35144.49
656.742	35130.02
657.094	35256.12
657.445	35331.15
657.796	35280.75
658.147	35129.12
658.498	35213.18
658.849	35409.79
659.2	35110.14
659.551	35095.9
659.902	35269.91
660.253	35095
660.604	35322.79
660.955	35072.62
661.306	35361.43
661.656	35203.92
662.007	35144.49
662.358	35260.64
662.708	35365.5
663.059	35272.17
663.409	35069.69
663.76	35125.5
664.11	35218.38
664.461	35254.99
664.811	35199.17
665.161	35278.04
665.511	35097.48
665.862	35148.33
666.212	35175.45
666.562	35148.1
666.912	35231.94
667.262	35060.42
667.612	35032.85
667.962	35248.89
668.312	35104.49
668.662	35280.08
669.011	35253.86
669.361	35040.31
669.711	35138.84
670.06	35072.4
670.41	35091.15
670.76	35050.48
671.109	35138.61
671.459	35036.69
671.808	35015.45
672.157	35089.12
672.507	34811.61
672.856	34868.56
673.205	34904.94
673.554	35054.54
673.904	34898.84
674.253	35028.56
674.602	34863.59
674.951	34495.01
675.3	34329.37
675.649	34871.95
675.998	34894.1
676.346	34833.76
676.695	34824.27
677.044	34627.21
677.393	34764.83
677.741	34757.6
678.09	34709.24
678.438	34620.66
678.787	34608
679.135	34592.18
679.484	34387.9
679.832	34603.48
680.181	34311.74
680.529	34479.42
680.877	34175.02
681.225	34216.15
681.573	34457.72
681.922	34259.54
682.27	34125.3
682.618	34110.39
682.966	34024.74
683.314	34003.27
683.661	33995.36
684.009	33868.36
684.357	33820.23
684.705	33670.17
685.053	33753.79
685.4	33574.36
685.748	33451.42
686.095	33511.31
686.443	33285.78
686.79	33052.11
687.138	33253.24
687.485	33183.63
687.832	33074.03
688.18	33057.31
688.527	32906.13
688.874	33006.69
689.221	32820.25
689.568	32700.93
689.915	32514.72
690.262	32771.21
690.609	32510.88
690.956	32369.19
691.303	32357.21
691.65	32232.25
691.997	32126.03
692.344	32026.83
692.69	31865.93
693.037	31902.76
693.383	31566.5
693.73	31599.27
694.077	31517.46
694.423	31515.2
694.769	31292.16
695.116	31346.39
695.462	31121.09
695.808	31056.91
696.155	31078.83
696.501	30789.57
696.847	30851.72
697.193	30583.02
697.539	30595
697.885	30420.99
698.231	30392.97
698.577	30272.98
698.923	30201.56
699.269	30080.66
699.614	30098.97
699.96	29850.84
700.306	29759.32
700.651	29585.08
700.997	29545.08
701.342	29468.93
701.688	29450.62
702.033	29209.73
702.379	29253.57
702.724	29062.84
703.069	29227.58
703.415	28807.03
703.76	28770.64
704.105	28855.84
704.45	28615.17
704.795	28637.76
705.14	28478.45
705.485	28607.93
705.83	28261.5
706.175	28308.96
706.52	28303.54
706.865	28066.93
707.209	28133.37
707.554	27967.05
707.899	27941.29
708.243	27706.26
708.588	27699.26
708.932	27587.62
709.277	27711.01
709.621	27614.97
709.966	27358.93
710.31	27432.37
710.654	27021.76
710.998	27223.11
711.342	27160.51
711.687	27213.85
712.031	26973.85
712.375	26956
712.719	26992.61
713.063	26786.06
713.407	26946.73
713.75	26770.69
714.094	26754.65
714.438	26714.42
714.782	26744.71
715.125	26526.86
715.469	26680.75
715.812	26471.49
716.156	26429.23
716.499	26428.78
716.843	26489.35
717.186	26108.34
717.53	26410.48
717.873	26261.56
718.216	26266.07
718.559	26210.94
718.902	25943.82
719.246	26096.81
719.589	25982.69
719.932	26023.37
720.275	26108.34
720.617	26077.15
720.96	25832.64
721.303	25999.19
721.646	25827.22
721.989	25714
722.331	25958.74
722.674	25788.57
723.016	25748.57
723.359	25641.46
723.701	25707.22
724.044	25563.72
724.386	25490.05
724.729	25498.41
725.071	25497.28
725.413	25470.84
725.755	25463.61
726.097	25455.25
726.439	25332.09
726.782	25326.89
727.124	25449.6
727.465	25417.96
727.807	25338.64
728.149	25306.33
728.491	25318.08
728.833	25357.62
729.175	25430.62
729.516	25208.02
729.858	25280.79
730.199	25331.86
730.541	25264.97
730.882	25246.67
731.224	25280.11
731.565	25215.03
731.906	25192.88
732.248	25108.37
732.589	25051.87
732.93	25075.15
733.271	25078.54
733.612	25128.25
733.953	25212.32
734.294	25156.5
734.635	25040.8
734.976	25251.19
735.317	25229.94
735.658	25161.25
735.999	25039.67
736.339	25164.41
736.68	25149.49
737.021	25090.06
737.361	25034.24
737.702	25288.93
738.042	25104.75
738.383	25200.34
738.723	25184.97
739.063	25205.76
739.404	25316.72
739.744	25221.36
740.084	25112.43
740.424	25264.07
740.764	25229.49
741.104	25434.23
741.444	25238.31
741.784	25213.45
742.124	25498.64
742.464	25321.24
742.804	25368.47
743.143	25360.34
743.483	25499.32
743.823	25346.55
744.162	25441.46
744.502	25555.59
744.841	25384.97
745.181	25669.93
745.52	25542.93
745.86	25589.48
746.199	25687.33
746.538	25763.04
746.877	25895.92
747.216	25849.81
747.556	25787.44
747.895	25808.69
748.234	25841.45
748.573	25874.9
748.911	25977.49
749.25	25979.08
749.589	25926.65
749.928	26096.59
750.267	26208.9
750.605	26165.06
750.944	26215.23
751.283	26390.82
751.621	26434.66
751.96	26512.4
752.298	26511.72
752.636	26619.06
752.975	26582.68
753.313	26640.3
753.651	26982.44
753.989	26843.01
754.327	26908.09
