Data from 19-3935_FLMS001491_001.txt Node
Date: Thu Apr 19 16:38:52 BST 2018
User: hsy
Spectrometer: FLMS00149
Trigger mode: 0
Integration Time (sec): 1.000000E-2
Scans to average: 10
Electric dark correction enabled: true
Nonlinearity correction enabled: false
Boxcar width: 0
XAxis mode: Wavelengths
Number of Pixels in Spectrum: 2048
>>>>>Begin Spectral Data<<<<<
341.393	-10.95
341.776	-10.95
342.16	-10.95
342.543	-53.2
342.927	-71.96
343.31	-54.79
343.693	-67.67
344.077	-66.31
344.46	-50.04
344.843	-72.41
345.226	-38.06
345.61	-34.45
345.993	-14.11
346.376	2.84
346.759	0.13
347.142	3.29
347.525	35.61
347.908	59.33
348.291	76.96
348.674	105.89
349.057	113.8
349.44	115.38
349.823	149.5
350.206	187.47
350.588	225.88
350.971	249.16
351.354	241.7
351.737	267.46
352.119	269.27
352.502	278.54
352.884	321.02
353.267	311.53
353.65	321.47
354.032	340.91
354.414	342.49
354.797	329.61
355.179	325.99
355.562	340.01
355.944	364.86
356.326	364.19
356.709	356.5
357.091	358.54
357.473	362.6
357.855	382.26
358.238	387.01
358.62	386.33
359.002	384.3
359.384	382.04
359.766	376.84
360.148	375.94
360.53	383.39
360.912	373
361.294	374.81
361.676	387.01
362.057	371.42
362.439	383.17
362.821	359.89
363.203	377.74
363.584	367.8
363.966	358.08
364.348	346.11
364.729	354.47
365.111	384.3
365.493	375.94
365.874	381.13
366.256	340.68
366.637	380.46
367.019	360.34
367.4	367.12
367.781	362.83
368.163	356.05
368.544	362.6
368.925	367.8
369.306	359.89
369.688	373.45
370.069	379.55
370.45	358.08
370.831	364.86
371.212	362.38
371.593	352.43
371.974	381.81
372.355	349.72
372.736	379.55
373.117	365.32
373.498	375.94
373.879	369.16
374.26	373.22
374.641	362.15
375.021	359.21
375.402	392.66
375.783	373.45
376.163	411.19
376.544	405.54
376.925	387.24
377.305	403.51
377.686	408.25
378.066	403.51
378.447	398.08
378.827	428.36
379.208	402.15
379.588	422.94
379.968	418.65
380.349	392.89
380.729	406.22
381.109	410.29
381.489	415.94
381.87	428.82
382.25	429.27
382.63	420
383.01	428.59
383.39	442.83
383.77	443.28
384.15	415.26
384.53	444.18
384.91	416.84
385.29	436.27
385.67	448.7
386.049	441.47
386.429	451.87
386.809	448.7
387.189	457.52
387.568	469.04
387.948	450.51
388.328	473.79
388.707	468.36
389.087	460.45
389.466	471.98
389.846	483.96
390.225	482.6
390.605	489.83
390.984	470.4
391.363	517.18
391.743	484.86
392.122	497.29
392.501	505.88
392.881	504.75
393.26	522.6
393.639	494.58
394.018	533.22
394.397	511.75
394.776	518.98
395.155	525.99
395.534	537.06
395.913	544.97
396.292	535.48
396.671	549.49
397.05	536.61
397.429	551.3
397.808	550.85
398.186	554.24
398.565	540
398.944	539.32
399.323	561.69
399.701	580.9
400.08	588.36
400.458	567.34
400.837	591.52
401.215	592.88
401.594	586.1
401.972	601.92
402.351	612.77
402.729	619.55
403.107	609.6
403.486	605.99
403.864	634.01
404.242	625.2
404.62	619.09
404.999	645.53
405.377	656.38
405.755	681.01
406.133	667.45
406.511	665.65
406.889	683.72
407.267	693.89
407.645	714.68
408.023	707.45
408.401	694.8
408.779	702.48
409.156	711.07
409.534	725.31
409.912	742.71
410.29	748.81
410.667	741.12
411.045	758.75
411.422	763.27
411.8	758.3
412.178	806.66
412.555	815.92
412.933	811.63
413.31	801.91
413.687	836.49
414.065	842.36
414.442	843.95
414.819	858.86
415.197	884.85
415.574	893.21
415.951	866.09
416.328	886.43
416.705	898.86
417.082	919.2
417.46	886.66
417.837	905.41
418.214	912.42
418.591	930.27
418.967	935.02
419.344	945.64
419.721	952.64
420.098	944.51
420.475	954
420.852	963.27
421.228	996.49
421.605	1007.11
421.982	1000.78
422.358	1010.95
422.735	1065.18
423.111	1024.28
423.488	1047.56
423.864	1075.13
424.241	1071.51
424.617	1101.57
424.994	1093.88
425.37	1097.5
425.746	1087.1
426.123	1129.59
426.499	1126.2
426.875	1132.75
427.251	1160.77
427.627	1154
428.003	1203.71
428.379	1167.33
428.756	1210.94
429.132	1227.21
429.507	1251.85
429.883	1250.72
430.259	1272.64
430.635	1284.39
431.011	1330.71
431.387	1316.02
431.763	1331.84
432.138	1339.53
432.514	1381.79
432.89	1391.73
433.265	1423.82
433.641	1394.44
434.016	1411.39
434.392	1425.85
434.767	1460.43
435.143	1476.92
435.518	1500.88
435.894	1506.08
436.269	1543.82
436.644	1590.14
437.02	1553.76
437.395	1576.81
437.77	1622.01
438.145	1634.66
438.52	1620.88
438.895	1657.71
439.271	1704.26
439.646	1700.2
440.021	1693.87
440.395	1737.48
440.77	1713.08
441.145	1701.33
441.52	1761.89
441.895	1773.87
442.27	1758.27
442.645	1776.35
443.019	1789.68
443.394	1789.68
443.769	1810.47
444.143	1782.45
444.518	1834.43
444.892	1850.93
445.267	1862.23
445.641	1873.3
446.016	1891.6
446.39	1877.82
446.764	1934.09
447.139	1913.07
447.513	1944.71
447.887	1944.93
448.262	1965.05
448.636	1946.74
449.01	1947.19
449.384	1961.66
449.758	2002.56
450.132	2060.19
450.506	2054.08
450.88	2081.2
451.254	2035.1
451.628	2097.25
452.002	2126.17
452.376	2153.52
452.75	2148.55
453.123	2179.05
453.497	2174.53
453.871	2204.14
454.244	2251.59
454.618	2243.68
454.992	2301.99
455.365	2333.17
455.739	2344.7
456.112	2358.26
456.486	2360.07
456.859	2423.11
457.232	2434.19
457.606	2482.77
457.979	2500.4
458.352	2542.21
458.725	2542.43
459.099	2591.02
459.472	2649.55
459.845	2650.45
460.218	2692.49
460.591	2708.08
460.964	2702.88
461.337	2778.13
461.71	2798.7
462.083	2856.32
462.456	2865.59
462.829	2864.46
463.201	2890.45
463.574	2932.03
463.947	2955.53
464.32	2993.95
464.692	3066.71
465.065	3086.6
465.438	3085.92
465.81	3143.1
466.183	3163.21
466.555	3192.59
466.928	3216.54
467.3	3238.46
467.672	3280.04
468.045	3297.44
468.417	3356.88
468.789	3327.5
469.161	3398.23
469.534	3415.63
469.906	3456.76
470.278	3468.51
470.65	3548.96
471.022	3603.65
471.394	3675.06
471.766	3662.18
472.138	3648.39
472.51	3803.19
472.882	3812.23
473.253	3805.45
473.625	3957.99
473.997	3952.34
474.369	3949.85
474.74	3993.92
475.112	4099.45
475.484	4140.13
475.855	4237.3
476.227	4301.71
476.598	4374.02
476.97	4400.69
477.341	4483.85
477.713	4499.22
478.084	4520.91
478.455	4665.32
478.827	4672.77
479.198	4854.91
479.569	4908.7
479.94	4983.95
480.311	4975.14
480.682	5113.21
481.053	5204.74
481.424	5288.12
481.795	5379.87
482.166	5390.49
482.537	5463.94
482.908	5599.08
483.279	5676.81
483.65	5752.07
484.021	5883.81
484.391	5932.63
484.762	6009.46
485.133	6023.02
485.503	6103.7
485.874	6241.09
486.244	6287.19
486.615	6430.24
486.985	6507.3
487.356	6576.9
487.726	6674.75
488.097	6775.54
488.467	6820.06
488.837	6965.82
489.207	7024.58
489.578	7103.67
489.948	7176.66
490.318	7339.37
490.688	7340.73
491.058	7405.81
491.428	7569.19
491.798	7571
492.168	7794.5
492.538	7866.36
492.908	7886.47
493.278	8024.1
493.648	8060.93
494.017	8140.48
494.387	8245.33
494.757	8289.17
495.126	8286.69
495.496	8379.79
495.866	8462.5
496.235	8553.57
496.605	8632.89
496.974	8665.89
497.344	8780.69
497.713	8815.26
498.082	8819.78
498.452	8943.17
498.821	9017.29
499.19	8959.21
499.559	9095.93
499.928	9162.37
500.298	9255.7
500.667	9294.8
501.036	9258.87
501.405	9351.52
501.774	9335.47
502.143	9486.21
502.512	9518.97
502.88	9563.94
503.249	9577.28
503.618	9688.01
503.987	9718.74
504.356	9807.78
504.724	9801.68
505.093	9799.42
505.462	9876.03
505.83	9951.05
506.199	9959.19
506.567	10179.75
506.936	10132.52
507.304	10264.26
507.672	10255.9
508.041	10294.32
508.409	10384.26
508.777	10466.52
509.145	10586.06
509.514	10559.17
509.882	10568.21
510.25	10685.27
510.618	10778.15
510.986	10713.97
511.354	10821.54
511.722	10925.72
512.09	11013.17
512.458	11019.27
512.826	11081.87
513.193	11150.57
513.561	11257.01
513.929	11337.23
514.297	11377
514.664	11484.34
515.032	11507.17
515.4	11632.59
515.767	11612.03
516.135	11704.9
516.502	11711.46
516.869	11854.5
517.237	11979.47
517.604	11910.1
517.972	12117.55
518.339	12201.39
518.706	12237.55
519.073	12335.17
519.44	12399.8
519.808	12461.72
520.175	12574.49
520.542	12703.97
520.909	12750.53
521.276	12861.94
521.643	13087.47
522.009	13045.89
522.376	13148.03
522.743	13219.89
523.11	13496.04
523.477	13536.95
523.843	13665.76
524.21	13846.54
524.577	13909.82
524.943	13960.44
525.31	14015.13
525.676	14195.46
526.043	14369.69
526.409	14465.96
526.776	14615.34
527.142	14692.17
527.508	14763.35
527.874	14894.42
528.241	14982.33
528.607	15040.86
528.973	15261.87
529.339	15363.11
529.705	15404.47
530.071	15537.35
530.437	15689.88
530.803	15748.64
531.169	15847.62
531.535	15940.05
531.901	15997.45
532.267	16051.23
532.632	16180.72
532.998	16298.68
533.364	16291.45
533.73	16403.54
534.095	16646.92
534.461	16675.85
534.826	16793.58
535.192	16789.74
535.557	16994.26
535.923	16984.99
536.288	17062.05
536.653	17199.9
537.019	17205.78
537.384	17071.32
537.749	17236.74
538.114	17427.92
538.479	17309.28
538.845	17426.11
539.21	17445.54
539.575	17587.46
539.94	17700.45
540.305	17718.98
540.67	17811.64
541.034	17788.13
541.399	17909.71
541.764	17971.86
542.129	17928.7
542.494	18035.36
542.858	18206.43
543.223	18163.49
543.587	18289.82
543.952	18228.35
544.316	18330.49
544.681	18248.01
545.045	18430.83
545.41	18545.63
545.774	18467.44
546.138	18453.88
546.503	18584.05
546.867	18629.02
547.231	18794.44
547.595	18753.98
547.959	18837.37
548.324	18883.02
548.688	19014.09
549.052	19116.23
549.416	18962.57
549.779	19073.98
550.143	19141.54
550.507	19223.35
550.871	19232.84
551.235	19297.25
551.599	19524.81
551.962	19519.16
552.326	19494.76
552.689	19464.47
553.053	19514.42
553.417	19655.88
553.78	19922.77
554.143	19874.63
554.507	19968.19
554.87	20004.57
555.234	20272.14
555.597	20099.26
555.96	20182.42
556.323	20389.87
556.686	20438.01
557.05	20533.15
557.413	20556.2
557.776	20667.61
558.139	20804.78
558.502	20980.14
558.865	20989.41
559.228	21129.97
559.59	21282.05
559.953	21324.76
560.316	21587.13
560.679	21604.08
561.041	21764.07
561.404	21935.37
561.767	22087
562.129	22091.07
562.492	22305.76
562.854	22445.86
563.217	22527.9
563.579	22648.35
563.941	22909.36
564.304	23095.57
564.666	23303.92
565.028	23362
565.39	23589.34
565.753	23855.09
566.115	23976.22
566.477	24143
566.839	24342.76
567.201	24585.7
567.563	24742.3
567.925	25040.6
568.287	24972.13
568.648	25267.26
569.01	25485.33
569.372	25773.46
569.734	25872.44
570.095	26213.68
570.457	26498.41
570.819	26637.84
571.18	26812.08
571.542	27309.47
571.903	27224.72
572.265	27574.32
572.626	27712.84
572.987	27932.05
573.349	28136.34
573.71	28491.58
574.071	28621.97
574.432	28983.09
574.794	29322.52
575.155	29255.4
575.516	29470.31
575.877	29735.16
576.238	29830.08
576.599	30063.52
576.96	30236.39
577.32	30419.44
577.681	30631.86
578.042	30882.93
578.403	30859.65
578.763	31015.81
579.124	31208.57
579.485	31501.67
579.845	31556.81
580.206	31518.85
580.566	31647.66
580.927	31750.03
581.287	32029.12
581.648	31880.19
582.008	32171.48
582.368	32206.29
582.728	32271.82
583.089	32248.77
583.449	32329.45
583.809	32335.77
584.169	32519.05
584.529	32462.55
584.889	32718.59
585.249	32531.48
585.609	32401.99
585.969	32732.83
586.329	32626.39
586.688	32850.34
587.048	32736.89
587.408	32814.63
587.768	32769.21
588.127	32766.27
588.487	32810.79
588.846	32966.04
589.206	32770.56
589.565	32772.15
589.925	32985.93
590.284	32968.98
590.643	32835.42
591.003	33089.2
591.362	33324.9
591.721	33088.07
592.08	33014.17
592.44	33413.03
592.799	33098.69
593.158	33239.03
593.517	33043.55
593.876	33286.48
594.235	33344.11
594.593	33266.82
594.952	33275.41
595.311	33242.64
595.67	33272.02
596.029	33391.11
596.387	33472.69
596.746	33626.36
597.104	33375.07
597.463	33465.46
597.822	33753.14
598.18	33531.22
598.538	33417.33
598.897	33797.66
599.255	33538.23
599.613	33914.49
599.972	33594.5
600.33	33766.7
600.688	33832.91
601.046	33835.17
601.404	33969.86
601.762	33781.39
602.12	33928.27
602.478	33997.65
602.836	34114.03
603.194	33744.32
603.552	33985.67
603.91	34031.55
604.268	34093.92
604.625	34069.51
604.983	34237.42
605.341	34113.81
605.698	34257.76
606.056	34398.32
606.413	34348.15
606.771	34490.97
607.128	34460.24
607.485	34378.66
607.843	34316.96
608.2	34391.54
608.557	34649.16
608.914	34488.26
609.272	34706.11
609.629	34888.02
609.986	34733.9
610.343	34729.16
610.7	34995.14
611.057	35052.09
611.414	34824.52
611.771	35132.76
612.127	35072.65
612.484	35172.54
612.841	35251.63
613.198	35027.68
613.554	35100.22
613.911	35448.01
614.267	35287.79
614.624	35394.68
614.98	35460.21
615.337	35522.36
615.693	35621.11
616.05	35595.8
616.406	35682.8
616.762	35628.34
617.118	35495.01
617.475	35516.03
617.831	35740.66
618.187	35784.27
618.543	35929.35
618.899	36083.92
619.255	36017.94
619.611	35742.46
619.967	35926.41
620.323	36153.98
620.678	35955.57
621.034	35864.49
621.39	35967.32
621.746	35832.41
622.101	36233.3
622.457	35911.5
622.812	36219.51
623.168	36245.28
623.523	36246.63
623.879	36305.84
624.234	36128.22
624.589	36115.11
624.945	36201.44
625.3	36330.25
625.655	36252.28
626.01	36329.34
626.365	36395.55
626.72	36362.11
627.075	36121.89
627.43	36175
627.785	36118.05
628.14	36106.07
628.495	36072.85
628.85	36255.22
629.205	36000.76
629.559	36176.35
629.914	36010.25
630.269	36045.73
630.623	35768.68
630.978	35751.05
631.332	35950.37
631.687	35861.11
632.041	35763.48
632.396	35861.56
632.75	35857.94
633.104	35770.26
633.459	35803.03
633.813	35662.24
634.167	35611.85
634.521	35633.77
634.875	35674.44
635.229	35663.6
635.583	35325.07
635.937	35313.77
636.291	35390.16
636.645	35370.04
636.999	35163.72
637.352	35255.47
637.706	35058.41
638.06	35248.92
638.413	35142.93
638.767	35086.66
639.121	35088.7
639.474	34875.14
639.828	34970.96
640.181	34990.85
640.534	35030.39
640.888	34869.04
641.241	34693
641.594	34720.8
641.947	34825.88
642.301	34636.05
642.654	34655.71
643.007	34722.83
643.36	34788.14
643.713	34587.92
644.066	34755.15
644.419	34474.25
644.771	34092.11
645.124	33665.46
645.477	33731.67
645.83	33676.08
646.182	33624.78
646.535	33552.24
646.888	33669.75
647.24	33607.38
647.593	33762.63
647.945	33657.55
648.298	33471.79
648.65	33320.83
649.002	33062.53
649.355	32928.75
649.707	32780.73
650.059	32838.81
650.411	33385.24
650.763	33600.37
651.115	34094.15
651.467	33970.99
651.819	34072.9
652.171	33977.99
652.523	33901.83
652.875	33868.39
653.227	33896.41
653.578	34087.82
653.93	33923.53
654.282	33806.47
654.633	33740.93
654.985	33848.28
655.337	33860.03
655.688	33735.96
656.039	33835.85
656.391	33654.38
656.742	33896.64
657.094	33836.53
657.445	33849.86
657.796	33871.1
658.147	33745.91
658.498	33859.12
658.849	33936.41
659.2	33800.14
659.551	33625.91
659.902	33961.04
660.253	33691.67
660.604	33903.87
660.955	33744.32
661.306	33946.81
661.656	33815.06
662.007	33802.4
662.358	33873.59
662.708	33926.92
663.059	34092.34
663.409	33586.81
663.76	33940.48
664.11	33954.26
664.461	34014.15
664.811	33921.04
665.161	34061.6
665.511	33960.82
665.862	33964.43
666.212	33977.09
666.562	34090.98
666.912	34073.13
667.262	33894.6
667.612	33920.14
667.962	33879.69
668.312	33851.67
668.662	34180.47
669.011	33924.66
669.361	33978.44
669.711	34022.28
670.06	33929.4
670.41	33930.53
670.76	33875.85
671.109	34100.47
671.459	33942.51
671.808	33883.98
672.157	33850.08
672.507	33790.2
672.856	33686.02
673.205	33761.73
673.554	33745
673.904	33566.02
674.253	33937.54
674.602	33704.55
674.951	33234.51
675.3	33104.57
675.649	33578.68
675.998	33643.31
676.346	33684.89
676.695	33753.36
677.044	33422.07
677.393	33486.93
677.741	33501.62
678.09	33456.2
678.438	33325.13
678.787	33338.91
679.135	33347.5
679.484	33062.99
679.832	33289.87
680.181	33194.51
680.529	33159.26
680.877	33139.59
681.225	32934.63
681.573	33314.51
681.922	32966.27
682.27	33000.39
682.618	32907.28
682.966	32741.64
683.314	32833.16
683.661	32667.74
684.009	32654.41
684.357	32613.96
684.705	32453.51
685.053	32570.34
685.4	32239.96
685.748	32291.26
686.095	32186.17
686.443	32013.52
686.79	32147.98
687.138	32152.73
687.485	31979.85
687.832	31742.57
688.18	31819.18
688.527	31639.97
688.874	31518.62
689.221	31586.19
689.568	31244.05
689.915	31235.46
690.262	31390.71
690.609	31260.1
690.956	31154.79
691.303	31134
691.65	30758.41
691.997	30750.28
692.344	30671.64
692.69	30609.27
693.037	30514.58
693.383	30267.13
693.73	30348.03
694.077	30195.72
694.423	30095.38
694.769	30022.16
695.116	29909.85
695.462	29748.27
695.808	29635.28
696.155	29681.83
696.501	29399.13
696.847	29503.53
697.193	29263.76
697.539	29424.44
697.885	29087.72
698.231	28970.21
698.577	28925.47
698.923	28902.64
699.269	28799.14
699.614	28477.34
699.96	28318.25
700.306	28503.56
700.651	28205.49
700.997	28068.32
701.342	28043.46
701.688	27953.74
702.033	27977.92
702.379	27772.73
702.724	27678.04
703.069	27718.95
703.415	27409.35
703.76	27325.06
704.105	27387.88
704.45	27283.48
704.795	27026.99
705.14	26998.51
705.485	26999.87
705.83	26711.74
706.175	26902.24
706.52	26815.69
706.865	26686.88
707.209	26593.33
707.554	26444.86
707.899	26457.51
708.243	26328.02
708.588	26193.11
708.932	26112.66
709.277	26194.01
709.621	26041.7
709.966	25906.56
710.31	25985.21
710.654	25858.2
710.998	25872.22
711.342	25766
711.687	25689.4
712.031	25644.65
712.375	25495.05
712.719	25453.92
713.063	25499.57
713.407	25524.43
713.75	25496.18
714.094	25412.79
714.438	25284.21
714.782	25257.32
715.125	25200.37
715.469	25321.95
715.812	25050.09
716.156	25199.69
716.499	25080.82
716.843	25029.53
717.186	25039.24
717.53	25043.76
717.873	25080.37
718.216	25101.16
718.559	24978.68
718.902	24743.21
719.246	24831.56
719.589	24889.42
719.932	24693.72
720.275	24698.91
720.617	24782.53
720.96	24715.64
721.303	24771.91
721.646	24734.62
721.989	24676.09
722.331	24764.67
722.674	24534.4
723.016	24543.66
723.359	24523.32
723.701	24657.11
724.044	24530.56
724.386	24486.71
724.729	24542.98
725.071	24572.81
725.413	24622.76
725.755	24533.04
726.097	24546.6
726.439	24386.15
726.782	24415.76
727.124	24527.84
727.465	24482.2
727.807	24415.76
728.149	24561.29
728.491	24445.59
728.833	24466.83
729.175	24497.34
729.516	24553.15
729.858	24462.53
730.199	24504.57
730.541	24516.32
730.882	24474.29
731.224	24488.52
731.565	24447.17
731.906	24513.15
732.248	24737.1
732.589	24503.44
732.93	24465.25
733.271	24488.3
733.612	24489.65
733.953	24577.11
734.294	24488.07
734.635	24609.65
734.976	24604.23
735.317	24572.81
735.658	24714.73
735.999	24545.24
736.339	24596.77
736.68	24882.18
737.021	24604.45
737.361	24662.53
737.702	24868.85
738.042	24695.52
738.383	24872.92
738.723	24930.55
739.063	24893.71
739.404	25156.3
739.744	25094.83
740.084	24993.82
740.424	25178.9
740.764	25065.23
741.104	25321.95
741.444	25210.76
741.784	25278.56
742.124	25367.6
742.464	25395.39
742.804	25426.8
743.143	25534.37
743.483	25566.46
743.823	25608.72
744.162	25660.92
744.502	25763.29
744.841	25879.67
745.181	25971.87
745.52	25959.22
745.86	26081.25
746.199	26200.57
746.538	26260.23
746.877	26561.46
747.216	26616.38
747.556	26650.27
747.895	26763.49
748.234	26913.32
748.573	27011.17
748.911	27099.08
749.25	27262.46
749.589	27280.99
749.928	27557.37
750.267	27617.71
750.605	27672.39
750.944	27988.54
751.283	28012.5
751.621	28283.9
751.96	28191.93
752.298	28444.58
752.636	28603.44
752.975	28732.93
753.313	28831.69
753.651	29271
753.989	29205.46
754.327	29376.08
754.666	29343.76
755.004	29640.25
755.342	29754.15
