Data from 19-3921_FLMS001491_003.txt Node
Date: Thu Apr 19 16:41:56 BST 2018
User: hsy
Spectrometer: FLMS00149
Trigger mode: 0
Integration Time (sec): 1.000000E-2
Scans to average: 10
Electric dark correction enabled: true
Nonlinearity correction enabled: false
Boxcar width: 0
XAxis mode: Wavelengths
Number of Pixels in Spectrum: 2048
>>>>>Begin Spectral Data<<<<<
341.393	-10.3
341.776	-10.3
342.16	-10.3
342.543	-66.11
342.927	-57.53
343.31	-52.33
343.693	-80.13
344.077	-63.85
344.46	-65.89
344.843	-67.92
345.226	-30.41
345.61	-31.54
345.993	-11.88
346.376	-12.33
346.759	1.91
347.142	9.14
347.525	31.51
347.908	81.23
348.291	70.83
348.674	101.79
349.057	119.87
349.44	122.58
349.823	128.91
350.206	178.63
350.588	229.7
350.971	235.12
351.354	235.57
351.737	264.05
352.119	278.28
352.502	302.24
352.884	300.88
353.267	324.84
353.65	309.47
354.032	347.43
354.414	352.86
354.797	329.81
355.179	346.98
355.562	357.15
355.944	358.28
356.326	369.35
356.709	368.45
357.091	352.63
357.473	358.51
357.855	370.26
358.238	370.94
358.62	368.22
359.002	382.24
359.384	370.03
359.766	386.76
360.148	373.2
360.53	375.68
360.912	376.13
361.294	382.46
361.676	391.28
362.057	356.47
362.439	373.2
362.821	374.1
363.203	376.81
363.584	373.2
363.966	357.15
364.348	364.61
364.729	385.17
365.111	360.99
365.493	358.06
365.874	363.71
366.256	365.96
366.637	372.97
367.019	368.45
367.4	366.19
367.781	380.43
368.163	365.96
368.544	358.28
368.925	374.33
369.306	364.38
369.688	370.71
370.069	353.08
370.45	372.97
370.831	382.91
371.212	381.78
371.593	360.54
371.974	355.57
372.355	359.41
372.736	388.11
373.117	359.41
373.498	385.63
373.879	357.6
374.26	366.19
374.641	363.71
375.021	380.43
375.402	394.21
375.783	395.12
376.163	404.61
376.544	408.22
376.925	396.47
377.305	380.2
377.686	433.99
378.066	415
378.447	389.92
378.827	398.96
379.208	409.35
379.588	398.28
379.968	409.58
380.349	405.96
380.729	419.97
381.109	408.45
381.489	418.17
381.87	387.66
382.25	418.17
382.63	428.79
383.01	436.7
383.39	426.75
383.77	422.01
384.15	426.3
384.53	448.45
384.91	423.82
385.29	446.41
385.67	436.02
386.049	454.1
386.429	450.03
386.809	465.62
387.189	463.82
387.568	460.65
387.948	455.23
388.328	473.31
388.707	454.78
389.087	477.15
389.466	464.27
389.846	471.72
390.225	482.8
390.605	484.15
390.984	489.13
391.363	481.44
391.743	506.07
392.122	473.53
392.501	503.81
392.881	515.11
393.26	540.42
393.639	521.22
394.018	505.4
394.397	525.51
394.776	545.85
395.155	537.94
395.534	548.33
395.913	556.02
396.292	542.68
396.671	549.46
397.05	531.84
397.429	546.07
397.808	542.68
398.186	542.01
398.565	545.62
398.944	549.91
399.323	579.07
399.701	577.48
400.08	579.07
400.458	581.78
400.837	569.58
401.215	588.33
401.594	577.48
401.972	612.51
402.351	596.24
402.729	580.65
403.107	602.12
403.486	627.2
403.864	600.31
404.242	593.08
404.62	631.04
404.999	636.92
405.377	628.33
405.755	628.33
406.133	645.73
406.511	654.09
406.889	661.1
407.267	657.03
407.645	669.69
408.023	665.84
408.401	689.35
408.779	695.9
409.156	729.12
409.534	703.81
409.912	720.08
410.29	725.28
410.667	729.12
411.045	731.15
411.422	754.66
411.8	760.76
412.178	782.9
412.555	775.9
412.933	767.99
413.31	792.17
413.687	783.58
414.065	807.54
414.442	834.43
414.819	836.01
415.197	830.81
415.574	852.73
415.951	827.65
416.328	840.3
416.705	855.67
417.082	871.71
417.46	878.95
417.837	888.44
418.214	886.86
418.591	871.94
418.967	902
419.344	903.13
419.721	922.33
420.098	913.3
420.475	927.53
420.852	951.71
421.228	944.48
421.605	945.61
421.982	977.47
422.358	970.02
422.735	1003.46
423.111	988.32
423.488	1007.53
423.864	1020.19
424.241	1003.01
424.617	998.26
424.994	1050.01
425.37	1048.21
425.746	1035.55
426.123	1061.31
426.499	1080.3
426.875	1071.26
427.251	1092.73
427.627	1100.86
428.003	1129.11
428.379	1125.27
428.756	1144.25
429.132	1156.9
429.507	1182.21
429.883	1178.15
430.259	1204.81
430.635	1224.93
431.011	1222.89
431.387	1244.59
431.763	1256.79
432.138	1264.47
432.514	1265.6
432.89	1308.09
433.265	1344.92
433.641	1372.94
434.016	1357.8
434.392	1371.59
434.767	1397.8
435.143	1385.15
435.518	1414.3
435.894	1411.59
436.269	1410.46
436.644	1458.82
437.02	1450.23
437.395	1487.52
437.77	1490.91
438.145	1509.89
438.52	1541.08
438.895	1547.18
439.271	1518.03
439.646	1595.31
440.021	1565.26
440.395	1579.94
440.77	1577.01
441.145	1612.71
441.52	1628.3
441.895	1608.64
442.27	1645.03
442.645	1656.78
443.019	1676.66
443.394	1681.86
443.769	1676.89
444.143	1673.73
444.518	1717.34
444.892	1685.48
445.267	1735.19
445.641	1728.42
446.016	1738.58
446.39	1759.37
446.764	1768.19
447.139	1771.8
447.513	1777.91
447.887	1772.48
448.262	1797.34
448.636	1828.53
449.01	1838.24
449.384	1846.15
449.758	1868.3
450.132	1882.31
450.506	1873.5
450.88	1915.3
451.254	1924.12
451.628	1952.59
452.002	1937.22
452.376	1962.99
452.75	2010.89
453.123	1986.26
453.497	2036.88
453.871	2046.15
454.244	2065.13
454.618	2096.31
454.992	2120.5
455.365	2115.75
455.739	2196.43
456.112	2202.98
456.486	2225.13
456.859	2219.93
457.232	2299.25
457.606	2284.11
457.979	2340.6
458.352	2357.1
458.725	2378.34
459.099	2394.84
459.472	2422.18
459.845	2446.36
460.218	2470.99
460.591	2549.41
460.964	2525
461.337	2535.17
461.71	2588.96
462.083	2625.34
462.456	2638.67
462.829	2622.85
463.201	2694.27
463.574	2691.33
463.947	2720.93
464.32	2787.82
464.692	2774.04
465.065	2809.29
465.438	2848.61
465.81	2902.17
466.183	2888.84
466.555	2914.15
466.928	2934.26
467.3	2976.97
467.672	3034.82
468.045	3133.12
468.417	3053.13
468.789	3117.76
469.161	3148.72
469.534	3167.7
469.906	3222.16
470.278	3243.63
470.65	3312.78
471.022	3339.45
471.394	3393
471.766	3416.51
472.138	3450.63
472.51	3529.72
472.882	3559.55
473.253	3607.24
473.625	3658.76
473.997	3710.28
474.369	3715.48
474.74	3770.62
475.112	3837.06
475.484	3835.25
475.855	3921.58
476.227	3952.31
476.598	4055.13
476.97	4106.66
477.341	4221
477.713	4211.06
478.084	4257.39
478.455	4372.19
478.827	4415.58
479.198	4518.4
479.569	4589.81
479.94	4635.01
480.311	4731.05
480.682	4783.7
481.053	4870.03
481.424	4959.97
481.795	5032.73
482.166	5068.44
482.537	5126.29
482.908	5250.13
483.279	5312.95
483.65	5366.96
484.021	5481.31
484.391	5558.6
484.762	5652.83
485.133	5661.42
485.503	5766.27
485.874	5834.75
486.244	5942.09
486.615	6037.91
486.985	6114.29
487.356	6115.64
487.726	6244
488.097	6385.47
488.467	6465.92
488.837	6503.2
489.207	6632.01
489.578	6682.86
489.948	6740.94
490.318	6853.48
490.688	6979.12
491.058	7001.72
491.428	7121.49
491.798	7145.22
492.168	7263.64
492.538	7334.6
492.908	7415.5
493.278	7580.46
493.648	7472.44
494.017	7624.31
494.387	7757.41
494.757	7754.25
495.126	7799.22
495.496	7891.64
495.866	7985.65
496.235	8064.75
496.605	8129.38
496.974	8151.75
497.344	8215.93
497.713	8301.12
498.082	8303.38
498.452	8431.74
498.821	8509.25
499.19	8470.16
499.559	8602.13
499.928	8570.72
500.298	8683.71
500.667	8734.78
501.036	8782.47
501.405	8781.11
501.774	8873.76
502.143	8872.86
502.512	8990.6
502.88	9106.3
503.249	9053.65
503.618	9092.97
503.987	9162.12
504.356	9192.17
504.724	9268.78
505.093	9366.18
505.462	9400.08
505.83	9398.95
506.199	9532.96
506.567	9589.9
506.936	9582.67
507.304	9688.21
507.672	9727.07
508.041	9733.85
508.409	9909.44
508.777	9899.95
509.145	10004.81
509.514	10050.91
509.882	10104.69
510.25	10179.94
510.618	10241.64
510.986	10208.64
511.354	10353.95
511.722	10445.02
512.09	10544.45
512.458	10505.13
512.826	10662.64
513.193	10612.25
513.561	10699.7
513.929	10856.08
514.297	10862.86
514.664	10861.51
515.032	10982.86
515.4	11106.7
515.767	11178.11
516.135	11249.52
516.502	11178.56
516.869	11367.48
517.237	11517.08
517.604	11458.1
517.972	11603.18
518.339	11694.25
518.706	11725.21
519.073	11764.08
519.44	11896.96
519.808	12024.42
520.175	12062.38
520.542	12209.04
520.909	12291.75
521.276	12361.58
521.643	12561.58
522.009	12610.61
522.376	12729.26
522.743	12732.65
523.11	12887.9
523.477	13061.9
523.843	13100.32
524.21	13358.62
524.577	13388.9
524.943	13454.43
525.31	13519.07
525.676	13660.3
526.043	13798.61
526.409	13868.43
526.776	14074.98
527.142	14123.8
527.508	14133.51
527.874	14378.7
528.241	14490.79
528.607	14537.57
528.973	14685.81
529.339	14749.77
529.705	14916.99
530.071	15022.98
530.437	15135.97
530.803	15181.17
531.169	15221.85
531.535	15367.6
531.901	15400.82
532.267	15526.47
532.632	15672.46
532.998	15699.57
533.364	15865.22
533.73	15947.7
534.095	16051.2
534.461	16083.07
534.826	16214.36
535.192	16302.5
535.557	16393.79
535.923	16356.05
536.288	16495.26
536.653	16540.45
537.019	16542.94
537.384	16667.01
537.749	16751.3
538.114	16853.22
538.479	16787.91
538.845	16869.71
539.21	16927.34
539.575	17034.23
539.94	17087.33
540.305	17211.62
540.67	17222.7
541.034	17268.57
541.399	17324.84
541.764	17456.59
542.129	17477.83
542.494	17530.26
542.858	17616.13
543.223	17599.86
543.587	17684.15
543.952	17762.8
544.316	17811.16
544.681	17733.42
545.045	17970.7
545.41	18001.21
545.774	17980.19
546.138	18053.41
546.503	18104.03
546.867	18051.38
547.231	18304.48
547.595	18234.42
547.959	18321.88
548.324	18344.25
548.688	18407.98
549.052	18462.66
549.416	18492.72
549.779	18538.37
550.143	18599.61
550.507	18721.87
550.871	18776.33
551.235	18798.02
551.599	19035.98
551.962	18977.68
552.326	19087.96
552.689	19083.21
553.053	19026.27
553.417	19223.55
553.78	19434.39
554.143	19408.18
554.507	19480.26
554.87	19576.99
555.234	19799.35
555.597	19632.13
555.96	19824.21
556.323	19878.67
556.686	19901.27
557.05	20128.84
557.413	20295.16
557.776	20267.59
558.139	20351.88
558.502	20474.36
558.865	20545.1
559.228	20625.32
559.59	20744.19
559.953	20868.25
560.316	21124.52
560.679	21094.69
561.041	21257.85
561.404	21337.16
561.767	21499.42
562.129	21590.72
562.492	21843.37
562.854	21804.27
563.217	21902.8
563.579	22051.27
563.941	22216.69
564.304	22465.5
564.666	22708.65
565.028	22711.59
565.39	22813.06
565.753	23069.32
566.115	23092.37
566.477	23312.48
566.839	23457.34
567.201	23684.22
567.563	23831.11
567.925	24034.04
568.287	24167.6
568.648	24330.76
569.01	24639.68
569.372	24845.1
569.734	24765.55
570.095	25082.38
570.457	25313.11
570.819	25507.22
571.18	25501.35
571.542	25769.59
571.903	25937.95
572.265	26115.34
572.626	26311.72
572.987	26583.58
573.349	26692.5
573.71	26928.88
574.071	27055.21
574.432	27359.61
574.794	27563.22
575.155	27633.72
575.516	27770.67
575.877	27882.08
576.238	28053.15
576.599	28290.43
576.96	28251.33
577.32	28370.2
577.681	28596.18
578.042	28851.77
578.403	28873.92
578.763	29062.16
579.124	29016.06
579.485	29243.85
579.845	29341.02
580.206	29559.55
580.566	29448.82
580.927	29663.5
581.287	29696.72
581.648	29666.21
582.008	29881.8
582.368	29882.93
582.728	29912.53
583.089	30037.5
583.449	30057.61
583.809	30150.27
584.169	30146.42
584.529	29992.3
584.889	30340.32
585.249	30193.2
585.609	30100.55
585.969	30262.81
586.329	30082.47
586.688	30280.66
587.048	30340.54
587.408	30236.14
587.768	30394.55
588.127	30237.5
588.487	30350.49
588.846	30591.38
589.206	30199.08
589.565	30343.93
589.925	30545.06
590.284	30418.96
590.643	30412.63
591.003	30264.61
591.362	30646.52
591.721	30519.75
592.08	30499.41
592.44	30681.78
592.799	30529.92
593.158	30580.54
593.517	30481.11
593.876	30576.02
594.235	30482.24
594.593	30516.36
594.952	30622.34
595.311	30618.73
595.67	30555
596.029	30715.9
596.387	30729.46
596.746	30864.82
597.104	30635
597.463	30621.67
597.822	30736.47
598.18	30616.24
598.538	30695.56
598.897	30808.78
599.255	30690.37
599.613	31055.33
599.972	30824.6
600.33	30764.26
600.688	30670.48
601.046	30705.28
601.404	31009.68
601.762	30851.49
602.12	30952.96
602.478	30987.98
602.836	31004.93
603.194	30860.98
603.552	30887.87
603.91	30950.47
604.268	31133.52
604.625	30929.46
604.983	31159.73
605.341	31021.2
605.698	31138.94
606.056	31327.64
606.413	31042.45
606.771	31288.54
607.128	31157.47
607.485	31149.79
607.843	31113.18
608.2	31286.06
608.557	31423.45
608.914	31278.6
609.272	31422.78
609.629	31626.84
609.986	31604.92
610.343	31495.99
610.7	31629.1
611.057	31586.16
611.414	31469.1
611.771	31711.81
612.127	31735.54
612.484	31788.87
612.841	31794.29
613.198	31801.75
613.554	31653.96
613.911	31841.07
614.267	31916.32
614.624	31905.02
614.98	31991.57
615.337	32082.87
615.693	32078.13
616.05	32166.48
616.406	32177.78
616.762	32182.08
617.118	32143.89
617.475	32056.43
617.831	32293.26
618.187	32268.4
618.543	32278.8
618.899	32419.59
619.255	32423.2
619.611	32373.71
619.967	32630.2
620.323	32514.05
620.678	32475.63
621.034	32392.02
621.39	32363.99
621.746	32434.5
622.101	32704.78
622.457	32573.25
622.812	32644.44
623.168	32678.56
623.523	32641.27
623.879	32745.68
624.234	32606.02
624.589	32684.66
624.945	32726.7
625.3	32738.67
625.655	32799.01
626.01	32711.1
626.365	32825.68
626.72	32575.06
627.075	32568.28
627.43	32668.84
627.785	32636.75
628.14	32626.81
628.495	32628.39
628.85	32742.51
629.205	32639.47
629.559	32560.82
629.914	32480.83
630.269	32570.32
630.623	32431.34
630.978	32450.09
631.332	32536.19
631.687	32525.12
632.041	32427.27
632.396	32380.94
632.75	32397.21
633.104	32316.09
633.459	32071.8
633.813	32310.21
634.167	32198.12
634.521	32067.5
634.875	32140.5
635.229	31900.5
635.583	31873.61
635.937	31868.64
636.291	31713.62
636.645	31858.02
636.999	31561.08
637.352	31867.74
637.706	31613.96
638.06	31694.86
638.413	31588.87
638.767	31467.97
639.121	31577.57
639.474	31337.13
639.828	31395.43
640.181	31417.13
640.534	31411.02
640.888	31225.27
641.241	31131.26
641.594	31181.2
641.947	31306.62
642.301	31083.58
642.654	31093.52
643.007	31113.41
643.36	31033.18
643.713	31136.91
644.066	31088.1
644.419	30982.79
644.771	30602.23
645.124	30282.01
645.477	30428.45
645.83	30285.63
646.182	30168.12
646.535	30109.82
646.888	30181.9
647.24	30145.97
647.593	30261
647.945	30064.62
648.298	30080.66
648.65	29761.58
649.002	29677.96
649.355	29538.31
649.707	29416.5
650.059	29502.6
650.411	29839.09
650.763	30100.1
651.115	30465.29
651.467	30413.08
651.819	30348.91
652.171	30300.32
652.523	30267.55
652.875	30259.19
653.227	30176.03
653.578	30351.84
653.93	30279.3
654.282	30170.38
654.633	30129.02
654.985	30171.28
655.337	30125.41
655.688	30202.24
656.039	30238.4
656.391	30021.68
656.742	30053.55
657.094	30051.06
657.445	30135.8
657.796	30137.84
658.147	29932.42
658.498	30119.53
658.849	30179.87
659.2	30123.37
659.551	30089.7
659.902	30234.56
660.253	30238.17
660.604	30283.6
660.955	30036.6
661.306	30250.15
661.656	30119.08
662.007	30301.22
662.358	30220.1
662.708	30249.92
663.059	30233.43
663.409	30022.13
663.76	30188.23
664.11	30209.02
664.461	30331.28
664.811	30213.99
665.161	30255.12
665.511	30205.41
665.862	30230.26
666.212	30258.06
666.562	30326.76
666.912	30204.05
667.262	30082.7
667.612	29968.8
667.962	30150.49
668.312	30070.95
668.662	30227.33
669.011	30200.43
669.361	30119.76
669.711	30057.61
670.06	30067.1
670.41	30043.15
670.76	30026.2
671.109	30180.77
671.459	30106.43
671.808	29978.75
672.157	30002.25
672.507	29839.54
672.856	29962.02
673.205	29920.22
673.554	29974.23
673.904	29870.95
674.253	29927
674.602	29926.32
674.951	29554.35
675.3	29384.86
675.649	29766.1
675.998	29762.25
676.346	29804.29
676.695	29830.73
677.044	29646.55
677.393	29784.17
677.741	29777.62
678.09	29671.18
678.438	29579.43
678.787	29736.72
679.135	29623.5
679.484	29463.96
679.832	29560.23
680.181	29469.15
680.529	29460.79
680.877	29287.46
681.225	29364.98
681.573	29654.91
681.922	29319.33
682.27	29204.08
682.618	29201.59
682.966	29153.23
683.314	29069.62
683.661	29087.02
684.009	28988.94
684.357	28879.57
684.705	28842.96
685.053	28968.83
685.4	28703.07
685.748	28600.93
686.095	28668.05
686.443	28504.21
686.79	28505.56
687.138	28516.41
687.485	28419.24
687.832	28338.79
688.18	28296.53
688.527	28265.12
688.874	28140.38
689.221	28060.38
689.568	27929.76
689.915	27858.58
690.262	27859.48
690.609	27723.21
690.956	27758.47
691.303	27672.14
691.65	27412.26
691.997	27439.38
692.344	27277.35
692.69	27336.78
693.037	27279.83
693.383	26932.27
693.73	27144.24
694.077	27082.1
694.423	26903.12
694.769	26810.24
695.116	26706.97
695.462	26640.98
695.808	26498.39
696.155	26470.14
696.501	26253.65
696.847	26450.93
697.193	26089.58
697.539	26195.12
697.885	26015.69
698.231	25954.44
698.577	25827.67
698.923	25747.67
699.269	25669.25
699.614	25528.69
699.96	25500.45
700.306	25474.01
700.651	25278.3
700.997	25260.45
701.342	25187.91
701.688	25264.52
702.033	24928.26
702.379	25015.26
702.724	24877.86
703.069	24793.35
703.415	24547.93
703.76	24443.52
704.105	24636.97
704.45	24435.39
704.795	24369.85
705.14	24208.73
705.485	24257.77
705.83	24111.33
706.175	24275.39
706.52	24129.86
706.865	23969.41
707.209	23964.21
707.554	23892.13
707.899	23749.3
708.243	23693.71
708.588	23597.9
708.932	23557.67
709.277	23580.5
709.621	23553.6
709.966	23326.72
710.31	23438.58
710.654	23188.64
710.998	23341.18
711.342	23221.86
711.687	23100.73
712.031	23126.04
712.375	23113.84
712.719	23006.05
713.063	22954.3
713.407	23242.65
713.75	22999.27
714.094	22927.18
714.438	22757.69
714.782	22706.39
715.125	22637.92
715.469	22699.39
715.812	22655.77
716.156	22439.96
716.499	22571.93
716.843	22601.99
717.186	22369.45
717.53	22647.41
717.873	22505.5
718.216	22418.94
718.559	22392.05
718.902	22224.15
719.246	22289.68
719.589	22325.16
719.932	22123.58
720.275	22180.31
720.617	22164.26
720.96	22208.1
721.303	22047.2
721.646	22179.18
721.989	22007.88
722.331	22053.08
722.674	22050.37
723.016	22015.57
723.359	22030.48
723.701	22102.79
724.044	21866.87
724.386	21950.93
724.729	21861.9
725.071	21940.99
725.413	21895.57
725.755	21772.18
726.097	21769.7
726.439	21752.75
726.782	21724.5
727.124	21824.38
727.465	21692.64
727.807	21687.89
728.149	21724.95
728.491	21776.93
728.833	21619.87
729.175	21780.09
729.516	21705.52
729.858	21634.56
730.199	21798.17
730.541	21744.84
730.882	21651.28
731.224	21621.9
731.565	21566.31
731.906	21669.36
732.248	21662.13
732.589	21557.27
732.93	21538.97
733.271	21636.14
733.612	21665.74
733.953	21767.89
734.294	21673.2
734.635	21653.99
734.976	21622.81
735.317	21616.48
735.658	21633.2
735.999	21585.97
736.339	21697.61
736.68	21669.36
737.021	21676.14
737.361	21596.82
737.702	21856.47
738.042	21691.51
738.383	21742.13
738.723	21764.72
739.063	21806.76
739.404	21924.27
739.744	21777.38
740.084	21800.88
740.424	21899.18
740.764	21943.48
741.104	21998.84
741.444	21980.99
741.784	21893.99
742.124	22024.6
742.464	22053.08
742.804	22053.3
743.143	22027.32
743.483	22135.56
743.823	22126.07
744.162	22146.64
744.502	22203.36
744.841	22287.2
745.181	22422.79
745.52	22326.97
745.86	22411.26
746.199	22437.7
746.538	22560.18
746.877	22693.06
747.216	22641.54
747.556	22664.14
747.895	22683.34
748.234	22742.1
748.573	22871.59
748.911	22805.15
749.25	23043.56
749.589	22981.42
749.928	23122.65
750.267	23151.13
750.605	23203.33
750.944	23347.73
751.283	23319.49
751.621	23498.92
751.96	23458.24
752.298	23580.95
752.636	23666.14
752.975	23662.3
753.313	23762.19
753.651	23818.91
753.989	23866.36
754.327	23934.38
754.666	23821.17
755.004	24110.88
755.342	24084.44
755.679	24168.05
