Data from 19-3935_FLMS001491_002.txt Node
Date: Thu Apr 19 16:38:55 BST 2018
User: hsy
Spectrometer: FLMS00149
Trigger mode: 0
Integration Time (sec): 1.000000E-2
Scans to average: 10
Electric dark correction enabled: true
Nonlinearity correction enabled: false
Boxcar width: 0
XAxis mode: Wavelengths
Number of Pixels in Spectrum: 2048
>>>>>Begin Spectral Data<<<<<
341.393	-17.27
341.776	-17.27
342.16	-17.27
342.543	-53.2
342.927	-59.31
343.31	-79.64
343.693	-82.13
344.077	-44.17
344.46	-74
344.843	-73.09
345.226	-18.18
345.61	-30.15
345.993	-18.63
346.376	13.91
346.759	11.88
347.142	15.95
347.525	39.45
347.908	63.85
348.291	71.99
348.674	97.07
349.057	105.89
349.44	132.1
349.823	162.38
350.206	194.7
350.588	231.53
350.971	253.45
351.354	241.48
351.737	284.19
352.119	281.7
352.502	300.01
352.884	304.53
353.267	322.38
353.65	336.16
354.032	327.8
354.414	347.01
354.797	346.78
355.179	349.95
355.562	361.93
355.944	358.76
356.326	373.9
356.709	383.85
357.091	347.46
357.473	360.8
357.855	387.91
358.238	377.74
358.62	373.68
359.002	380.23
359.384	403.05
359.766	404.41
360.148	388.59
360.53	381.81
360.912	385.88
361.294	398.31
361.676	379.33
362.057	389.72
362.439	378.65
362.821	361.93
363.203	368.25
363.584	372.09
363.966	375.26
364.348	375.48
364.729	373.45
365.111	385.88
365.493	376.61
365.874	371.19
366.256	365.32
366.637	386.56
367.019	367.35
367.4	375.26
367.781	369.38
368.163	367.12
368.544	361.47
368.925	348.59
369.306	362.15
369.688	379.1
370.069	370.06
370.45	376.84
370.831	369.61
371.212	397.63
371.593	380.46
371.974	368.7
372.355	416.61
372.736	377.52
373.117	378.87
373.498	397.18
373.879	359.21
374.26	363.96
374.641	379.1
375.021	392.43
375.402	380.46
375.783	391.98
376.163	404.64
376.544	404.86
376.925	396.27
377.305	391.53
377.686	409.61
378.066	410.06
378.447	408.03
378.827	407.57
379.208	401.92
379.588	384.3
379.968	386.56
380.349	412.32
380.729	413.22
381.109	426.56
381.489	438.76
381.87	422.26
382.25	430.17
382.63	423.17
383.01	446.22
383.39	429.72
383.77	427.46
384.15	432.88
384.53	415.94
384.91	445.77
385.29	438.76
385.67	423.62
386.049	471.75
386.429	465.88
386.809	460.45
387.189	468.59
387.568	472.43
387.948	460.91
388.328	466.33
388.707	467.91
389.087	502.71
389.466	476.27
389.846	487.12
390.225	493.22
390.605	518.98
390.984	505.65
391.363	501.36
391.743	507.23
392.122	518.31
392.501	523.28
392.881	518.31
393.26	534.12
393.639	528.93
394.018	558.76
394.397	526.89
394.776	512.66
395.155	545.88
395.534	547.46
395.913	551.75
396.292	555.14
396.671	551.98
397.05	545.65
397.429	572.54
397.808	560.56
398.186	566.21
398.565	557.85
398.944	571.19
399.323	574.12
399.701	561.92
400.08	597.63
400.458	602.6
400.837	603.73
401.215	593.33
401.594	628.36
401.972	609.6
402.351	610.51
402.729	611.18
403.107	614.8
403.486	630.84
403.864	634.91
404.242	644.4
404.62	648.02
404.999	650.51
405.377	662.03
405.755	672.88
406.133	679.88
406.511	680.56
406.889	688.24
407.267	697.74
407.645	686.89
408.023	710.16
408.401	731.63
408.779	726.44
409.156	732.09
409.534	723.95
409.912	752.2
410.29	758.07
410.667	756.72
411.045	755.36
411.422	779.54
411.8	796.49
412.178	805.76
412.555	818.41
412.933	814.57
413.31	831.97
413.687	849.82
414.065	862.93
414.442	849.82
414.819	842.59
415.197	871.06
415.574	897.5
415.951	902.25
416.328	913.32
416.705	909.93
417.082	915.13
417.46	925.98
417.837	934.34
418.214	951.51
418.591	963.04
418.967	954
419.344	951.97
419.721	959.88
420.098	978.63
420.475	994.68
420.852	994.9
421.228	1008.91
421.605	993.1
421.982	1044.85
422.358	1043.26
422.735	1057.5
423.111	1034.68
423.488	1051.4
423.864	1059.31
424.241	1088.91
424.617	1096.37
424.994	1095.47
425.37	1113.54
425.746	1111.06
426.123	1135.01
426.499	1128.46
426.875	1155.8
427.251	1145.18
427.627	1193.77
428.003	1204.62
428.379	1203.03
428.756	1229.7
429.132	1247.78
429.507	1256.59
429.883	1258.17
430.259	1283.03
430.635	1288.68
431.011	1320.09
431.387	1348.11
431.763	1360.54
432.138	1360.54
432.514	1382.69
432.89	1391.5
433.265	1403.03
433.641	1457.04
434.016	1454.33
434.392	1445.29
434.767	1501.56
435.143	1489.35
435.518	1516.7
435.894	1526.19
436.269	1552.63
436.644	1558.5
437.02	1591.72
437.395	1584.04
437.77	1633.3
438.145	1638.5
438.52	1645.73
438.895	1673.3
439.271	1685.51
439.646	1728.9
440.021	1727.54
440.395	1721.89
440.77	1702.91
441.145	1735.45
441.52	1770.93
441.895	1785.62
442.27	1798.05
442.645	1794.66
443.019	1771.61
443.394	1793.75
443.769	1823.36
444.143	1857.48
444.518	1861.32
444.892	1845.28
445.267	1864.48
445.641	1884.6
446.016	1889.12
446.39	1920.75
446.764	1949.68
447.139	1916.23
447.513	1975.67
447.887	1945.39
448.262	1969.79
448.636	1973.18
449.01	2006.18
449.384	2035.55
449.758	2037.81
450.132	2059.73
450.506	2044.59
450.88	2075.33
451.254	2043.01
451.628	2107.42
452.002	2147.19
452.376	2145.61
452.75	2163.91
453.123	2189.22
453.497	2204.14
453.871	2257.92
454.244	2270.8
454.618	2280.07
454.992	2320.97
455.365	2329.56
455.739	2403.45
456.112	2381.31
456.486	2379.05
456.859	2478.03
457.232	2487.52
457.606	2533.17
457.979	2532.49
458.352	2560.74
458.725	2583.56
459.099	2635.09
459.472	2637.35
459.845	2645.48
460.218	2704.24
460.591	2703.78
460.964	2762.09
461.337	2797.79
461.71	2822.88
462.083	2867.4
462.456	2871.69
462.829	2878.24
463.201	2929.99
463.574	2963.67
463.947	2933.38
464.32	3000.95
464.692	3050.22
465.065	3007.05
465.438	3091.57
465.81	3087.05
466.183	3169.08
466.555	3201.4
466.928	3230.1
467.3	3226.26
467.672	3242.3
468.045	3322.07
468.417	3324.79
468.789	3318.91
469.161	3412.92
469.534	3447.27
469.906	3494.5
470.278	3509.64
470.65	3576.3
471.022	3633.7
471.394	3681.61
471.766	3661.73
472.138	3729.75
472.51	3809.29
472.882	3855.62
473.253	3897.43
473.625	3913.92
473.997	4018.78
474.369	4042.28
474.74	4071.43
475.112	4118.21
475.484	4176.06
475.855	4215.84
476.227	4318.88
476.598	4423.51
476.97	4416.96
477.341	4495.83
477.713	4593.45
478.084	4559.78
478.455	4712.77
478.827	4760.91
479.198	4868.7
479.569	4887.91
479.94	4950.96
480.311	5033.44
480.682	5128.35
481.053	5278.18
481.424	5320.67
481.795	5321.34
482.166	5435.46
482.537	5483.6
482.908	5630.49
483.279	5654.22
483.65	5743.25
484.021	5863.25
484.391	5919.52
484.762	6002
485.133	6068.22
485.503	6170.13
485.874	6249
486.244	6308.21
486.615	6456.91
486.985	6539.39
487.356	6625.72
487.726	6657.81
488.097	6829.55
488.467	6905.48
488.837	7012.82
489.207	7086.04
489.578	7192.03
489.948	7205.81
490.318	7367.17
490.688	7442.42
491.058	7465.69
491.428	7603.54
491.798	7683.77
492.168	7847.6
492.538	7865.23
492.908	7968.05
493.278	8039.46
493.648	8090.08
494.017	8188.16
494.387	8250.76
494.757	8312.45
495.126	8398.32
495.496	8406.46
495.866	8464.31
496.235	8569.39
496.605	8662.05
496.974	8690.75
497.344	8744.08
497.713	8811.19
498.082	8921.47
498.452	9000.57
498.821	8977.07
499.19	9045.76
499.559	9087.8
499.928	9163.73
500.298	9209.83
500.667	9325.98
501.036	9290.28
501.405	9356.94
501.774	9382.71
502.143	9439.88
502.512	9470.84
502.88	9561.91
503.249	9539.76
503.618	9652.98
503.987	9707.44
504.356	9805.29
504.724	9816.59
505.093	9824.95
505.462	9922.35
505.83	9954.22
506.199	10002.8
506.567	10122.57
506.936	10156.24
507.304	10205.96
507.672	10237.6
508.041	10313.53
508.409	10366.41
508.777	10416.58
509.145	10502.45
509.514	10565.95
509.882	10567.31
510.25	10632.16
510.618	10728.88
510.986	10785.61
511.354	10814.31
511.722	10969.78
512.09	11008.2
512.458	11102.89
512.826	11155.54
513.193	11099.95
513.561	11207.52
513.929	11262.88
514.297	11340.17
514.664	11488.64
515.032	11539.26
515.4	11618.13
515.767	11710.78
516.135	11761.17
516.502	11688.86
516.869	11880.49
517.237	11947.84
517.604	11886.59
517.972	12170.43
518.339	12159.81
518.706	12296.07
519.073	12334.27
519.44	12402.96
519.808	12505.56
520.175	12570.42
520.542	12700.58
520.909	12737.42
521.276	12865.78
521.643	12992.1
522.009	13164.75
522.376	13192.77
522.743	13290.63
523.11	13449.04
523.477	13541.47
523.843	13589.15
524.21	13773.78
524.577	13892.42
524.943	13952.53
525.31	13973.55
525.676	14290.6
526.043	14299.64
526.409	14415.57
526.776	14525.39
527.142	14603.36
527.508	14739.17
527.874	14889.91
528.241	14994.76
528.607	15011.94
528.973	15219.16
529.339	15281.31
529.705	15444.69
530.071	15557.91
530.437	15640.62
530.803	15729.21
531.169	15859.15
531.535	15815.08
531.901	15975.07
532.267	16085.81
532.632	16233.6
532.998	16309.75
533.364	16345.46
533.73	16399.24
534.095	16593.14
534.461	16660.93
534.826	16726.69
535.192	16866.58
535.557	16821.38
535.923	16957.2
536.288	16966.91
536.653	17062.05
537.019	17099.56
537.384	17217.75
537.749	17278.99
538.114	17293.46
538.479	17357.86
538.845	17453
539.21	17361.7
539.575	17555.37
539.94	17663.84
540.305	17646.44
540.67	17775.03
541.034	17809.15
541.399	17881.46
541.764	17852.54
542.129	18090.5
542.494	18010.95
542.858	18163.04
543.223	18042.14
543.587	18244.17
543.952	18200.78
544.316	18287.56
544.681	18292.3
545.045	18418.63
545.41	18462.92
545.774	18493.65
546.138	18558.74
546.503	18634.67
546.867	18595.34
547.231	18730.48
547.595	18835.79
547.959	18883.02
548.324	18915.34
548.688	18870.14
549.052	19071.49
549.416	18969.12
549.779	18995.56
550.143	19123.01
550.507	19338.6
550.871	19300.86
551.235	19264.25
551.599	19411.14
551.962	19423.12
552.326	19468.09
552.689	19615.2
553.053	19491.59
553.417	19606.84
553.78	19774.3
554.143	19883.45
554.507	20089.54
554.87	20082.31
555.234	20320.95
555.597	20070.11
555.96	20235.3
556.323	20350.78
556.686	20440.27
557.05	20559.13
557.413	20478.23
557.776	20708.06
558.139	20785.12
558.502	20849.52
558.865	20938.11
559.228	21087.26
559.59	21265.33
559.953	21197.54
560.316	21475.27
560.679	21560.92
561.041	21806.79
561.404	21869.83
561.767	22012.66
562.129	22124.74
562.492	22290.61
562.854	22355.47
563.217	22475.47
563.579	22629.14
563.941	22900.09
564.304	22990.26
564.666	23263.7
565.028	23272.51
565.39	23502.79
565.753	23678.83
566.115	23857.13
566.477	24094.63
566.839	24196.55
567.201	24569.65
567.563	24632.25
567.925	24940.04
568.287	24990.88
568.648	25351.78
569.01	25490.98
569.372	25679
569.734	25924.19
570.095	26204.86
570.457	26482.14
570.819	26612.99
571.18	26720.78
571.542	27071.51
571.903	27285.29
572.265	27566.86
572.626	27697.93
572.987	27885.5
573.349	28038.71
573.71	28435.76
574.071	28745.81
574.432	28807.73
574.794	29219.02
575.155	29257.89
575.516	29426.47
575.877	29676.63
576.238	29743.07
576.599	30042.73
576.96	30111.88
577.32	30373.79
577.681	30506.22
578.042	30789.15
578.403	30779.88
578.763	31021.23
579.124	31143.94
579.485	31392.3
579.845	31441.79
580.206	31467.32
580.566	31566.75
580.927	31735.34
581.287	31788.67
581.648	31854.43
582.008	32004.03
582.368	32117.47
582.728	32119.51
583.089	32067.08
583.449	32213.97
583.809	32265.27
584.169	32372.84
584.529	32233.63
584.889	32621.64
585.249	32424.81
585.609	32317.7
585.969	32543.23
586.329	32658.48
586.688	32713.62
587.048	32596.33
587.408	32642.88
587.768	32601.08
588.127	32587.52
588.487	32699.38
588.846	32902.54
589.206	32655.54
589.565	32748.42
589.925	32851.01
590.284	32797.68
590.643	32823.9
591.003	32878.13
591.362	33096.43
591.721	32936.44
592.08	32884.91
592.44	33190.44
592.799	33010.11
593.158	33067.73
593.517	33038.35
593.876	33192.7
594.235	32994.06
594.593	33082.2
594.952	33215.3
595.311	33141.18
595.67	33162.64
596.029	33475.18
596.387	33442.41
596.746	33591.11
597.104	33310.21
597.463	33359.02
597.822	33526.48
598.18	33399.7
598.538	33478.57
598.897	33771.89
599.255	33402.19
599.613	33650.32
599.972	33549.08
600.33	33675.17
600.688	33530.09
601.046	33816.87
601.404	33886.02
601.762	33707.72
602.12	33928.27
602.478	33951.78
602.836	34037.65
603.194	33587.72
603.552	33848.28
603.91	33774.15
604.268	34067.25
604.625	33987.03
604.983	34131.21
605.341	33959.69
605.698	34163.3
606.056	34336.85
606.413	34160.81
606.771	34415.49
607.128	34280.58
607.485	34135.27
607.843	34232.9
608.2	34380.24
608.557	34536.62
608.914	34411.2
609.272	34544.98
609.629	34799.21
609.986	34765.54
610.343	34708.59
610.7	35013.9
611.057	34815.26
611.414	34800.57
611.771	34896.84
612.127	34920.79
612.484	35078.98
612.841	35172.54
613.198	34985.42
613.554	34956.04
613.911	35292.76
614.267	35182.48
614.624	35291.4
614.98	35266.32
615.337	35596.71
615.693	35571.62
616.05	35465.18
616.406	35646.2
616.762	35520.32
617.118	35649.59
617.475	35586.08
617.831	35683.26
618.187	35683.71
618.543	35733.42
618.899	35824.72
619.255	35807.32
619.611	35790.37
619.967	35901.33
620.323	35992.4
620.678	35948.56
621.034	35867.66
621.39	35772.75
621.746	35826.53
622.101	36272.17
622.457	35856.81
622.812	36153.98
623.168	36106.07
623.523	36066.52
623.879	36156.01
624.234	35967.32
624.589	36118.73
624.945	36099.97
625.3	36131.61
625.655	36060.42
626.01	36276.46
626.365	36290.7
626.72	36206.18
627.075	36055
627.43	36080.53
627.785	36020.2
628.14	36003.93
628.495	36043.02
628.85	36056.35
629.205	35864.04
629.559	36170.93
629.914	35991.5
630.269	35846.42
630.623	35715.12
630.978	35659.53
631.332	35840.09
631.687	35778.4
632.041	35716.7
632.396	35843.48
632.75	35705.85
633.104	35526.65
633.459	35535.92
633.813	35427.22
634.167	35422.02
634.521	35451.62
634.875	35484.84
635.229	35367.33
635.583	35146.1
635.937	35162.59
636.291	35118.75
636.645	34966.44
636.999	34918.31
637.352	35076.72
637.706	34864.52
638.06	35048.25
638.413	34983.39
638.767	34813.9
639.121	34919.89
639.474	34829.49
639.828	34776.39
640.181	34620.91
640.534	34746.56
640.888	34651.19
641.241	34570.74
641.594	34602.38
641.947	34715.82
642.301	34467.7
642.654	34556.73
643.007	34453.46
643.36	34449.84
643.713	34363.52
644.066	34439.9
644.419	34320.81
644.771	33916.3
645.124	33649.86
645.477	33651.45
645.83	33622.07
646.182	33490.55
646.535	33587.49
646.888	33506.59
647.24	33439.02
647.593	33680.15
647.945	33547.49
648.298	33295.75
648.65	33119.26
649.002	33020.73
649.355	32950.67
649.707	32697.57
650.059	32734.63
650.411	33261.63
650.763	33447.61
651.115	33971.44
651.467	33937.99
651.819	33916.98
652.171	33821.84
652.523	33660.94
652.875	33746.13
653.227	33735.74
653.578	33969.86
653.93	33763.53
654.282	33660.03
654.633	33531.22
654.985	33733.03
655.337	33694.16
655.688	33613.03
656.039	33752.01
656.391	33512.01
656.742	33494.61
657.094	33493.71
657.445	33526.93
657.796	33719.01
658.147	33517.44
658.498	33629.3
658.849	33751.33
659.2	33635.17
659.551	33543.88
659.902	33766.47
660.253	33532.35
660.604	33736.19
660.955	33668.17
661.306	33681.73
661.656	33585.46
662.007	33639.69
662.358	33772.12
662.708	33714.72
663.059	33694.83
663.409	33568.96
663.76	33709.07
664.11	33702.74
664.461	33899.35
664.811	33810.09
665.161	33601.96
665.511	33799.69
665.862	33681.28
666.212	33773.93
666.562	33863.42
666.912	33726.02
667.262	33671.11
667.612	33698
667.962	33798.33
668.312	33761.73
668.662	34049.63
669.011	33791.1
669.361	33814.15
669.711	33875.85
670.06	33638.56
670.41	33683.31
670.76	33618.23
671.109	33862.97
671.459	33756.3
671.808	33792.01
672.157	33728.05
672.507	33542.97
672.856	33477.66
673.205	33585.91
673.554	33663.87
673.904	33733.25
674.253	33637.21
674.602	33441.96
674.951	33082.42
675.3	32915.42
675.649	33272.02
675.998	33400.6
676.346	33431.11
676.695	33562.63
677.044	33300.49
677.393	33320.61
677.741	33489.64
678.09	33443.09
678.438	33274.73
678.787	33258.69
679.135	33153.83
679.484	33062.99
679.832	33085.13
680.181	32918.58
680.529	32987.96
680.877	32937.34
681.225	32934.63
681.573	33073.38
681.922	32773.28
682.27	32736.44
682.618	32657.35
682.966	32643.79
683.314	32587.74
683.661	32532.15
684.009	32428.65
684.357	32327.41
684.705	32331.25
685.053	32264.82
685.4	32241.77
685.748	32142.78
686.095	32144.59
686.443	31868.67
686.79	31830.25
687.138	31900.08
687.485	31860.98
687.832	31744.6
688.18	31686.98
688.527	31639.07
688.874	31491.05
689.221	31663.02
689.568	31349.36
689.915	31241.11
690.262	31330.6
690.609	31166.54
690.956	30921.35
691.303	31022.14
691.65	30857.62
691.997	30746.44
692.344	30619.21
692.69	30527.01
693.037	30520.68
693.383	30184.64
693.73	30259.22
694.077	30057.87
694.423	30002.28
694.769	29823.07
695.116	29752.11
695.462	29801.15
695.808	29633.47
696.155	29633.7
696.501	29330.43
696.847	29201.62
697.193	29180.83
697.539	29170.89
697.885	28995.3
698.231	28986.71
698.577	28855.19
698.923	28749.88
699.269	28500.85
699.614	28423.79
699.96	28238.71
700.306	28318.7
700.651	28019.05
700.997	27947.19
701.342	28008.66
701.688	27937.47
702.033	27788.1
702.379	27767.53
702.724	27544.04
703.069	27493.19
703.415	27210.94
703.76	27120.32
704.105	27226.76
704.45	27148.57
704.795	26910.15
705.14	26855.01
705.485	26786.99
705.83	26518.07
706.175	26752.19
706.52	26680.56
706.865	26459.09
707.209	26453.44
707.554	26334.35
707.899	26307.23
708.243	26247.8
708.588	26235.37
708.932	26029.27
709.277	25982.95
709.621	25868.37
709.966	25820.24
710.31	25797.64
710.654	25668.38
710.998	25680.13
711.342	25686.01
711.687	25577.53
712.031	25485.56
712.375	25399.69
712.719	25474.03
713.063	25256.86
713.407	25399.91
713.75	25307.71
714.094	25294.6
714.438	25027.04
714.782	25144.78
715.125	25053.03
715.469	25091.44
715.812	24918.79
716.156	24994.27
716.499	25006.02
716.843	24979.81
717.186	24792.24
717.53	24896.42
717.873	25048.96
718.216	24871.11
718.559	24717.67
718.902	24670.21
719.246	24699.14
719.589	24741.4
719.932	24558.8
720.275	24523.78
720.617	24573.04
720.96	24558.35
721.303	24527.39
721.646	24636.99
721.989	24519.71
722.331	24473.38
722.674	24488.75
723.016	24484.68
723.359	24421.18
723.701	24420.73
724.044	24342.09
724.386	24246.27
724.729	24545.47
725.071	24383.89
725.413	24354.29
725.755	24390.67
726.097	24230.22
726.439	24296.89
726.782	24197.23
727.124	24389.32
727.465	24305.7
727.807	24282.43
728.149	24272.71
728.491	24222.77
728.833	24284.23
729.175	24329.2
729.516	24174.18
729.858	24165.59
730.199	24386.38
730.541	24317.45
730.882	24271.35
731.224	24412.82
731.565	24267.29
731.906	24283.33
732.248	24387.73
732.589	24289.88
732.93	24277.45
733.271	24350.45
733.612	24421.18
733.953	24534.17
734.294	24330.79
734.635	24366.04
734.976	24515.87
735.317	24216.67
735.658	24417.11
735.999	24474.74
736.339	24368.75
736.68	24549.54
737.021	24556.54
737.361	24458.92
737.702	24740.04
738.042	24644.9
738.383	24668.41
738.723	24900.49
739.063	24730.78
739.404	24798.35
739.744	24869.3
740.084	24825.69
740.424	25024.1
740.764	24951.11
741.104	25069.98
741.444	24971.22
741.784	25019.81
742.124	25097.77
742.464	25201.05
742.804	25128.73
743.143	25245.11
743.483	25423.19
743.823	25363.3
744.162	25573.24
744.502	25709.73
744.841	25677.42
745.181	25860.92
745.52	25841.48
745.86	26006
746.199	26027.47
746.538	26178.87
746.877	26293.9
747.216	26426.1
747.556	26463.61
747.895	26638.3
748.234	26690.05
748.573	26753.1
748.911	26884.84
749.25	27043.94
749.589	27069.02
749.928	27329.8
750.267	27362.57
750.605	27479.63
750.944	27555.79
751.283	27666.29
751.621	28054.08
751.96	27947.87
752.298	28244.81
752.636	28406.39
752.975	28467.85
753.313	28571.13
753.651	28885.47
753.989	28786.94
754.327	29047.95
754.666	28962.08
755.004	29461.05
