Data from 19-3935_FLMS001491_004.txt Node
Date: Thu Apr 19 16:40:09 BST 2018
User: hsy
Spectrometer: FLMS00149
Trigger mode: 0
Integration Time (sec): 1.000000E-2
Scans to average: 10
Electric dark correction enabled: true
Nonlinearity correction enabled: false
Boxcar width: 0
XAxis mode: Wavelengths
Number of Pixels in Spectrum: 2048
>>>>>Begin Spectral Data<<<<<
341.393	-32.56
341.776	-32.56
342.16	-32.56
342.543	-70.52
342.927	-77.07
343.31	-77.75
343.693	-74.14
344.077	-56.74
344.46	-64.19
344.843	-39.11
345.226	-66.45
345.61	-21.48
345.993	-30.3
346.376	12.64
346.759	7.9
347.142	13.32
347.525	59.42
347.908	65.75
348.291	79.98
348.674	93.32
349.057	97.84
349.44	130.38
349.823	168.12
350.206	164.5
350.588	240.88
350.971	254.22
351.354	278.4
351.737	266.42
352.119	288.57
352.502	291.28
352.884	312.97
353.267	321.79
353.65	337.6
354.032	333.54
354.414	328.11
354.797	355.91
355.179	348.23
355.562	364.72
355.944	349.36
356.326	346.87
356.709	373.76
357.091	378.51
357.473	394.78
357.855	369.24
358.238	389.58
358.62	395.91
359.002	371.05
359.384	384.61
359.766	406.53
360.148	390.48
360.53	388.45
360.912	366.53
361.294	376.7
361.676	364.27
362.057	375.12
362.439	383.25
362.821	364.5
363.203	369.69
363.584	362.46
363.966	370.37
364.348	355.23
364.729	372.18
365.111	363.14
365.493	366.53
365.874	379.86
366.256	381.22
366.637	380.54
367.019	378.28
367.4	373.99
367.781	389.35
368.163	368.34
368.544	374.44
368.925	375.12
369.306	358.39
369.688	356.59
370.069	370.15
370.45	376.7
370.831	371.05
371.212	365.63
371.593	378.96
371.974	380.31
372.355	372.63
372.736	405.62
373.117	383.7
373.498	382.57
373.879	393.87
374.26	365.4
374.641	377.15
375.021	361.33
375.402	416.25
375.783	423.7
376.163	418.05
376.544	383.48
376.925	378.51
377.305	394.1
377.686	403.82
378.066	395
378.447	412.4
378.827	412.18
379.208	396.13
379.588	435.45
379.968	421.44
380.349	430.71
380.729	430.26
381.109	413.76
381.489	438.39
381.87	415.57
382.25	433.65
382.63	436.58
383.01	448.11
383.39	430.93
383.77	434.78
384.15	440.43
384.53	434.78
384.91	462.35
385.29	459.41
385.67	456.25
386.049	453.08
386.429	475.45
386.809	483.14
387.189	446.53
387.568	462.35
387.948	470.71
388.328	471.39
388.707	460.99
389.087	487.2
389.466	493.76
389.846	476.58
390.225	479.52
390.605	497.83
390.984	494.21
391.363	512.74
391.743	507.77
392.122	523.14
392.501	524.94
392.881	520.2
393.26	513.64
393.639	532.18
394.018	542.8
394.397	525.17
394.776	566.3
395.155	570.82
395.534	547.32
395.913	566.07
396.292	559.07
396.671	573.76
397.05	562.91
397.429	573.98
397.808	567.2
398.186	580.76
398.565	568.33
398.944	578.28
399.323	571.04
399.701	576.24
400.08	596.81
400.458	610.82
400.837	591.38
401.215	609.24
401.594	618.05
401.972	619.4
402.351	631.16
402.729	644.94
403.107	630.48
403.486	651.04
403.864	642.45
404.242	629.12
404.62	657.82
404.999	671.15
405.377	677.26
405.755	685.84
406.133	686.97
406.511	687.43
406.889	709.57
407.267	700.98
407.645	710.93
408.023	726.75
408.401	726.07
408.779	719.74
409.156	757.48
409.534	732.17
409.912	768.55
410.29	775.33
410.667	780.53
411.045	792.73
411.422	799.51
411.8	806.07
412.178	823.92
412.555	813.75
412.933	840.87
413.31	859.62
413.687	860.53
414.065	884.26
414.442	864.82
414.819	872.28
415.197	895.33
415.574	877.02
415.951	932.16
416.328	918.15
416.705	904.82
417.082	929.23
417.46	930.81
417.837	960.86
418.214	979.17
418.591	945.05
418.967	961.99
419.344	979.85
419.721	1012.84
420.098	989.79
420.475	1019.85
420.852	1018.72
421.228	1037.02
421.605	1009.45
421.982	1052.61
422.358	1039.28
422.735	1063.01
423.111	1070.01
423.488	1106.4
423.864	1088.54
424.241	1105.04
424.617	1094.65
424.994	1133.06
425.37	1116.34
425.746	1164.02
426.123	1160.41
426.499	1168.32
426.875	1179.16
427.251	1210.8
427.627	1237.92
428.003	1223.23
428.379	1249.22
428.756	1257.35
429.132	1292.38
429.507	1288.54
429.883	1305.04
430.259	1316.79
430.635	1351.59
431.011	1353.17
431.387	1372.61
431.763	1397.01
432.138	1412.83
432.514	1404.69
432.89	1419.84
433.265	1462.55
433.641	1460.96
434.016	1486.5
434.392	1518.59
434.767	1536.44
435.143	1532.6
435.518	1544.35
435.894	1595.65
436.269	1608.53
436.644	1662.09
437.02	1641.75
437.395	1674.29
437.77	1681.52
438.145	1705.25
438.52	1717.68
438.895	1739.6
439.271	1711.58
439.646	1727.4
440.021	1779.83
440.395	1778.24
440.77	1753.84
441.145	1754.52
441.52	1833.84
441.895	1809.66
442.27	1819.6
442.645	1829.32
443.019	1849.65
443.394	1839.26
443.769	1860.05
444.143	1871.8
444.518	1906.15
444.892	1905.02
445.267	1898.92
445.641	1938.47
446.016	1983.44
446.39	1971.91
446.764	1962.19
447.139	1975.08
447.513	1998.35
447.887	2001.74
448.262	2026.83
448.636	1974.62
449.01	2037.9
449.384	2062.53
449.758	2096.88
450.132	2085.81
450.506	2129.87
450.88	2127.61
451.254	2103.89
451.628	2167.61
452.002	2174.17
452.376	2213.94
452.75	2255.07
453.123	2249.42
453.497	2285.35
453.871	2285.12
454.244	2356.53
454.618	2330.77
454.992	2407.61
455.365	2414.84
455.739	2429.3
456.112	2468.17
456.486	2480.37
456.859	2505.23
457.232	2559.69
457.606	2582.29
457.979	2580.71
458.352	2646.47
458.725	2675.4
459.099	2677.66
459.472	2722.4
459.845	2725.79
460.218	2769.4
460.591	2816.18
460.964	2812.12
461.337	2877.65
461.71	2918.1
462.083	2914.26
462.456	2949.29
462.829	2985.22
463.201	3013.92
463.574	3018.44
463.947	3083.97
464.32	3095.27
464.692	3169.39
465.065	3157.19
465.438	3159.22
465.81	3235.61
466.183	3279.22
466.555	3292.78
466.928	3346.11
467.3	3340.91
467.672	3365.1
468.045	3454.36
468.417	3435.6
468.789	3474.24
469.161	3586.11
469.534	3604.41
469.906	3621.59
470.278	3652.09
470.65	3680.79
471.022	3751.75
471.394	3797.4
471.766	3850.51
472.138	3860.68
472.51	3991.97
472.882	3959.88
473.253	4031.74
473.625	4094.34
473.997	4183.38
474.369	4212.08
474.74	4270.16
475.112	4334.34
475.484	4322.58
475.855	4432.19
476.227	4500.21
476.598	4534.56
476.97	4604.61
477.341	4688.22
477.713	4763.7
478.084	4776.13
478.455	4916.24
478.827	4935.22
479.198	5104.71
479.569	5076.01
479.94	5207.08
480.311	5274.65
480.682	5338.15
481.053	5481.65
481.424	5596.22
481.795	5601.65
482.166	5674.41
482.537	5773.17
482.908	5930
483.279	5915.99
483.65	6077.11
484.021	6144.46
484.391	6223.33
484.762	6295.64
485.133	6363.66
485.503	6430.78
485.874	6591.22
486.244	6703.09
486.615	6760.03
486.985	6788.96
487.356	6927.94
487.726	6976.98
488.097	7168.61
488.467	7205.9
488.837	7323.86
489.207	7423.52
489.578	7490.86
489.948	7642.5
490.318	7731.31
490.688	7709.16
491.058	7907.57
491.428	7975.82
491.798	8117.29
492.168	8210.39
492.538	8256.72
492.908	8350.5
493.278	8430.72
493.648	8476.37
494.017	8614.22
494.387	8674.33
494.757	8749.59
495.126	8814.22
495.496	8843.6
495.866	8917.04
496.235	9050.82
496.605	9107.77
496.974	9250.36
497.344	9255.56
497.713	9322.23
498.082	9317.03
498.452	9459.85
498.821	9502.79
499.19	9508.89
499.559	9536.23
499.928	9646.51
500.298	9714.76
500.667	9840.18
501.036	9861.2
501.405	9870.46
501.774	9918.14
502.143	9992.49
502.512	10002.66
502.88	10136.67
503.249	10118.14
503.618	10202.2
503.987	10289.88
504.356	10370.79
504.724	10400.62
505.093	10385.25
505.462	10516.55
505.83	10514.96
506.199	10599.03
506.567	10723.55
506.936	10750.89
507.304	10829.08
507.672	10878.57
508.041	10893.94
508.409	11036.08
508.777	11078.11
509.145	11201.73
509.514	11206.02
509.882	11328.95
510.25	11322.63
510.618	11403.98
510.986	11419.8
511.354	11479.68
511.722	11648.04
512.09	11686.23
512.458	11710.64
512.826	11852.56
513.193	11829.96
513.561	11908.83
513.929	12063.62
514.297	12210.06
514.664	12155.37
515.032	12247.57
515.4	12396.27
515.767	12428.36
516.135	12529.83
516.502	12465.42
516.869	12687.11
517.237	12748.8
517.604	12770.5
517.972	13020.43
518.339	12969.59
518.706	13028.12
519.073	13132.07
519.44	13188.79
519.808	13360.76
520.175	13354.21
520.542	13475.11
520.909	13600.98
521.276	13661.77
521.643	13766.4
522.009	13946.51
522.376	14101.99
522.743	14127.07
523.11	14275.54
523.477	14467.18
523.843	14534.07
524.21	14742.65
524.577	14799.82
524.943	14824.45
525.31	14941.06
525.676	15198.46
526.043	15224.44
526.409	15408.85
526.776	15540.14
527.142	15614.72
527.508	15625.56
527.874	15885.9
528.241	15952.56
528.607	16018.1
528.973	16151.88
529.339	16206.11
529.705	16400.01
530.071	16574.47
530.437	16675.93
530.803	16814.23
531.169	16874.34
531.535	16927.22
531.901	17071.18
532.267	17144.85
532.632	17325.86
532.998	17328.8
533.364	17357.5
533.73	17538.28
534.095	17711.84
534.461	17715.9
534.826	17846.97
535.192	17902.79
535.557	18046.52
535.923	18001.09
536.288	18234.53
536.653	18190.24
537.019	18271.14
537.384	18345.04
537.749	18473.4
538.114	18486.51
538.479	18525.6
538.845	18550.46
539.21	18663.9
539.575	18747.74
539.94	18846.95
540.305	18991.58
540.67	18956.55
541.034	18957
541.399	19001.52
541.764	19175.3
542.129	19190.89
542.494	19239.48
542.858	19247.62
543.223	19266.37
543.587	19397.89
543.952	19465.01
544.316	19533.71
544.681	19513.82
545.045	19592.69
545.41	19724.21
545.774	19768.96
546.138	19788.84
546.503	19949.74
546.867	19835.4
547.231	20102.96
547.595	20092.56
547.959	20032.23
548.324	20082.4
548.688	20130.3
549.052	20303.18
549.416	20317.87
549.779	20311.09
550.143	20324.42
550.507	20568.94
550.871	20556.96
551.235	20684.41
551.599	20788.59
551.962	20787.01
552.326	20880.79
552.689	20865.88
553.053	20839.66
553.417	20964.86
553.78	21184.06
554.143	21255.25
554.507	21274.68
554.87	21260.67
555.234	21586.08
555.597	21509.7
555.96	21525.3
556.323	21707.44
556.686	21653.65
557.05	21875.57
557.413	22030.82
557.776	22004.15
558.139	22246.86
558.502	22212.74
558.865	22341.77
559.228	22551.26
559.59	22664.02
559.953	22704.25
560.316	22916.9
560.679	22933.39
561.041	23072.83
561.404	23365.02
561.767	23566.6
562.129	23416.32
562.492	23773.37
562.854	23771.56
563.217	23889.3
563.579	24034.38
563.941	24099.69
564.304	24425.56
564.666	24609.51
565.028	24677.53
565.39	24896.96
565.753	25109.38
566.115	25318.19
566.477	25418.53
566.839	25567
567.201	25885.86
567.563	25920.21
567.925	26184.38
568.287	26498.5
568.648	26645.84
569.01	26853.97
569.372	27131.02
569.734	27242.89
570.095	27422.32
570.457	27913.83
570.819	27904.79
571.18	27977.56
571.542	28397.43
571.903	28564.43
572.265	28736.86
572.626	28987.7
572.987	29201.48
573.349	29425.43
573.71	29460.68
574.071	29898.86
574.432	30105.18
574.794	30355.8
575.155	30436.93
575.516	30626.3
575.877	30760.53
576.238	30929.34
576.599	31035.1
576.96	31238.03
577.32	31235.32
577.681	31594.41
578.042	31934.06
578.403	31925.25
578.763	32028.52
579.124	32076.43
579.485	32405.24
579.845	32515.74
580.206	32628.51
580.566	32802.51
580.927	32740.82
581.287	32942.85
581.648	32863.3
582.008	33096.29
582.368	33170.41
582.728	33298.55
583.089	33229.85
583.449	33362.5
583.809	33316.17
584.169	33633
584.529	33394.36
584.889	33722.49
585.249	33438.43
585.609	33425.55
585.969	33636.84
586.329	33595.94
586.688	33754.58
587.048	33644.98
587.408	33708.25
587.768	33690.63
588.127	33835.93
588.487	33788.7
588.846	34027.79
589.206	33645.65
589.565	33770.85
589.925	33985.98
590.284	33846.33
590.643	33898.98
591.003	33955.25
591.362	34125.87
591.721	34049.03
592.08	34035.02
592.44	34029.83
592.799	34266.43
593.158	34201.57
593.517	34139.88
593.876	34213.78
594.235	34124.29
594.593	34163.38
594.952	34138.98
595.311	34235.02
595.67	34277.5
596.029	34512.07
596.387	34400.21
596.746	34599.53
597.104	34462.58
597.463	34369.7
597.822	34617.83
598.18	34494.22
598.538	34481.79
598.897	34672.75
599.255	34428.91
599.613	34961.1
599.972	34703.25
600.33	34733.54
600.688	34736.02
601.046	34828.45
601.404	35056.69
601.762	34957.71
602.12	34997.71
602.478	34950.71
602.836	35189.12
603.194	34818.73
603.552	35077.03
603.91	34972.63
604.268	35124.49
604.625	34979.86
604.983	35268.21
605.341	35167.42
605.698	35211.72
606.056	35433.86
606.413	35233.18
606.771	35405.16
607.128	35480.18
607.485	35384.37
607.843	35379.85
608.2	35514.31
608.557	35572.16
608.914	35510.24
609.272	35751.14
609.629	35888.76
609.986	36137.79
610.343	35985.93
610.7	36069.77
611.057	36024.58
611.414	35997.23
611.771	36222.54
612.127	36250.78
612.484	36194.06
612.841	36301.63
613.198	36094.63
613.554	36290.33
613.911	36465.02
614.267	36385.47
614.624	36350.44
614.98	36564.9
615.337	36716.76
615.693	36660.49
616.05	36718.57
616.406	36883.08
616.762	36732.13
617.118	36974.61
617.475	36733.94
617.831	37036.3
618.187	36903.87
618.543	37050.76
618.899	37221.61
619.255	37074.04
619.611	37134.15
619.967	37170.53
620.323	37282.62
620.678	36993.14
621.034	37060.25
621.39	37060.48
621.746	37065.68
622.101	37558.32
622.457	37059.12
622.812	37480.36
623.168	37492.56
623.523	37145.45
623.879	37487.14
624.234	37113.36
624.589	37401.94
624.945	37373.01
625.3	37460.47
625.655	37465.44
626.01	37395.16
626.365	37438.32
626.72	37304.54
627.075	37233.81
627.43	37376.63
627.785	37300.02
628.14	37375.27
628.495	37388.61
628.85	37380.92
629.205	37271.32
629.559	37400.13
629.914	37174.38
630.269	37156.75
630.623	36935.51
630.978	36938.68
631.332	37254.83
631.687	37154.49
632.041	37125.11
632.396	36994.72
632.75	37048.05
633.104	37008.05
633.459	36810.77
633.813	36781.17
634.167	36747.72
634.521	36710.66
634.875	36725.57
635.229	36627.72
635.583	36559.7
635.937	36439.48
636.291	36437.9
636.645	36566.93
636.999	36272.7
637.352	36429.76
637.706	36331.91
638.06	36371.01
638.413	36184.57
638.767	36190.22
639.121	36276.32
639.474	36124.23
639.828	36022.09
640.181	35976.89
640.534	36124.23
640.888	35728.99
641.241	35777.8
641.594	35776.22
641.947	35794.98
642.301	35787.97
642.654	35741.19
643.007	35646.05
643.36	35726.73
643.713	35516.57
644.066	35804.47
644.419	35528.77
644.771	35078.16
645.124	34818.73
645.477	34677.27
645.83	34700.09
646.182	34629.58
646.535	34626.42
646.888	34807.21
647.24	34583.03
647.593	34858.5
647.945	34484.95
648.298	34418.74
648.65	34293.77
649.002	34107.11
649.355	34083.38
649.707	33927
650.059	33958.87
650.411	34299.2
650.763	34699.64
651.115	35064.83
651.467	35024.83
651.819	35035.45
652.171	34951.16
652.523	34781.67
652.875	34920.42
653.227	34830.03
653.578	35054.43
653.93	34969.46
654.282	34852.85
654.633	34847.66
654.985	34706.19
655.337	34805.4
655.688	34844.04
656.039	34896.7
656.391	34623.71
656.742	34638.4
657.094	34670.94
657.445	34643.14
657.796	34639.75
658.147	34595.23
658.498	34871.84
658.849	34932.63
659.2	34658.06
659.551	34548
659.902	34936.02
660.253	34721.11
660.604	34926.98
660.955	34590.49
661.306	34912.06
661.656	34809.47
662.007	34838.39
662.358	34867.77
662.708	34988.9
663.059	34880.2
663.409	34637.49
663.76	35050.82
664.11	34918.62
664.461	34923.14
664.811	34978.05
665.161	34947.09
665.511	34817.83
665.862	35001.1
666.212	34957.03
666.562	34972.85
666.912	34891.95
667.262	35006.98
667.612	34900.31
667.962	34918.84
668.312	34758.39
668.662	34912.97
669.011	35032.74
669.361	34935.34
669.711	34942.8
670.06	34895.57
670.41	34842.69
670.76	34833.42
671.109	34874.1
671.459	34763.14
671.808	34793.87
672.157	34861.22
672.507	34540.32
672.856	34574.22
673.205	34693.99
673.554	34646.53
673.904	34671.84
674.253	34856.24
674.602	34701.45
674.951	34335.35
675.3	34085.42
675.649	34645.85
675.998	34644.72
676.346	34513.2
676.695	34591.84
677.044	34440.66
677.393	34400.21
677.741	34552.3
678.09	34456.71
678.438	34242.02
678.787	34313.21
679.135	34491.06
679.484	34117.05
679.832	34228.69
680.181	34110.5
680.529	34127.68
680.877	34097.85
681.225	33962.71
681.573	34251.97
681.922	33888.59
682.27	33788.93
682.618	33811.53
682.966	33714.81
683.314	33660.34
683.661	33602.27
684.009	33576.5
684.357	33396.62
684.705	33341.93
685.053	33416.73
685.4	33182.84
685.748	33190.07
686.095	33139.68
686.443	33077.76
686.79	32991.43
687.138	32998.89
687.485	32891.55
687.832	32721.16
688.18	32763.42
688.527	32639.58
688.874	32597.77
689.221	32534.5
689.568	32453.14
689.915	32239.59
690.262	32332.24
690.609	32208.86
690.956	32003.66
691.303	32068.52
691.65	31852.93
691.997	31794.86
692.344	31700.17
692.69	31480.74
693.037	31461.08
693.383	31223.35
693.73	31279.39
694.077	31185.61
694.423	31040.98
694.769	30815.9
695.116	30875.33
695.462	30670.14
695.808	30445.51
696.155	30616.13
696.501	30277.83
696.847	30398.73
697.193	30149.25
697.539	30208.01
697.885	30012.76
698.231	29827.9
698.577	29834.46
698.923	29757.85
699.269	29542.71
699.614	29592.65
699.96	29282.15
700.306	29398.08
700.651	29114.7
700.997	29124.87
701.342	29109.28
701.688	28965.55
702.033	28775.27
702.379	28760.36
702.724	28572.34
703.069	28678.55
703.415	28267.72
703.76	28335.06
704.105	28243.54
704.45	28083.32
704.795	27940.27
705.14	27965.35
705.485	27874.73
705.83	27698.01
706.175	27742.08
706.52	27550.22
706.865	27497.79
707.209	27484.23
707.554	27505.25
707.899	27479.72
708.243	27314.07
708.588	27124.47
708.932	27126.28
709.277	27125.83
709.621	26897.81
709.966	26819.39
710.31	26778.26
710.654	26701.43
710.998	26713.63
711.342	26703.24
711.687	26586.86
712.031	26485.84
712.375	26381.67
712.719	26279.97
713.063	26279.07
713.407	26397.71
713.75	26250.37
714.094	26206.98
714.438	26074.1
714.782	26193.2
715.125	25901.68
715.469	26169.47
715.812	25894.9
716.156	25910.27
716.499	25788.46
716.843	25910.72
717.186	25769.7
717.53	25944.84
717.873	25961.56
718.216	25944.16
718.559	25612.19
718.902	25550.27
719.246	25675.24
719.589	25565.64
719.932	25417.62
720.275	25554.79
720.617	25574
720.96	25459.66
721.303	25472.76
721.646	25505.3
721.989	25302.15
722.331	25437.96
722.674	25383.27
723.016	25429.15
723.359	25322.48
723.701	25281.36
724.044	25236.61
724.386	25209.94
724.729	25358.64
725.071	25293.56
725.413	25269.83
725.755	25262.37
726.097	25227.57
726.439	25097.41
726.782	25045.88
727.124	25229.83
727.465	25150.96
727.807	25118.87
728.149	25157.29
728.491	25026.45
728.833	25235.93
729.175	25095.6
729.516	25167.23
729.858	25100.57
730.199	25125.88
730.541	25086.11
730.882	25025.32
731.224	25151.41
731.565	25002.94
731.906	25105.09
732.248	25297.17
732.589	24982.15
732.93	25088.59
733.271	25161.58
733.612	25121.81
733.953	25291.98
734.294	25229.83
734.635	25137.18
734.976	25330.39
735.317	25124.3
735.658	25381.92
735.999	25193.9
736.339	25240.23
736.68	25326.78
737.021	25347.12
737.361	25313.22
737.702	25543.04
738.042	25473.21
738.383	25486.32
738.723	25621.46
739.063	25407.45
739.404	25582.59
739.744	25583.04
740.084	25524.51
740.424	25682.47
740.764	25736.94
741.104	25871.17
741.444	25760.89
741.784	25740.1
742.124	25957.04
742.464	25924.5
742.804	26008.34
743.143	26115.91
743.483	26143.71
743.823	26135.34
744.162	26313.19
744.502	26391.38
744.841	26436.8
745.181	26578.72
745.52	26533.3
745.86	26740.3
746.199	26749.57
746.538	26809.22
746.877	27030.01
747.216	27071.14
747.556	27046.28
747.895	27241.53
748.234	27303.22
748.573	27359.49
748.911	27466.83
749.25	27715.64
749.589	27756.32
749.928	27944.34
750.267	28039.47
750.605	28083.32
750.944	28190.66
751.283	28353.82
751.621	28687.14
751.96	28583.87
752.298	28818.44
752.636	28907.25
752.975	28920.58
753.313	29069.96
753.651	29517.63
753.989	29433.79
754.327	29631.98
754.666	29563.5
755.004	29944.96
