Data from 19-3935_FLMS001491_003.txt Node
Date: Thu Apr 19 16:38:58 BST 2018
User: hsy
Spectrometer: FLMS00149
Trigger mode: 0
Integration Time (sec): 1.000000E-2
Scans to average: 10
Electric dark correction enabled: true
Nonlinearity correction enabled: false
Boxcar width: 0
XAxis mode: Wavelengths
Number of Pixels in Spectrum: 2048
>>>>>Begin Spectral Data<<<<<
341.393	2.33
341.776	2.33
342.16	2.33
342.543	-56.2
342.927	-84.45
343.31	-60.72
343.693	-82.41
344.077	-70.21
344.46	-64.11
344.843	-65.24
345.226	-50.1
345.61	-36.09
345.993	-13.49
346.376	2.56
346.759	23.57
347.142	18.83
347.525	35.78
347.908	52.72
348.291	106.28
348.674	80.52
349.057	122.1
349.44	119.16
349.823	138.82
350.206	164.81
350.588	239.39
350.971	252.95
351.354	252.27
351.737	293.62
352.119	283
352.502	280.06
352.884	305.37
353.267	306.05
353.65	325.71
354.032	326.39
354.414	332.49
354.797	349.67
355.179	338.59
355.562	364.58
355.944	373.17
356.326	380.4
356.709	350.57
357.091	377.91
357.473	376.78
357.855	376.78
358.238	384.24
358.62	390.34
359.002	377.91
359.384	381.3
359.766	371.36
360.148	369.78
360.53	373.17
360.912	388.08
361.294	373.39
361.676	382.43
362.057	382.43
362.439	396.22
362.821	355.99
363.203	399.61
363.584	387.86
363.966	365.26
364.348	382.43
364.729	371.36
365.111	373.85
365.493	372.72
365.874	374.75
366.256	361.19
366.637	367.97
367.019	355.77
367.4	387.18
367.781	364.58
368.163	370.23
368.544	375.2
368.925	367.52
369.306	388.76
369.688	349.89
370.069	366.39
370.45	381.76
370.831	375.88
371.212	369.55
371.593	380.17
371.974	361.42
372.355	395.77
372.736	392.38
373.117	385.37
373.498	386.5
373.879	378.59
374.26	376.33
374.641	391.02
375.021	361.87
375.402	378.37
375.783	401.64
376.163	410.23
376.544	394.18
376.925	402.09
377.305	397.12
377.686	414.97
378.066	395.09
378.447	415.2
378.827	378.14
379.208	414.3
379.588	436.67
379.968	412.94
380.349	399.16
380.729	447.06
381.109	420.4
381.489	417.23
381.87	406.16
382.25	423.34
382.63	425.37
383.01	426.27
383.39	460.62
383.77	440.51
384.15	458.59
384.53	441.64
384.91	455.65
385.29	466.95
385.67	461.08
386.049	472.37
386.429	464.92
386.809	473.73
387.189	484.8
387.568	459.95
387.948	474.86
388.328	457.91
388.707	457.69
389.087	499.49
389.466	488.87
389.846	487.74
390.225	489.32
390.605	518.7
390.984	496.33
391.363	494.29
391.743	506.05
392.122	530
392.501	511.02
392.881	518.48
393.26	522.77
393.639	531.36
394.018	548.76
394.397	547.85
394.776	534.52
395.155	546.5
395.534	556.21
395.913	565.93
396.292	558.02
396.671	557.12
397.05	570.9
397.429	576.1
397.808	546.27
398.186	591.02
398.565	573.84
398.944	583.56
399.323	596.21
399.701	589.89
400.08	609.77
400.458	608.64
400.837	616.1
401.215	632.14
401.594	620.17
401.972	630.11
402.351	610.68
402.729	619.49
403.107	635.53
403.486	662.2
403.864	631.24
404.242	659.71
404.62	657.45
404.999	670.34
405.377	667.17
405.755	679.37
406.133	681.18
406.511	717.57
406.889	692.93
407.267	718.02
407.645	712.59
408.023	713.5
408.401	725.93
408.779	730.67
409.156	734.06
409.534	746.04
409.912	745.59
410.29	803.67
410.667	776.32
411.045	763.67
411.422	800.95
411.8	805.47
412.178	808.64
412.555	821.52
412.933	826.94
413.31	868.97
413.687	868.97
414.065	866.71
414.442	870.56
414.819	913.72
415.197	910.33
415.574	913.72
415.951	928.86
416.328	898.35
416.705	943.55
417.082	932.93
417.46	922.31
417.837	967.95
418.214	968.63
418.591	978.12
418.967	979.48
419.344	993.04
419.721	1004.79
420.098	999.59
420.475	1013.6
420.852	1020.38
421.228	1025.35
421.605	1033.04
421.982	1033.72
422.358	1049.08
422.735	1080.49
423.111	1078.46
423.488	1099.02
423.864	1085.47
424.241	1131.11
424.617	1152.81
424.994	1131.34
425.37	1131.79
425.746	1155.75
426.123	1155.75
426.499	1153.94
426.875	1191.23
427.251	1197.1
427.627	1209.53
428.003	1264.67
428.379	1240.49
428.756	1270.77
429.132	1308.74
429.507	1301.73
429.883	1316.19
430.259	1328.17
430.635	1367.04
431.011	1336.53
431.387	1376.31
431.763	1401.84
432.138	1460.37
432.514	1435.74
432.89	1459.92
433.265	1474.16
433.641	1500.37
434.016	1492.69
434.392	1532.69
434.767	1529.97
435.143	1558.67
435.518	1602.97
435.894	1593.7
436.269	1623.3
436.644	1675.51
437.02	1671.67
437.395	1660.37
437.77	1710.53
438.145	1702.4
438.52	1710.76
438.895	1706.92
439.271	1749.18
439.646	1769.74
440.021	1797.99
440.395	1810.64
440.77	1794.6
441.145	1794.6
441.52	1849.74
441.895	1851.77
442.27	1865.11
442.645	1860.59
443.019	1918.89
443.394	1917.76
443.769	1915.27
444.143	1932.22
444.518	1926.35
444.892	1913.01
445.267	1950.08
445.641	1966.12
446.016	1960.92
446.39	1973.8
446.764	2010.64
447.139	2002.73
447.513	2026.01
447.887	2020.58
448.262	2015.16
448.636	2045.67
449.01	2096.29
449.384	2091.54
449.758	2117.76
450.132	2129.96
450.506	2177.19
450.88	2147.36
451.254	2184.19
451.628	2175.15
452.002	2221.93
452.376	2229.39
452.75	2273.01
453.123	2282.04
453.497	2312.1
453.871	2319.11
454.244	2387.35
454.618	2392.1
454.992	2434.58
455.365	2418.76
455.739	2484.3
456.112	2498.99
456.486	2530.4
456.859	2551.19
457.232	2573.34
457.606	2594.8
457.979	2611.75
458.352	2680.9
458.725	2724.29
459.099	2726.55
459.472	2773.33
459.845	2814.69
460.218	2818.53
460.591	2832.09
460.964	2892.88
461.337	2927
461.71	2974
462.083	3015.58
462.456	3040.44
462.829	3034.12
463.201	3099.88
463.574	3093.55
463.947	3123.6
464.32	3169.48
464.692	3189.14
465.065	3241.57
465.438	3247.67
465.81	3270.27
466.183	3332.86
466.555	3376.25
466.928	3397.72
467.3	3407.89
467.672	3465.52
468.045	3485.63
468.417	3522.46
468.789	3512.75
469.161	3580.09
469.534	3635.68
469.906	3677.71
470.278	3733.53
470.65	3728.33
471.022	3839.52
471.394	3913.41
471.766	3896.69
472.138	3994.09
472.51	4041.09
472.882	4059.4
473.253	4076.8
473.625	4196.12
473.997	4249.22
474.369	4243.57
474.74	4279.05
475.112	4377.81
475.484	4432.04
475.855	4541.65
476.227	4533.51
476.598	4640.63
476.97	4702.09
477.341	4772.83
477.713	4815.99
478.084	4839.72
478.455	5018.92
478.827	5031.8
479.198	5157.9
479.569	5141.18
479.94	5288.29
480.311	5350.44
480.682	5466.37
481.053	5620.71
481.424	5651.45
481.795	5702.07
482.166	5730.09
482.537	5854.38
482.908	5981.16
483.279	6041.27
483.65	6166.24
484.021	6248.04
484.391	6357.64
484.762	6392.44
485.133	6431.99
485.503	6507.24
485.874	6700.46
486.244	6723.74
486.615	6885.09
486.985	6958.76
487.356	7115.36
487.726	7101.58
488.097	7310.39
488.467	7330.95
488.837	7459.99
489.207	7521.91
489.578	7686.65
489.948	7742.92
490.318	7846.64
490.688	7824.95
491.058	8022.23
491.428	8100.42
491.798	8134.55
492.168	8307.42
492.538	8445.05
492.908	8412.28
493.278	8559.39
493.648	8599.17
494.017	8661.31
494.387	8772.5
494.757	8859.5
495.126	8858.82
495.496	8950.57
495.866	9044.35
496.235	9152.82
496.605	9286.15
496.974	9254.97
497.344	9424
497.713	9414.06
498.082	9433.49
498.452	9570.67
498.821	9578.12
499.19	9600.72
499.559	9707.16
499.928	9776.99
500.298	9892.69
500.667	9946.7
501.036	9976.98
501.405	10012.24
501.774	10081.61
502.143	10096.08
502.512	10171.33
502.88	10308.05
503.249	10336.52
503.618	10393.02
503.987	10346.92
504.356	10481.83
504.724	10534.71
505.093	10568.38
505.462	10628.94
505.83	10669.17
506.199	10764.08
506.567	10930.18
506.936	10825.1
507.304	10956.17
507.672	10996.84
508.041	11081.81
508.409	11206.56
508.777	11272.09
509.145	11350.05
509.514	11374.01
509.882	11407.91
510.25	11523.16
510.618	11532.42
510.986	11593.89
511.354	11675.7
511.722	11727.9
512.09	11957.27
512.458	11881.57
512.826	11995.46
513.193	11983.48
513.561	12104.84
513.929	12135.12
514.297	12245.62
514.664	12289.69
515.032	12348.67
515.4	12389.35
515.767	12463.25
516.135	12609.46
516.502	12624.37
516.869	12789.79
517.237	12825.72
517.604	12819.85
517.972	13052.16
518.339	13053.29
518.706	13176
519.073	13224.81
519.44	13312.49
519.808	13496.89
520.175	13483.56
520.542	13674.97
520.909	13711.8
521.276	13869.99
521.643	13943.21
522.009	14080.15
522.376	14114.5
522.743	14233.82
523.11	14443.31
523.477	14519.01
523.843	14585.9
524.21	14752.68
524.577	14924.42
524.943	14988.38
525.31	15088.71
525.676	15261.36
526.043	15370.29
526.409	15518.53
526.776	15686.89
527.142	15692.77
527.508	15800.11
527.874	15948.58
528.241	16073.09
528.607	16129.82
528.973	16307.66
529.339	16200.77
529.705	16500.2
530.071	16621.1
530.437	16685.28
530.803	16916.24
531.169	16892.51
531.535	17002.11
531.901	17125.04
532.267	17193.52
532.632	17405.26
532.998	17350.8
533.364	17514.86
533.73	17496.79
534.095	17774.07
534.461	17742.88
534.826	17824.01
535.192	17959.15
535.557	18070.1
535.923	18126.6
536.288	18121.85
536.653	18342.87
537.019	18357.78
537.384	18486.14
537.749	18498.34
538.114	18511.9
538.479	18518.45
538.845	18680.48
539.21	18645.23
539.575	18749.41
539.94	18888.16
540.305	18927.48
540.67	18956.41
541.034	19041.6
541.399	19120.92
541.764	19136.52
542.129	19186.23
542.494	19243.63
542.858	19296.29
543.223	19287.47
543.587	19296.29
543.952	19376.51
544.316	19492.44
544.681	19492.21
545.045	19696.5
545.41	19604.07
545.774	19710.74
546.138	19749.61
546.503	19748.93
546.867	19790.74
547.231	19987.79
547.595	20004.52
547.959	20073.44
548.324	20068.02
548.688	20085.42
549.052	20130.84
549.416	20033.44
549.779	20202.25
550.143	20352.08
550.507	20377.61
550.871	20539.87
551.235	20595.69
551.599	20726.08
551.962	20766.76
552.326	20820.54
552.689	20812.86
553.053	20833.87
553.417	20932.4
553.78	21096.69
554.143	21093.08
554.507	21226.41
554.87	21265.5
555.234	21467.53
555.597	21382.33
555.96	21475.44
556.323	21524.7
556.686	21657.35
557.05	21750.46
557.413	21812.6
557.776	21947.29
558.139	22119.94
558.502	22256.43
558.865	22332.59
559.228	22415.3
559.59	22567.16
559.953	22611.45
560.316	22856.64
560.679	22803.99
561.041	23050.54
561.404	23280.59
561.767	23452.56
562.129	23348.84
562.492	23573.91
562.854	23684.19
563.217	23896.62
563.579	23984.98
563.941	24131.19
564.304	24337.74
564.666	24624.28
565.028	24609.37
565.39	24834.22
565.753	25024.72
566.115	25115.12
566.477	25361.21
566.839	25519.17
567.201	25803.46
567.563	25921.42
567.925	26159.83
568.287	26363.9
568.648	26601.86
569.01	26810.89
569.372	27233.7
569.734	27235.96
570.095	27616.07
570.457	27767.48
570.819	27838.66
571.18	27995.27
571.542	28390.06
571.903	28446.33
572.265	28747.79
572.626	28915.69
572.987	29105.29
573.349	29369.02
573.71	29702.79
574.071	29838.83
574.432	30084.7
574.794	30438.59
575.155	30526.73
575.516	30559.49
575.877	30644.46
576.238	30927.62
576.599	31163.77
576.96	31363.54
577.32	31453.03
577.681	31589.75
578.042	31796.52
578.403	31881.72
578.763	32009.85
579.124	32126.68
579.485	32465.88
579.845	32596.95
580.206	32561.47
580.566	32713.79
580.927	32574.13
581.287	32900.22
581.648	32780
582.008	33004.4
582.368	33082.36
582.728	33103.38
583.089	33134.11
583.449	33255.92
583.809	33337.27
584.169	33509.7
584.529	33316.26
584.889	33618.17
585.249	33273.55
585.609	33428.57
585.969	33633.08
586.329	33481
586.688	33665.85
587.048	33532.07
587.408	33680.31
587.768	33514.67
588.127	33609.13
588.487	33513.99
588.846	33872.4
589.206	33435.8
589.565	33618.4
589.925	33922.34
590.284	33811.16
590.643	33776.13
591.003	33733.42
591.362	34112.17
591.721	33883.25
592.08	33968.44
592.44	34111.94
592.799	34017.93
593.158	33851.16
593.517	33960.53
593.876	33958.5
594.235	34004.15
594.593	34026.75
594.952	34206.4
595.311	33989.69
595.67	34117.82
596.029	34273.75
596.387	34335.44
596.746	34499.73
597.104	34284.59
597.463	34252.73
597.822	34508.77
598.18	34382.22
598.538	34294.31
598.897	34680.29
599.255	34335.89
599.613	34603.45
599.972	34565.94
600.33	34492.5
600.688	34507.19
601.046	34507.41
601.404	34809.1
601.762	34795.77
602.12	34832.38
602.478	34842.77
602.836	34953.05
603.194	34640.06
603.552	34773.17
603.91	34805.48
604.268	35042.31
604.625	34938.81
604.983	35152.14
605.341	34894.97
605.698	35138.58
606.056	35416.09
606.413	35118.24
606.771	35339.03
607.128	35301.97
607.485	35260.61
607.843	35161.63
608.2	35475.07
608.557	35551.23
608.914	35307.39
609.272	35607.5
609.629	35681.17
609.986	35786.7
610.343	35731.33
610.7	35939.01
611.057	35905.34
611.414	35682.75
611.771	36027.37
612.127	36031.21
612.484	36066.69
612.841	36187.14
613.198	36039.35
613.554	36061.04
613.911	36197.99
614.267	36303.3
614.624	36293.13
614.98	36453.58
615.337	36592.55
615.693	36458.55
616.05	36333.13
616.406	36591.65
616.762	36455.38
617.118	36461.03
617.475	36505.1
617.831	36738.31
618.187	36810.4
618.543	36672.78
618.899	36889.27
619.255	36737.86
619.611	36929.5
619.967	36954.35
620.323	37058.31
620.678	36748.71
621.034	36856.05
621.39	36933.56
621.746	36913.9
622.101	37255.59
622.457	36921.81
622.812	37200.67
623.168	37210.84
623.523	37164.29
623.879	37275.7
624.234	36976.73
624.589	37242.93
624.945	37279.54
625.3	37361.12
625.655	37293.55
626.01	37376.26
626.365	37333.78
626.72	37148.47
627.075	37038.87
627.43	37250.62
627.785	37181.92
628.14	37235.7
628.495	37157.96
628.85	37325.87
629.205	37132.65
629.559	37191.64
629.914	37057.18
630.269	36992.09
630.623	36906.44
630.978	36692.44
631.332	36968.82
631.687	36992.54
632.041	36856.5
632.396	36934.24
632.75	36762.72
633.104	36826.45
633.459	36638.2
633.813	36496.74
634.167	36499.22
634.521	36553.23
634.875	36544.42
635.229	36484.99
635.583	36385.55
635.937	36155.73
636.291	36291.09
636.645	36280.02
636.999	36204.32
637.352	36129.06
637.706	36056.75
638.06	36270.76
638.413	36115.28
638.767	35924.55
639.121	35964.1
639.474	35969.97
639.828	35833.7
640.181	35825.34
640.534	35770.66
640.888	35729.07
641.241	35617.67
641.594	35561.85
641.947	35753.25
642.301	35613.6
642.654	35587.61
643.007	35480.49
643.36	35540.83
643.713	35523.2
644.066	35604.11
644.419	35240.05
644.771	34955.31
645.124	34564.36
645.477	34698.37
645.83	34621.53
646.182	34500.18
646.535	34502.89
646.888	34596.45
647.24	34676
647.593	34724.58
647.945	34500.86
648.298	34510.8
648.65	34205.5
649.002	34028.78
649.355	33922.79
649.707	33674.89
650.059	33750.14
650.411	34272.16
650.763	34404.82
651.115	35079.83
651.467	34885.71
651.819	34873.05
652.171	34654.3
652.523	34735.65
652.875	34642.1
653.227	34659.27
653.578	34920.06
653.93	34838.48
654.282	34608.2
654.633	34725.26
654.985	34797.35
655.337	34697.24
655.688	34632.61
656.039	34748.31
656.391	34508.77
656.742	34511.03
657.094	34697.01
657.445	34556.9
657.796	34712.15
658.147	34573.17
658.498	34690.23
658.849	34751.7
659.2	34661.53
659.551	34622.89
659.902	34703.56
660.253	34643.68
660.604	34748.54
660.955	34493.17
661.306	34817.69
661.656	34710.8
662.007	34703.79
662.358	34759.83
662.708	34668.09
663.059	34766.16
663.409	34574.53
663.76	34760.06
664.11	34734.07
664.461	34753.96
664.811	34659.72
665.161	34774.52
665.511	34668.09
665.862	34774.3
666.212	34748.08
666.562	34885.26
666.912	34761.87
667.262	34730.91
667.612	34714.41
667.962	34655.2
668.312	34627.86
668.662	34830.12
669.011	34765.26
669.361	34619.05
669.711	34772.94
670.06	34633.28
670.41	34674.64
670.76	34595.32
671.109	34716.45
671.459	34582.89
671.808	34551.93
672.157	34654.07
672.507	34308.32
672.856	34364.14
673.205	34434.87
673.554	34563
673.904	34332.05
674.253	34578.82
674.602	34326.17
674.951	33909.24
675.3	33820.65
675.649	34331.82
675.998	34214.31
676.346	34381.99
676.695	34363.69
677.044	34158.95
677.393	34126.86
677.741	34221.09
678.09	34148.78
678.438	34002.79
678.787	34158.27
679.135	34096.35
679.484	33950.82
679.832	33894.32
680.181	33874.66
680.529	33949.69
680.877	33775
681.225	33607.1
681.573	33966.64
681.922	33822.23
682.27	33630.37
682.618	33594.89
682.966	33459.3
683.314	33570.49
683.661	33451.85
684.009	33460.89
684.357	33288.01
684.705	33236.94
685.053	33329.14
685.4	33049.82
685.748	32939.09
686.095	33039.43
686.443	32798.76
686.79	32637.4
687.138	32628.82
687.485	32725.54
687.832	32478.09
688.18	32487.58
688.527	32339.11
688.874	32293.46
689.221	32303.18
689.568	32149.96
689.915	32026.12
690.262	32020.25
690.609	31941.83
690.956	31831.32
691.303	31674.04
691.65	31654.15
691.997	31594.72
692.344	31463.88
692.69	31211.68
693.037	31392.24
693.383	30990.44
693.73	31152.7
694.077	30959.48
694.423	30921.07
694.769	30683.33
695.116	30758.58
695.462	30330.35
695.808	30457.8
696.155	30454.86
696.501	30153.18
696.847	30207.64
697.193	29963.35
697.539	30032.05
697.885	29815.78
698.231	29648.33
698.577	29644.04
698.923	29508
699.269	29294.44
699.614	29119.08
699.96	29035.69
700.306	29101.68
700.651	29039.76
700.997	28784.17
701.342	28779.65
701.688	28705.08
702.033	28618.3
702.379	28519.32
702.724	28291.98
703.069	28289.95
703.415	28099.67
703.76	28097.86
704.105	28037.75
704.45	27863.97
704.795	27740.58
705.14	27689.74
705.485	27626.91
705.83	27405.45
706.175	27647.93
706.52	27362.97
706.865	27360.26
707.209	27269.64
707.554	27118.45
707.899	27097.89
708.243	26999.36
708.588	26990.32
708.932	26935.18
709.277	26889.53
709.621	26833.72
709.966	26600.5
710.31	26636.21
710.654	26517.11
710.998	26652.25
711.342	26438.47
711.687	26360.96
712.031	26270.34
712.375	26214.3
712.719	26139.5
713.063	26180.85
713.407	26235.54
713.75	26067.41
714.094	26018.37
714.438	25916.68
714.782	25885.94
715.125	25756.23
715.469	25875.32
715.812	25696.12
716.156	25766.4
716.499	25740.86
716.843	25785.61
717.186	25586.97
717.53	25776.79
717.873	25764.59
718.216	25667.87
718.559	25561.66
718.902	25416.13
719.246	25517.37
719.589	25476.91
719.932	25254.55
720.275	25270.82
720.617	25241.44
720.96	25294.32
721.303	25440.98
721.646	25397.59
721.989	25254.32
722.331	25243.47
722.674	25148.79
723.016	25073.08
723.359	25039.86
723.701	25109.69
724.044	25100.65
724.386	25093.65
724.729	25203.48
725.071	25201.44
725.413	25068.56
725.755	25119.41
726.097	24935.01
726.439	24923.71
726.782	24956.25
727.124	24965.52
727.465	25065.4
727.807	24897.27
728.149	25028.11
728.491	24906.53
728.833	24981.79
729.175	25029.24
729.516	24956.93
729.858	24873.09
730.199	24961.45
730.541	24963.48
730.882	24873.31
731.224	24983.59
731.565	24918.74
731.906	25003.71
732.248	25021.56
732.589	24881.22
732.93	24918.51
733.271	24972.07
733.612	24906.76
733.953	25022.01
734.294	24950.83
734.635	24819.98
734.976	25126.87
735.317	24890.94
735.658	24946.99
735.999	24995.35
736.339	25049.81
736.68	25131.39
737.021	25112.4
737.361	25020.66
737.702	25234.66
738.042	25212.29
738.383	25344.26
738.723	25228.79
739.063	25218.84
739.404	25441.44
739.744	25445.28
740.084	25348.56
740.424	25436.92
740.764	25487.08
741.104	25607.76
741.444	25513.52
741.784	25593.52
742.124	25772.05
742.464	25867.41
742.804	25812.05
743.143	25766.62
743.483	26133.62
743.823	25862.22
744.162	26027.86
744.502	26218.14
744.841	26173.17
745.181	26342.2
745.52	26327.06
745.86	26532.25
746.199	26600.05
746.538	26656.77
746.877	26877.1
747.216	26900.61
747.556	27070.09
747.895	27158.68
748.234	27150.32
748.573	27288.62
748.911	27449.97
749.25	27450.42
749.589	27574.26
749.928	27812.67
750.267	27897.87
750.605	28046.79
750.944	28209.5
751.283	28378.99
751.621	28534.01
751.96	28330.17
752.298	28708.02
752.636	28872.76
752.975	28929.48
753.313	29059.87
753.651	29494.66
753.989	29234.78
754.327	29546.41
754.666	29513.87
755.004	29909.11
