Data from 199_FLMS001491_001.txt Node
Date: Thu Apr 19 16:32:50 BST 2018
User: hsy
Spectrometer: FLMS00149
Trigger mode: 0
Integration Time (sec): 1.000000E-2
Scans to average: 10
Electric dark correction enabled: true
Nonlinearity correction enabled: false
Boxcar width: 0
XAxis mode: Wavelengths
Number of Pixels in Spectrum: 2048
>>>>>Begin Spectral Data<<<<<
341.393	-15.99
341.776	-15.99
342.16	-15.99
342.543	-63.22
342.927	-84.46
343.31	-75.65
343.693	-58.25
344.077	-65.25
344.46	-54.18
344.843	-66.38
345.226	-58.47
345.61	-15.31
345.993	-35.65
346.376	-16.44
346.759	25.37
347.142	22.88
347.525	46.61
347.908	59.72
348.291	70.79
348.674	86.16
349.057	134.06
349.44	123.67
349.823	150.34
350.206	164.57
350.588	249.54
350.971	253.61
351.354	280.73
351.737	277.79
352.119	296.77
352.502	311.01
352.884	324.57
353.267	323.44
353.65	340.16
354.032	348.75
354.414	356.88
354.797	368.63
355.179	353.72
355.562	388.29
355.944	388.75
356.326	396.2
356.709	380.39
357.091	394.17
357.473	378.8
357.855	407.96
358.238	395.3
358.62	393.27
359.002	408.63
359.384	409.09
359.766	398.01
360.148	377.45
360.53	386.94
360.912	407.5
361.294	405.47
361.676	378.13
362.057	393.27
362.439	395.53
362.821	396.66
363.203	366.37
363.584	366.37
363.966	385.58
364.348	389.65
364.729	389.88
365.111	391.46
365.493	383.55
365.874	414.51
366.256	384.91
366.637	390.1
367.019	392.59
367.4	381.06
367.781	373.38
368.163	390.1
368.544	398.46
368.925	399.37
369.306	401.63
369.688	374.51
370.069	368.41
370.45	376.09
370.831	401.63
371.212	396.2
371.593	386.49
371.974	380.61
372.355	391.91
372.736	400.95
373.117	384
373.498	403.89
373.879	387.84
374.26	369.76
374.641	394.17
375.021	429.42
375.402	407.73
375.783	407.28
376.163	433.27
376.544	403.66
376.925	426.71
377.305	431.23
377.686	423.55
378.066	415.64
378.447	428.52
378.827	425.36
379.208	429.2
379.588	424.9
379.968	441.85
380.349	438.46
380.729	459.71
381.109	430.55
381.489	455.19
381.87	444.79
382.25	448.63
382.63	437.56
383.01	453.38
383.39	457.67
383.77	459.03
384.15	470.33
384.53	469.2
384.91	473.49
385.29	465.35
385.67	465.13
386.049	469.87
386.429	488.63
386.809	480.72
387.189	491.12
387.568	487.5
387.948	508.29
388.328	498.57
388.707	501.29
389.087	493.83
389.466	518.23
389.846	513.26
390.225	531.79
390.605	497.44
390.984	525.01
391.363	526.82
391.743	523.21
392.122	522.98
392.501	536.99
392.881	554.17
393.26	553.49
393.639	531.79
394.018	544.45
394.397	545.35
394.776	546.48
395.155	534.73
395.534	558.01
395.913	550.1
396.292	544
396.671	572.7
397.05	560.95
397.429	580.61
397.808	561.4
398.186	586.26
398.565	584.22
398.944	582.41
399.323	574.73
399.701	594.62
400.08	605.92
400.458	593.94
400.837	612.02
401.215	596.65
401.594	614.73
401.972	617.44
402.351	620.15
402.729	626.25
403.107	626.03
403.486	631
403.864	631.23
404.242	665.58
404.62	631.45
404.999	649.53
405.377	661.06
405.755	671
406.133	678.68
406.511	642.53
406.889	676.87
407.267	684.33
407.645	689.76
408.023	718.46
408.401	728.4
408.779	720.94
409.156	696.08
409.534	740.83
409.912	746.03
410.29	760.04
410.667	761.39
411.045	776.08
411.422	779.02
411.8	774.5
412.178	785.35
412.555	795.06
412.933	780.37
413.31	837.55
413.687	807.04
414.065	820.37
414.442	810.43
414.819	846.36
415.197	872.12
415.574	854.72
415.951	865.12
416.328	863.08
416.705	876.42
417.082	892.46
417.46	862.41
417.837	882.29
418.214	889.07
418.591	893.14
418.967	900.37
419.344	912.57
419.721	902.86
420.098	920.94
420.475	947.38
420.852	953.7
421.228	942.18
421.605	938.79
421.982	986.7
422.358	968.62
422.735	992.8
423.111	998.67
423.488	1011.56
423.864	1006.36
424.241	1016.07
424.617	1036.64
424.994	1019.92
425.37	1039.58
425.746	1064.44
426.123	1060.59
426.499	1058.56
426.875	1090.88
427.251	1084.55
427.627	1124.77
428.003	1122.74
428.379	1133.59
428.756	1147.82
429.132	1161.61
429.507	1169.07
429.883	1168.16
430.259	1216.07
430.635	1225.79
431.011	1246.13
431.387	1220.82
431.763	1250.42
432.138	1277.99
432.514	1287.25
432.89	1285.9
433.265	1335.84
433.641	1354.82
434.016	1337.42
434.392	1329.06
434.767	1384.65
435.143	1382.62
435.518	1384.65
435.894	1379
436.269	1449.96
436.644	1449.51
437.02	1441.6
437.395	1454.71
437.77	1491.99
438.145	1480.47
438.52	1522.73
438.895	1517.3
439.271	1525.89
439.646	1552.11
440.021	1559.79
440.395	1546.68
440.77	1555.95
441.145	1557.98
441.52	1614.25
441.895	1617.64
442.27	1608.83
442.645	1611.09
443.019	1641.82
443.394	1603.4
443.769	1663.52
444.143	1668.71
444.518	1680.24
444.892	1682.27
445.267	1684.98
445.641	1716.17
446.016	1715.49
446.39	1700.12
446.764	1713.46
447.139	1749.39
447.513	1745.1
447.887	1745.32
448.262	1766.56
448.636	1755.26
449.01	1796.62
449.384	1819.9
449.758	1836.84
450.132	1837.3
450.506	1844.08
450.88	1882.27
451.254	1843.62
451.628	1926.56
452.002	1925.66
452.376	1903.28
452.75	1950.51
453.123	1948.03
453.497	1985.77
453.871	1971.53
454.244	2040.23
454.618	2056.95
454.992	2057.18
455.365	2096.5
455.739	2131.07
456.112	2155.03
456.486	2192.77
456.859	2197.96
457.232	2213.33
457.606	2275.93
457.979	2275.25
458.352	2276.83
458.725	2291.97
459.099	2362.48
459.472	2363.16
459.845	2410.39
460.218	2416.49
460.591	2439.09
460.964	2450.39
461.337	2507.56
461.71	2574.45
462.083	2586.2
462.456	2575.58
462.829	2578.52
463.201	2609.25
463.574	2666.65
463.947	2699.87
464.32	2710.49
464.692	2764.96
465.065	2762.24
465.438	2834.11
465.81	2845.41
466.183	2841.34
466.555	2918.85
466.928	2956.81
467.3	2945.74
467.672	2979.19
468.045	3056.47
468.417	3052.18
468.789	3053.31
469.161	3126.75
469.534	3128.11
469.906	3241.1
470.278	3210.37
470.65	3252.4
471.022	3277.48
471.394	3312.29
471.766	3376.24
472.138	3464.37
472.51	3495.78
472.882	3547.99
473.253	3545.5
473.625	3614.42
473.997	3717.7
474.369	3708.21
474.74	3730.58
475.112	3812.84
475.484	3850.58
475.855	3925.38
476.227	3962.89
476.598	4095.32
476.97	4134.86
477.341	4156.33
477.713	4257.35
478.084	4308.64
478.455	4363.11
478.827	4435.42
479.198	4545.93
479.569	4578.02
479.94	4653.27
480.311	4712.25
480.682	4792.47
481.053	4958.34
481.424	4996.54
481.795	5009.64
482.166	5163.31
482.537	5157.66
482.908	5318.11
483.279	5398.33
483.65	5438.78
484.021	5609.63
484.391	5645.33
484.762	5697.08
485.133	5754.03
485.503	5877.19
485.874	5974.59
486.244	6044.64
486.615	6193.34
486.985	6265.88
487.356	6350.85
487.726	6468.14
488.097	6538.87
488.467	6578.64
488.837	6734.79
489.207	6746.32
489.578	6947.9
489.948	7003.26
490.318	7134.33
490.688	7188.57
491.058	7288.9
491.428	7328.9
491.798	7407.55
492.168	7599.18
492.538	7607.54
492.908	7728.67
493.278	7836.23
493.648	7829.68
494.017	8025.38
494.387	8162.78
494.757	8139.5
495.126	8272.38
495.496	8271.48
495.866	8372.94
496.235	8512.6
496.605	8537.91
496.974	8577.68
497.344	8706.95
497.713	8774.29
498.082	8783.33
498.452	8898.35
498.821	9000.5
499.19	8964.57
499.559	9081.4
499.928	9136.99
500.298	9158.69
500.667	9268.97
501.036	9289.76
501.405	9452.01
501.774	9419.02
502.143	9532.01
502.512	9573.14
502.88	9640.93
503.249	9621.05
503.618	9740.37
503.987	9807.26
504.356	9869.63
504.724	9877.31
505.093	9928.61
505.462	9963.41
505.83	10128.38
506.199	10083.18
506.567	10239.79
506.936	10252.89
507.304	10383.29
507.672	10398.65
508.041	10467.8
508.409	10510.97
508.777	10635.03
509.145	10701.02
509.514	10763.84
509.882	10797.74
510.25	10860.11
510.618	10984.4
510.986	10922.48
511.354	11099.2
511.722	11185.07
512.09	11209.03
512.458	11268.69
512.826	11350.94
513.193	11441.56
513.561	11429.81
513.929	11592.07
514.297	11700.77
514.664	11764.27
515.032	11785.51
515.4	11990.93
515.767	12009.23
516.135	12031.38
516.502	12044.49
516.869	12312.28
517.237	12273.86
517.604	12229.34
517.972	12484.93
518.339	12599.73
518.706	12648.99
519.073	12622.78
519.44	12821.64
519.808	12932.82
520.175	13034.06
520.542	13163.33
520.909	13246.04
521.276	13279.26
521.643	13458.69
522.009	13484
522.376	13611.9
522.743	13750.88
523.11	13953.81
523.477	14074.49
523.843	14153.13
524.21	14328.49
524.577	14408.72
524.943	14536.17
525.31	14600.8
525.676	14854.58
526.043	14844.19
526.409	15048.02
526.776	15177.96
527.142	15269.03
527.508	15360.33
527.874	15568.23
528.241	15602.58
528.607	15663.6
528.973	15991.73
529.339	15993.31
529.705	16217.03
530.071	16336.8
530.437	16430.58
530.803	16529.34
531.169	16546.06
531.535	16699.28
531.901	16789.9
532.267	16816.11
532.632	17101.53
532.998	17224.46
533.364	17308.08
533.73	17344.69
534.095	17548.07
534.461	17601.4
534.826	17623.55
535.192	17777.44
535.557	17969.53
535.923	17938.12
536.288	18020.6
536.653	18272.34
537.019	18173.82
537.384	18317.77
537.749	18320.03
538.114	18515.73
538.479	18503.52
538.845	18720.24
539.21	18639.34
539.575	18647.25
539.94	18795.95
540.305	18931.54
540.67	18952.55
541.034	18997.98
541.399	19171.53
541.764	19278.87
542.129	19283.39
542.494	19254.47
542.858	19461.92
543.223	19416.5
543.587	19614.46
543.952	19605.64
544.316	19607.9
544.681	19696.04
545.045	19900.1
545.41	20008.12
545.774	19948.01
546.138	20045.18
546.503	20122.69
546.867	20188.9
547.231	20318.17
547.595	20359.97
547.959	20483.59
548.324	20512.96
548.688	20543.25
549.052	20639.29
549.416	20675.45
549.779	20724.71
550.143	20836.12
550.507	20968.54
550.871	20944.36
551.235	21119.05
551.599	21394.75
551.962	21366.5
552.326	21444.01
552.689	21637.45
553.053	21547.51
553.417	21634.74
553.78	21892.81
554.143	21910.21
554.507	22108.85
554.87	22145.24
555.234	22288.96
555.597	22153.82
555.96	22388.85
556.323	22543.42
556.686	22536.41
557.05	22806.24
557.413	22903.41
557.776	22938.21
558.139	23035.83
558.502	23180.92
558.865	23177.98
559.228	23357.86
559.59	23484.41
559.953	23538.19
560.316	23932.76
560.679	23862.71
561.041	24100.21
561.404	24246.42
561.767	24440.32
562.129	24582.91
562.492	24792.85
562.854	24816.58
563.217	24951.49
563.579	25142.45
563.941	25291.82
564.304	25450.01
564.666	25712.83
565.028	25773.39
565.39	26044.57
565.753	26148.75
566.115	26254.51
566.477	26518
566.839	26638.45
567.201	26960.7
567.563	26994.6
567.925	27139.91
568.287	27349.17
568.648	27394.82
569.01	27605.66
569.372	28158.19
569.734	28166.77
570.095	28396.37
570.457	28548.68
570.819	28703.48
571.18	28700.77
571.542	29037.94
571.903	29202.45
572.265	29333.3
572.626	29674.53
572.987	29824.81
573.349	30004.24
573.71	30103.22
574.071	30363.1
574.432	30520.84
574.794	30772.13
575.155	30856.19
575.516	30881.96
575.877	31174.38
576.238	31218.22
576.599	31559.9
576.96	31474.03
577.32	31752.67
577.681	31918.09
578.042	32194.01
578.403	32239.43
578.763	32230.62
579.124	32442.59
579.485	32645.53
579.845	32889.36
580.206	32800.1
580.566	32930.72
580.927	33095.01
581.287	33323.93
581.648	33233.53
582.008	33477.37
582.368	33546.97
582.728	33708.32
583.089	33796.46
583.449	33905.83
583.809	34051.36
584.169	34278.25
584.529	34279.61
584.889	34681.86
585.249	34594.4
585.609	34610.67
585.969	35021.73
586.329	35099.02
586.688	35447.26
587.048	35600.25
587.408	35716.63
587.768	35932.22
588.127	36159.78
588.487	36550.28
588.846	36976.03
589.206	37003.15
589.565	37213.32
589.925	37802.68
590.284	38072.73
590.643	38236.79
591.003	38704.8
591.362	39272.47
591.721	39610.09
592.08	39920.59
592.44	40561.93
592.799	40669.95
593.158	41193.55
593.517	41360.32
593.876	42073.3
594.235	42391.71
594.593	42720.06
594.952	43439.59
595.311	43706.48
595.67	44226.01
596.029	44767.47
596.387	45458.75
596.746	45952.29
597.104	46111.16
597.463	46570.81
597.822	47191.36
598.18	47461.86
598.538	47959.47
598.897	48527.82
599.255	48722.84
599.613	49573.44
599.972	49607.57
600.33	50158.06
600.688	50405.28
601.046	50866.97
601.404	51512.83
601.762	51773.38
602.12	52149.87
602.478	52620.14
602.836	52924.09
603.194	52984.65
603.552	53338.99
603.91	53625.99
604.268	54022.82
604.625	54304.62
604.983	54693.53
605.341	54759.29
605.698	55269.56
606.056	55646.95
606.413	55709.78
606.771	56166.94
607.128	56392.92
607.485	56470.21
607.843	56799.69
608.2	57069.74
608.557	57370.3
608.914	57553.35
609.272	57840.34
609.629	58123.05
609.986	58357.84
610.343	58535.69
610.7	58866.53
611.057	59020.2
611.414	59138.84
611.771	59433.3
612.127	59601.88
612.484	59789.67
612.841	59998.25
613.198	60092.49
613.554	60228.76
613.911	60536.77
614.267	60672.13
614.624	60790.32
614.98	61000.94
615.337	61200.71
615.693	61336.07
616.05	61422.62
616.406	61676.17
616.762	61721.37
617.118	61835.04
617.475	61929.73
617.831	62144.64
618.187	62254.69
618.543	62328.14
618.899	62609.94
619.255	62626.66
619.611	62698.29
619.967	62913.43
620.323	63016.03
620.678	62985.74
621.034	63071.39
621.39	63145.51
621.746	63225.96
622.101	63515.9
622.457	63397.26
622.812	63517.71
623.168	63518.61
623.523	63518.61
623.879	63518.61
624.234	63518.61
624.589	63518.61
624.945	63518.61
625.3	63518.61
625.655	63518.61
626.01	63518.61
626.365	63518.61
626.72	63518.61
627.075	63518.61
627.43	63518.61
627.785	63518.61
628.14	63518.61
628.495	63518.61
628.85	63518.61
629.205	63518.61
629.559	63518.61
629.914	63518.61
630.269	63518.61
630.623	63518.61
630.978	63518.61
631.332	63518.61
631.687	63518.61
632.041	63518.61
632.396	63518.61
632.75	63518.61
633.104	63518.61
633.459	63518.61
633.813	63518.61
634.167	63518.61
634.521	63518.61
634.875	63518.61
635.229	63518.61
635.583	63518.61
635.937	63518.61
636.291	63518.61
636.645	63518.61
636.999	63518.61
637.352	63518.61
637.706	63518.61
638.06	63518.61
638.413	63518.61
638.767	63518.61
639.121	63518.61
639.474	63518.61
639.828	63518.61
640.181	63518.61
640.534	63518.61
640.888	63518.61
641.241	63518.61
641.594	63518.61
641.947	63518.61
642.301	63518.61
642.654	63518.61
643.007	63518.61
643.36	63518.61
643.713	63518.61
644.066	63518.61
644.419	63518.61
644.771	63518.61
645.124	63518.61
645.477	63518.61
645.83	63510.93
646.182	63503.25
646.535	63517.03
646.888	63518.61
647.24	63484.94
647.593	63518.61
647.945	63508.9
648.298	63493.75
648.65	63412.63
649.002	63285.85
649.355	63284.49
649.707	63210.37
650.059	63220.77
650.411	63479.52
650.763	63518.61
651.115	63518.61
651.467	63518.61
651.819	63518.61
652.171	63518.61
652.523	63518.61
652.875	63518.61
653.227	63518.61
653.578	63518.61
653.93	63518.61
654.282	63518.61
654.633	63518.61
654.985	63518.61
655.337	63518.61
655.688	63518.61
656.039	63518.61
656.391	63484.94
656.742	63518.61
657.094	63518.39
657.445	63518.61
657.796	63512.51
658.147	63500.08
658.498	63516.35
658.849	63518.61
659.2	63501.66
659.551	63512.51
659.902	63497.82
660.253	63496.24
660.604	63518.61
660.955	63510.7
661.306	63518.61
661.656	63465.51
662.007	63502.34
662.358	63495.56
662.708	63482.68
663.059	63466.64
663.409	63427.77
663.76	63484.04
664.11	63493.08
664.461	63505.28
664.811	63501.21
665.161	63486.07
665.511	63439.07
665.862	63495.56
666.212	63498.95
666.562	63514.54
666.912	63449.01
667.262	63430.48
667.612	63448.33
667.962	63471.83
668.312	63395.9
668.662	63498.73
669.011	63486.97
669.361	63442.91
669.711	63427.09
670.06	63385.96
670.41	63373.98
670.76	63477.03
671.109	63478.61
671.459	63453.3
671.808	63404.94
672.157	63457.37
672.507	63294.89
672.856	63349.13
673.205	63378.73
673.554	63427.99
673.904	63361.33
674.253	63496.47
674.602	63368.79
674.951	63088.79
675.3	62944.62
675.649	63344.15
675.998	63344.61
676.346	63381.89
676.695	63408.78
677.044	63267.32
677.393	63303.7
677.741	63349.58
678.09	63292.86
678.438	63298.51
678.787	63266.42
679.135	63269.81
679.484	63118.62
679.832	63234.1
680.181	63131.05
680.529	63185.29
680.877	63014.44
681.225	63067.78
681.573	63172.86
681.922	62980.1
682.27	62922.92
682.618	62980.77
682.966	62889.48
683.314	62919.98
683.661	62920.21
684.009	62777.61
684.357	62788.24
684.705	62737.62
685.053	62801.8
685.4	62611.97
685.748	62596.83
686.095	62546.89
686.443	62385.53
686.79	62393.22
687.138	62506.89
687.485	62499.66
687.832	62325.88
688.18	62378.98
688.527	62244.97
688.874	62237.74
689.221	62193.22
689.568	62100.8
689.915	62016.05
690.262	62051.08
690.609	62020.12
690.956	61931.99
691.303	61896.51
691.65	61817.19
691.997	61710.52
692.344	61591.88
692.69	61597.53
693.037	61609.06
693.383	61420.81
693.73	61493.35
694.077	61328.39
694.423	61311.89
694.769	61237.32
695.116	61201.16
695.462	61099.69
695.808	61046.36
696.155	61071.45
696.501	60939.7
696.847	60920.71
697.193	60757.55
697.539	60826.48
697.885	60631.68
698.231	60582.87
698.577	60560.5
698.923	60532.93
699.269	60282.99
699.614	60303.78
699.96	60165.03
700.306	60198.93
700.651	60111.02
700.997	60025.14
701.342	59986.28
701.688	59905.15
702.033	59898.37
702.379	59902.66
702.724	59728.66
703.069	59809.11
703.415	59454.31
703.76	59543.12
704.105	59501.09
704.45	59459.51
704.795	59414.54
705.14	59278.05
705.485	59258.61
705.83	59062.01
706.175	59160.99
706.52	59037.15
706.865	58986.08
707.209	58989.92
707.554	58844.38
707.899	58813.2
708.243	58717.61
708.588	58691.39
708.932	58616.37
709.277	58637.16
709.621	58544.05
709.966	58382.48
710.31	58498.41
710.654	58253.44
710.998	58343.61
711.342	58285.53
711.687	58239.88
712.031	58103.84
712.375	58032.43
712.719	58011.19
713.063	57895.94
713.407	58076.5
713.75	57940.91
714.094	57835.15
714.438	57737.97
714.782	57741.36
715.125	57602.61
715.469	57753.11
715.812	57506.34
716.156	57402.84
716.499	57460.69
716.843	57431.99
717.186	57421.6
717.53	57461.6
717.873	57478.09
718.216	57350.19
718.559	57188.84
718.902	56994.94
719.246	57081.72
719.589	57086.47
719.932	56930.31
720.275	57023.42
720.617	56992.68
720.96	56896.19
721.303	56854.15
721.646	56926.02
721.989	56686.25
722.331	56721.28
722.674	56642.18
723.016	56675.18
723.359	56595.4
723.701	56593.6
724.044	56526.71
724.386	56371
724.729	56445.13
725.071	56397.44
725.413	56384.34
725.755	56339.59
726.097	56219.6
726.439	56158.35
726.782	56128.07
727.124	56281.51
727.465	56251.46
727.807	56098.69
728.149	56162.65
728.491	55980.96
728.833	56043.78
729.175	55965.59
729.516	55880.62
729.858	55841.07
730.199	55939.6
730.541	55893.73
730.882	55698.48
731.224	55747.74
731.565	55631.59
731.906	55646.95
732.248	55671.36
732.589	55366.51
732.93	55464.36
733.271	55425.94
733.612	55414.19
733.953	55544.58
734.294	55355.21
734.635	55249.9
734.976	55404.48
735.317	55255.33
735.658	55282.9
735.999	55159.74
736.339	55197.25
736.68	55255.78
737.021	55093.52
737.361	55006.97
737.702	55175.55
738.042	55064.15
738.383	55010.59
738.723	55052.62
739.063	54874.32
739.404	54986.41
739.744	54985.5
740.084	54806.75
740.424	54875.22
740.764	54771.72
741.104	54946.41
741.444	54732.63
741.784	54739.86
742.124	54772.85
742.464	54595.91
742.804	54562.92
743.143	54595.46
743.483	54534.67
743.823	54451.05
744.162	54411.51
744.502	54489.92
744.841	54366.31
745.181	54472.75
745.52	54295.8
745.86	54336.03
746.199	54341.45
746.538	54323.37
746.877	54339.87
747.216	54257.61
747.556	54255.81
747.895	54204.05
748.234	54148.46
748.573	54132.19
748.911	54009.03
749.25	54004.51
749.589	53914.8
749.928	53975.13
750.267	54028.92
750.605	53844.06
750.944	53840.45
751.283	53758.64
751.621	53883.61
751.96	53597.97
752.298	53651.53
752.636	53663.28
752.975	53497.41
753.313	53382.38
753.651	53603.17
753.989	53351.2
754.327	53374.92
754.666	53158.88
