Data from 199_FLMS001491_005.txt Node
Date: Thu Apr 19 16:33:00 BST 2018
User: hsy
Spectrometer: FLMS00149
Trigger mode: 0
Integration Time (sec): 1.000000E-2
Scans to average: 10
Electric dark correction enabled: true
Nonlinearity correction enabled: false
Boxcar width: 0
XAxis mode: Wavelengths
Number of Pixels in Spectrum: 2048
>>>>>Begin Spectral Data<<<<<
341.393	-12.95
341.776	-12.95
342.16	-12.95
342.543	-77.13
342.927	-60.63
343.31	-56.57
343.693	-70.13
344.077	-47.53
344.46	-56.79
344.843	-46.17
345.226	-44.36
345.61	-20.64
345.993	-29.22
346.376	-5.27
346.759	19.14
347.142	29.76
347.525	49.65
347.908	44
348.291	70.89
348.674	89.87
349.057	73.37
349.44	117.44
349.823	147.5
350.206	172.58
350.588	227.72
350.971	260.94
351.354	282.18
351.737	294.84
352.119	301.39
352.502	310.66
352.884	333.48
353.267	346.36
353.65	353.59
354.032	359.02
354.414	344.78
354.797	365.57
355.179	363.99
355.562	377.77
355.944	394.04
356.326	374.38
356.709	395.63
357.091	408.73
357.473	407.83
357.855	418.22
358.238	402.63
358.62	405.34
359.002	407.38
359.384	393.37
359.766	406.25
360.148	397.66
360.53	385
360.912	397.43
361.294	399.01
361.676	403.99
362.057	401.05
362.439	391.78
362.821	410.31
363.203	380.48
363.584	387.49
363.966	403.76
364.348	390.2
364.729	403.31
365.111	387.26
365.493	406.7
365.874	387.04
366.256	377.55
366.637	394.04
367.019	391.33
367.4	387.94
367.781	396.76
368.163	382.97
368.544	375.96
368.925	393.59
369.306	383.2
369.688	392.46
370.069	392.01
370.45	382.97
370.831	408.73
371.212	396.53
371.593	360.6
371.974	403.53
372.355	407.15
372.736	402.18
373.117	397.89
373.498	416.19
373.879	410.31
374.26	404.21
374.641	417.09
375.021	407.38
375.402	409.86
375.783	434.95
376.163	442.63
376.544	421.61
376.925	422.07
377.305	427.71
377.686	437.88
378.066	411.22
378.447	438.34
378.827	438.34
379.208	451.22
379.588	437.21
379.968	443.31
380.349	429.3
380.729	435.17
381.109	453.93
381.489	456.87
381.87	433.14
382.25	477.43
382.63	453.93
383.01	453.48
383.39	472.23
383.77	455.51
384.15	473.14
384.53	462.97
384.91	485.11
385.29	479.01
385.67	485.57
386.049	506.36
386.429	485.57
386.809	479.01
387.189	501.39
387.568	492.57
387.948	493.48
388.328	514.94
388.707	488.96
389.087	521.5
389.466	509.75
389.846	500.03
390.225	513.81
390.605	526.24
390.984	526.47
391.363	514.04
391.743	523.76
392.122	522.85
392.501	544.1
392.881	518.79
393.26	543.19
393.639	554.27
394.018	541.61
394.397	537.09
394.776	543.64
395.155	549.97
395.534	574.15
395.913	554.04
396.292	566.47
396.671	598.11
397.05	589.07
397.429	566.92
397.808	567.6
398.186	568.95
398.565	583.19
398.944	607.37
399.323	579.35
399.701	586.13
400.08	604.66
400.458	594.94
400.837	599.69
401.215	622.06
401.594	613.02
401.972	626.81
402.351	623.19
402.729	626.35
403.107	662.51
403.486	626.81
403.864	643.75
404.242	656.41
404.62	667.93
404.999	665
405.377	681.49
405.755	668.16
406.133	706.8
406.511	674.71
406.889	696.63
407.267	688.5
407.645	701.61
408.023	719.91
408.401	703.41
408.779	739.8
409.156	749.97
409.534	752.45
409.912	766.24
410.29	751.77
410.667	772.34
411.045	775.5
411.422	754.49
411.8	796.52
412.178	796.74
412.555	808.5
412.933	806.01
413.31	805.56
413.687	853.24
414.065	848.27
414.442	838.33
414.819	867.48
415.197	863.41
415.574	853.69
415.951	848.27
416.328	902.05
416.705	908.61
417.082	883.52
417.46	897.08
417.837	915.61
418.214	934.14
418.591	937.53
418.967	955.61
419.344	949.96
419.721	974.59
420.098	950.86
420.475	962.84
420.852	952.67
421.228	978.66
421.605	973.46
421.982	994.48
422.358	1020.92
422.735	986.12
423.111	1023.63
423.488	1016.4
423.864	1023.86
424.241	1039
424.617	1012.78
424.994	1061.6
425.37	1039.22
425.746	1061.37
426.123	1062.95
426.499	1085.78
426.875	1115.83
427.251	1130.3
427.627	1142.27
428.003	1135.49
428.379	1168.71
428.756	1168.26
429.132	1171.42
429.507	1194.02
429.883	1204.87
430.259	1227.02
430.635	1264.08
431.011	1246.68
431.387	1262.72
431.763	1294.58
432.138	1304.75
432.514	1300.01
432.89	1315.83
433.265	1336.84
433.641	1372.55
434.016	1348.59
434.392	1388.14
434.767	1393.11
435.143	1414.13
435.518	1406.22
435.894	1434.69
436.269	1466.56
436.644	1480.79
437.02	1500.91
437.395	1498.65
437.77	1491.19
438.145	1540.45
438.52	1533.67
438.895	1551.3
439.271	1557.4
439.646	1580.23
440.021	1576.39
440.395	1565.99
440.77	1583.16
441.145	1599.66
441.52	1647.12
441.895	1612.09
442.27	1663.16
442.645	1643.73
443.019	1658.64
443.394	1649.83
443.769	1669.72
444.143	1665.65
444.518	1708.13
444.892	1704.97
445.267	1723.73
445.641	1699.09
446.016	1732.99
446.39	1760.34
446.764	1763.05
447.139	1753.33
447.513	1762.59
447.887	1797.17
448.262	1793.33
448.636	1798.07
449.01	1838.98
449.384	1837.17
449.758	1862.93
450.132	1854.57
450.506	1910.39
450.88	1911.74
451.254	1889.37
451.628	1938.41
452.002	1932.08
452.376	1975.92
452.75	1963.49
453.123	1972.98
453.497	2003.94
453.871	2050.72
454.244	2090.5
454.618	2101.8
454.992	2104.73
455.365	2145.64
455.739	2180.44
456.112	2186.09
456.486	2186.99
456.859	2217.72
457.232	2303.15
457.606	2266.31
457.979	2336.14
458.352	2339.3
458.725	2361.22
459.099	2396.48
459.472	2432.63
459.845	2426.31
460.218	2465.18
460.591	2475.8
460.964	2522.35
461.337	2553.53
461.71	2640.99
462.083	2593.08
462.456	2640.54
462.829	2665.62
463.201	2700.88
463.574	2682.12
463.947	2757.15
464.32	2794.21
464.692	2793.08
465.065	2849.12
465.438	2911.27
465.81	2842.79
466.183	2909.46
466.555	2958.72
466.928	2998.49
467.3	2998.72
467.672	3022.22
468.045	3085.72
468.417	3106.51
468.789	3154.65
469.161	3131.15
469.534	3204.36
469.906	3234.65
470.278	3244.14
470.65	3300.63
471.022	3336.79
471.394	3385.6
471.766	3443.23
472.138	3499.05
472.51	3619.27
472.882	3589.89
473.253	3584.92
473.625	3660.17
473.997	3734.75
474.369	3740.85
474.74	3823.33
475.112	3899.94
475.484	3916.66
475.855	3980.39
476.227	4052.93
476.598	4144.45
476.97	4197.56
477.341	4263.77
477.713	4319.82
478.084	4358.01
478.455	4434.84
478.827	4478.23
479.198	4595.29
479.569	4671.67
479.94	4762.74
480.311	4845.68
480.682	4872.8
481.053	5027.59
481.424	5139.46
481.795	5168.61
482.166	5243.18
482.537	5309.39
482.908	5402.05
483.279	5470.52
483.65	5592.32
484.021	5674.36
484.391	5753.45
484.762	5793.9
485.133	5867.35
485.503	5941.02
485.874	6040.22
486.244	6128.36
486.615	6266.43
486.985	6314.79
487.356	6499.42
487.726	6503.04
488.097	6651.96
488.467	6709.58
488.837	6886.3
489.207	6910.26
489.578	7081.1
489.948	7169.01
490.318	7293.07
490.688	7296.23
491.058	7413.07
491.428	7529
491.798	7596.79
492.168	7690.12
492.538	7797.92
492.908	7899.16
493.278	8009.44
493.648	8010.79
494.017	8146.83
494.387	8271.8
494.757	8355.64
495.126	8359.48
495.496	8422.98
495.866	8527.61
496.235	8623.21
496.605	8730.32
496.974	8733.49
497.344	8825.01
497.713	8861.84
498.082	8940.71
498.452	9046.25
498.821	9107.26
499.19	9159.69
499.559	9185
499.928	9310.19
500.298	9402.85
500.667	9470.64
501.036	9422.28
501.405	9547.25
501.774	9545.67
502.143	9668.15
502.512	9721.26
502.88	9832.21
503.249	9851.87
503.618	9926
503.987	9902.49
504.356	9971.19
504.724	10057.29
505.093	10058.42
505.462	10160.57
505.83	10256.61
506.199	10347.68
506.567	10367.57
506.936	10376.38
507.304	10496.38
507.672	10613.66
508.041	10604.62
508.409	10736.14
508.777	10825.18
509.145	10926.42
509.514	10852.07
509.882	11033.09
510.25	11038.06
510.618	11096.81
510.986	11150.14
511.354	11235.34
511.722	11397.37
512.09	11427.43
512.458	11386.97
512.826	11569.79
513.193	11579.96
513.561	11694.76
513.929	11767.08
514.297	11855.66
514.664	11876.91
515.032	12060.86
515.4	12123.68
515.767	12177.24
516.135	12241.19
516.502	12191.25
516.869	12431.47
517.237	12530.9
517.604	12480.96
517.972	12633.5
518.339	12785.81
518.706	12821.29
519.073	12901.51
519.44	12934.28
519.808	13122.97
520.175	13215.4
520.542	13287.72
520.909	13432.34
521.276	13407.94
521.643	13705.11
522.009	13689.06
522.376	13859.23
522.743	13970.41
523.11	14197.3
523.477	14264.19
523.843	14329.95
524.21	14477.06
524.577	14639.09
524.943	14687.45
525.31	14813.33
525.676	15058.74
526.043	15148.68
526.409	15183.03
526.776	15393.65
527.142	15468.22
527.508	15546.19
527.874	15759.97
528.241	15811.49
528.607	15964.93
528.973	16121.54
529.339	16153.4
529.705	16314.08
530.071	16434.07
530.437	16601.53
530.803	16683.11
531.169	16751.58
531.535	16869.32
531.901	16997.9
532.267	17067.28
532.632	17297.55
532.998	17272.02
533.364	17427.49
533.73	17566.02
534.095	17633.82
534.461	17755.17
534.826	17856.41
535.192	17882.62
535.557	18074.48
535.923	18070.41
536.288	18120.58
536.653	18332.1
537.019	18355.38
537.384	18470.4
537.749	18493
538.114	18561.7
538.479	18684.18
538.845	18743.39
539.21	18803.05
539.575	18893.9
539.94	18917.85
540.305	19045.3
540.67	19085.08
541.034	19229.25
541.399	19246.2
541.764	19296.82
542.129	19416.37
542.494	19452.3
542.858	19560.09
543.223	19571.39
543.587	19692.07
543.952	19654.55
544.316	19866.07
544.681	19755.12
545.045	19988.56
545.41	20026.75
545.774	20016.35
546.138	20230.36
546.503	20270.81
546.867	20295.21
547.231	20479.16
547.595	20464.7
547.959	20525.27
548.324	20624.7
548.688	20703.34
549.052	20687.52
549.416	20693.62
549.779	20856.78
550.143	20823.11
550.507	21055.87
550.871	21091.35
551.235	21117.34
551.599	21258.58
551.962	21404.34
552.326	21510.55
552.689	21454.73
553.053	21465.35
553.417	21612.47
553.78	21847.72
554.143	21928.62
554.507	21924.1
554.87	22101.27
555.234	22254.26
555.597	22249.51
555.96	22343.52
556.323	22550.97
556.686	22584.42
557.05	22849.72
557.413	22866.22
557.776	22820.57
558.139	23085.65
558.502	23125.65
558.865	23153.44
559.228	23289.03
559.59	23477.28
559.953	23668.46
560.316	23820.09
560.679	23882.47
561.041	24068.22
561.404	24234.77
561.767	24335.11
562.129	24343.02
562.492	24661.43
562.854	24649.45
563.217	24701.65
563.579	24896.68
563.941	25161.08
564.304	25332.6
564.666	25575.08
565.028	25606.71
565.39	25818.91
565.753	25949.08
566.115	26044.67
566.477	26366.02
566.839	26533.47
567.201	26741.15
567.563	26797.19
567.925	27013
568.287	27131.65
568.648	27330.74
569.01	27571.18
569.372	27851.4
569.734	27824.28
570.095	28221.79
570.457	28339.3
570.819	28446.64
571.18	28509.46
571.542	28846.63
571.903	28897.93
572.265	29179.5
572.626	29272.61
572.987	29505.82
573.349	29637.34
573.71	29935.87
574.071	30110.55
574.432	30366.14
574.794	30541.27
575.155	30684.09
575.516	30608.62
575.877	30932.68
576.238	30938.55
576.599	31207.7
576.96	31278.43
577.32	31407.47
577.681	31635.48
578.042	31855.36
578.403	31917.73
578.763	31899.88
579.124	32034.34
579.485	32265.3
579.845	32525.63
580.206	32491.73
580.566	32588
580.927	32646.53
581.287	32915
581.648	32941.44
582.008	33095.33
582.368	33296.68
582.728	33262.78
583.089	33427.07
583.449	33518.14
583.809	33719.95
584.169	34026.38
584.529	33942.99
584.889	34396.09
585.249	34322.19
585.609	34384.11
585.969	34725.34
586.329	34835.85
586.688	35136.41
587.048	35268.38
587.408	35227.25
587.768	35463.4
588.127	35790.85
588.487	35973.45
588.846	36539.53
589.206	36454.56
589.565	36890.48
589.925	37385.84
590.284	37442.56
590.643	37838.71
591.003	38213.84
591.362	38801.85
591.721	39093.59
592.08	39261.04
592.44	39935.38
592.799	40192.54
593.158	40734.68
593.517	40814
593.876	41364.27
594.235	41736.69
594.593	42207.63
594.952	42593.61
595.311	42926.03
595.67	43598.78
596.029	44131.42
596.387	44635.82
596.746	45267.21
597.104	45357.38
597.463	45888.21
597.822	46647.29
598.18	46836.44
598.538	47116.2
598.897	47744.44
599.255	47976.52
599.613	48942.37
599.972	48906.44
600.33	49564.5
600.688	49827.77
601.046	50204.71
601.404	50834.07
601.762	51062.09
602.12	51540.95
602.478	51862.52
602.836	52140.71
603.194	52333.02
603.552	52786.11
603.91	52991.08
604.268	53452.76
604.625	53736.82
604.983	53991.28
605.341	54190.82
605.698	54651.6
606.056	55092.27
606.413	55135.43
606.771	55597.11
607.128	55780.61
607.485	55969.53
607.843	56240.48
608.2	56551.66
608.557	56823.97
608.914	57010.41
609.272	57281.36
609.629	57603.61
609.986	57810.84
610.343	57910.72
610.7	58311.62
611.057	58402.01
611.414	58527.66
611.771	58858.95
612.127	59013.07
612.484	59256.68
612.841	59416.45
613.198	59468.87
613.554	59710.22
613.911	59971.91
614.267	60149.53
614.624	60207.39
614.98	60387.27
615.337	60694.38
615.693	60796.97
616.05	60854.6
616.406	61112.45
616.762	61164.42
617.118	61303.63
617.475	61386.56
617.831	61626.11
618.187	61738.42
618.543	61804.41
618.899	62042.82
619.255	62060.9
619.611	62159.88
619.967	62318.52
620.323	62502.92
620.678	62497.72
621.034	62511.28
621.39	62638.73
621.746	62699.52
622.101	62960.31
622.457	62862.23
622.812	63047.09
623.168	63157.59
623.523	63142.68
623.879	63276.23
624.234	63199.85
624.589	63401.88
624.945	63465.83
625.3	63485.27
625.655	63513.97
626.01	63513.51
626.365	63523.46
626.72	63523.46
627.075	63523.46
627.43	63523
627.785	63523.46
628.14	63523.46
628.495	63523.46
628.85	63523.46
629.205	63523.46
629.559	63523.46
629.914	63523.46
630.269	63523.46
630.623	63523.46
630.978	63523.46
631.332	63523.46
631.687	63523.46
632.041	63523.46
632.396	63523.46
632.75	63523.46
633.104	63523.46
633.459	63523.46
633.813	63523.46
634.167	63523.46
634.521	63523.46
634.875	63523.46
635.229	63523.46
635.583	63523.46
635.937	63523.46
636.291	63523.46
636.645	63523.46
636.999	63523.46
637.352	63523.46
637.706	63523.46
638.06	63523.46
638.413	63523.46
638.767	63523.46
639.121	63523.46
639.474	63523.46
639.828	63523.46
640.181	63523.46
640.534	63523.46
640.888	63523.46
641.241	63523.46
641.594	63523.46
641.947	63523.46
642.301	63523.46
642.654	63523.46
643.007	63523.46
643.36	63523.46
643.713	63523.46
644.066	63523.46
644.419	63522.78
644.771	63393.74
645.124	63174.54
645.477	63237.14
645.83	63062.23
646.182	63067.65
646.535	63065.62
646.888	63098.61
647.24	62998.05
647.593	63118.95
647.945	63052.06
648.298	63001.66
648.65	62847.32
649.002	62758.28
649.355	62686.19
649.707	62686.64
650.059	62648.45
650.411	63042.57
650.763	63145.84
651.115	63500.86
651.467	63390.13
651.819	63347.64
652.171	63301.99
652.523	63240.07
652.875	63243.24
653.227	63125.73
653.578	63337.02
653.93	63253.41
654.282	63087.54
654.633	63153.52
654.985	63131.15
655.337	63124.82
655.688	63107.65
656.039	63196.69
656.391	62946.3
656.742	62991.95
657.094	62995.56
657.445	62993.53
657.796	63085.5
658.147	62990.36
658.498	63065.16
658.849	63102
659.2	63052.96
659.551	62992.17
659.902	63094.32
660.253	62964.38
660.604	63045.73
660.955	62915.11
661.306	63054.09
661.656	62983.58
662.007	63035.11
662.358	63016.35
662.708	63003.02
663.059	62943.36
663.409	62876.92
663.76	62983.36
664.11	62982.91
664.461	63060.64
664.811	63038.5
665.161	62981.78
665.511	62899.29
665.862	62956.47
666.212	63012.96
666.562	62993.53
666.912	62949.23
667.262	62891.84
667.612	62938.61
667.962	62936.81
668.312	62920.31
668.662	63066.75
669.011	62933.42
669.361	62929.35
669.711	62939.74
670.06	62891.38
670.41	62854.1
670.76	62849.58
671.109	62953.3
671.459	62879.18
671.808	62876.92
672.157	62918.95
672.507	62763.7
672.856	62829.46
673.205	62797.6
673.554	62891.84
673.904	62786.75
674.253	62937.94
674.602	62817.94
674.951	62568.91
675.3	62424.05
675.649	62869.69
675.998	62793.08
676.346	62799.63
676.695	62800.09
677.044	62704.5
677.393	62733.87
677.741	62796.7
678.09	62706.53
678.438	62650.94
678.787	62728.9
679.135	62731.84
679.484	62521.68
679.832	62598.74
680.181	62540.66
680.529	62627.66
680.877	62438.06
681.225	62475.12
681.573	62659.07
681.922	62452.52
682.27	62417.72
682.618	62398.51
682.966	62368.23
683.314	62356.26
683.661	62317.61
684.009	62169.82
684.357	62125.53
684.705	62119.2
685.053	62216.6
685.4	62084.62
685.748	62002.82
686.095	62063.83
686.443	61944.74
686.79	61901.35
687.138	61927.11
687.485	61841.69
687.832	61711.08
688.18	61780
688.527	61654.35
688.874	61693.45
689.221	61649.83
689.568	61540.23
689.915	61393.34
690.262	61404.42
690.609	61363.29
690.956	61273.12
691.303	61254.14
691.65	61165.1
691.997	61118.32
692.344	60976.63
692.69	60982.28
693.037	61020.25
693.383	60795.62
693.73	60850.08
694.077	60753.13
694.423	60671.33
694.769	60622.97
695.116	60552.69
695.462	60510.2
695.808	60392.47
696.155	60453.93
696.501	60319.93
696.847	60301.39
697.193	60070.21
697.539	60160.83
697.885	60010.33
698.231	59923.33
698.577	59911.35
698.923	59882.65
699.269	59705.48
699.614	59636.33
699.96	59581.41
700.306	59597.01
700.651	59475.2
700.997	59387.75
701.342	59394.07
701.688	59319.73
702.033	59210.35
702.379	59238.6
702.724	59067.3
703.069	59132.39
703.415	58867.76
703.76	58927.19
704.105	58887.65
704.45	58780.3
704.795	58677.93
705.14	58572.17
705.485	58635
705.83	58449.69
706.175	58554.55
706.52	58457.6
706.865	58390.03
707.209	58258.28
707.554	58231.17
707.899	58207.89
708.243	58071.62
708.588	58014.68
708.932	57937.62
709.277	57989.14
709.621	57796.38
709.966	57649.26
710.31	57782.82
710.654	57555.48
710.998	57644.06
711.342	57569.26
711.687	57431.19
712.031	57433
712.375	57367.91
712.719	57312.09
713.063	57243.17
713.407	57362.71
713.75	57251.08
714.094	57221.48
714.438	57099.22
714.782	57076.39
715.125	56904.42
715.469	57057.19
715.812	56859.68
716.156	56883.63
716.499	56806.35
716.843	56862.62
717.186	56696.07
717.53	56723.18
717.873	56693.58
718.216	56597.54
718.559	56520.03
718.902	56262.86
719.246	56398.22
719.589	56412.23
719.932	56301.27
720.275	56275.06
720.617	56218.34
720.96	56162.07
721.303	56139.24
721.646	56136.08
721.989	56028.96
722.331	56120.94
722.674	55990.32
723.016	55978.34
723.359	55847.05
723.701	55934.5
724.044	55793.49
724.386	55625.59
724.729	55785.81
725.071	55726.6
725.413	55704.91
725.755	55616.32
726.097	55486.83
726.439	55435.08
726.782	55417
727.124	55563.67
727.465	55458.13
727.807	55380.62
728.149	55434.18
728.491	55237.12
728.833	55304.24
729.175	55231.25
729.516	55108.08
729.858	55193.51
730.199	55206.16
730.541	55098.82
730.882	55036.45
731.224	55022.21
731.565	54890.92
731.906	54937.02
732.248	55039.61
732.589	54730.02
732.93	54796.23
733.271	54806.85
733.612	54746.96
733.953	54831.71
734.294	54661.77
734.635	54570.92
734.976	54729.56
735.317	54632.62
735.658	54610.47
735.999	54513.98
736.339	54490.47
736.68	54498.16
737.021	54447.31
737.361	54348.56
737.702	54594.65
738.042	54373.19
738.383	54348.33
738.723	54370.7
739.063	54237.83
739.404	54323.7
739.744	54227.66
740.084	54084.16
740.424	54138.62
740.764	54144.27
741.104	54110.15
741.444	53985.4
741.784	53982.46
742.124	54059.98
742.464	53991.5
742.804	53939.3
743.143	53830.38
743.483	53900.66
743.823	53777.95
744.162	53721
744.502	53721.91
744.841	53624.06
745.181	53724.62
745.52	53626.32
745.86	53645.07
746.199	53589.48
746.538	53559.2
746.877	53670.83
747.216	53561.46
747.556	53464.96
747.895	53558.75
748.234	53444.4
748.573	53467.9
748.911	53330.73
749.25	53329.83
749.589	53158.53
749.928	53196.27
750.267	53260
750.605	53135.93
750.944	53156.27
751.283	53069.95
751.621	53160.34
751.96	52951.31
752.298	52956.73
752.636	52909.5
752.975	52772.33
753.313	52755.15
753.651	52884.64
753.989	52650.75
754.327	52626.12
754.666	52433.13
755.004	52475.84
755.342	52522.62
