Data from 199_FLMS001491_004.txt Node
Date: Thu Apr 19 16:32:58 BST 2018
User: hsy
Spectrometer: FLMS00149
Trigger mode: 0
Integration Time (sec): 1.000000E-2
Scans to average: 10
Electric dark correction enabled: true
Nonlinearity correction enabled: false
Boxcar width: 0
XAxis mode: Wavelengths
Number of Pixels in Spectrum: 2048
>>>>>Begin Spectral Data<<<<<
341.393	-28.45
341.776	-28.45
342.16	-28.45
342.543	-57.82
342.927	-80.65
343.31	-63.02
343.693	-65.96
344.077	-62.57
344.46	-57.37
344.843	-45.39
345.226	-51.27
345.61	-25.51
345.993	-15.79
346.376	-17.6
346.759	18.56
347.142	48.61
347.525	28.05
347.908	29.41
348.291	85.45
348.674	82.06
349.057	112.34
349.44	145.56
349.823	143.75
350.206	173.58
350.588	236.41
350.971	275.73
351.354	264.88
351.737	283.41
352.119	318.66
352.502	296.07
352.884	321.15
353.267	332.9
353.65	345.78
354.032	364.09
354.414	371.32
354.797	345.56
355.179	366.8
355.562	381.71
355.944	372
356.326	399.11
356.709	392.56
357.091	397.08
357.473	407.93
357.855	397.31
358.238	393.01
358.62	381.71
359.002	407.25
359.384	397.76
359.766	397.31
360.148	408.61
360.53	397.76
360.912	396.85
361.294	405.67
361.676	403.41
362.057	390.98
362.439	391.43
362.821	396.4
363.203	385.33
363.584	388.72
363.966	373.35
364.348	407.93
364.729	390.75
365.111	393.69
365.493	388.94
365.874	395.27
366.256	378.1
366.637	393.24
367.019	390.98
367.4	395.05
367.781	383.52
368.163	386.68
368.544	386.01
368.925	388.72
369.306	423.97
369.688	393.46
370.069	400.24
370.45	403.63
370.831	399.79
371.212	408.38
371.593	417.42
371.974	389.62
372.355	418.1
372.736	431.66
373.117	397.08
373.498	398.66
373.879	411.32
374.26	390.98
374.641	397.08
375.021	396.63
375.402	410.64
375.783	398.44
376.163	421.49
376.544	423.75
376.925	424.88
377.305	438.21
377.686	416.97
378.066	442.28
378.447	420.58
378.827	440.24
379.208	417.64
379.588	448.38
379.968	427.81
380.349	429.17
380.729	447.25
381.109	465.33
381.489	456.29
381.87	447.47
382.25	473.24
382.63	470.75
383.01	459.45
383.39	462.16
383.77	466.68
384.15	448.83
384.53	474.14
384.91	476.85
385.29	466.68
385.67	483.18
386.049	503.52
386.429	492.44
386.809	493.57
387.189	503.29
387.568	496.51
387.948	496.06
388.328	492.44
388.707	534.93
389.087	497.87
389.466	517.08
389.846	532.44
390.225	522.73
390.605	512.78
390.984	521.6
391.363	543.97
391.743	520.47
392.122	533.8
392.501	552.56
392.881	551.2
393.26	561.14
393.639	553.46
394.018	552.78
394.397	563.63
394.776	581.26
395.155	561.82
395.534	559.34
395.913	553.69
396.292	561.14
396.671	574.48
397.05	576.74
397.429	607.47
397.808	595.49
398.186	576.06
398.565	590.75
398.944	600.01
399.323	598.88
399.701	598.88
400.08	620.12
400.458	626.9
400.837	627.36
401.215	637.3
401.594	650.18
401.972	646.34
402.351	652.44
402.729	637.53
403.107	647.02
403.486	640.01
403.864	661.93
404.242	664.87
404.62	656.51
404.999	669.16
405.377	699.67
405.755	684.98
406.133	690.86
406.511	688.6
406.889	709.16
407.267	715.94
407.645	715.72
408.023	715.94
408.401	743.29
408.779	715.49
409.156	772.44
409.534	747.13
409.912	751.87
410.29	786
410.667	769.95
411.045	786
411.422	787.58
411.8	808.82
412.178	819.89
412.555	798.43
412.933	829.61
413.31	825.32
413.687	837.07
414.065	867.35
414.442	868.25
414.819	884.75
415.197	898.31
415.574	877.97
415.951	892.66
416.328	897.63
416.705	905.54
417.082	897.41
417.46	936.5
417.837	945.31
418.214	915.03
418.591	943.73
418.967	955.71
419.344	959.33
419.721	948.48
420.098	955.48
420.475	994.35
420.852	977.18
421.228	999.32
421.605	1014.69
421.982	1006.78
422.358	1026.67
422.735	1031.41
423.111	1019.44
423.488	1039.77
423.864	1069.6
424.241	1048.36
424.617	1075.93
424.994	1068.47
425.37	1061.02
425.746	1081.13
426.123	1096.5
426.499	1091.52
426.875	1111.86
427.251	1147.12
427.627	1164.29
428.003	1164.07
428.379	1164.52
428.756	1204.74
429.132	1244.06
429.507	1248.36
429.883	1233.44
430.259	1248.13
430.635	1294.68
431.011	1257.85
431.387	1306.21
431.763	1327
432.138	1308.69
432.514	1340.56
432.89	1365.87
433.265	1385.98
433.641	1380.33
434.016	1405.42
434.392	1421.01
434.767	1427.56
435.143	1453.1
435.518	1430.5
435.894	1471.63
436.269	1504.4
436.644	1511.17
437.02	1536.03
437.395	1521.8
437.77	1559.08
438.145	1586.65
438.52	1590.49
438.895	1606.99
439.271	1567.9
439.646	1624.17
440.021	1649.02
440.395	1652.64
440.77	1647.89
441.145	1657.39
441.52	1642.92
441.895	1691.74
442.27	1663.49
442.645	1685.63
443.019	1702.36
443.394	1713.2
443.769	1736.93
444.143	1715.92
444.518	1737.16
444.892	1711.85
445.267	1734.45
445.641	1782.81
446.016	1802.47
446.39	1801.11
446.764	1792.98
447.139	1791.62
447.513	1833.88
447.887	1829.81
448.262	1857.15
448.636	1856.93
449.01	1899.87
449.384	1871.84
449.758	1908.9
450.132	1934.44
450.506	1946.42
450.88	1942.8
451.254	1945.06
451.628	1969.69
452.002	2016.02
452.376	2042.01
452.75	2042.01
453.123	2091.5
453.497	2122.91
453.871	2099.41
454.244	2149.35
454.618	2124.04
454.992	2200.87
455.365	2213.76
455.739	2247.43
456.112	2224.38
456.486	2305.96
456.859	2298.27
457.232	2362
457.606	2357.25
457.979	2358.38
458.352	2428.21
458.725	2444.26
459.099	2460.08
459.472	2509.57
459.845	2533.07
460.218	2554.54
460.591	2585.05
460.964	2623.24
461.337	2630.92
461.71	2705.95
462.083	2681.09
462.456	2709.11
462.829	2727.87
463.201	2807.86
463.574	2813.74
463.947	2851.48
464.32	2852.83
464.692	2893.51
465.065	2899.16
465.438	2939.39
465.81	2944.36
466.183	2985.26
466.555	3068.2
466.928	3087.18
467.3	3054.86
467.672	3100.51
468.045	3192.49
468.417	3203.11
468.789	3199.94
469.161	3262.99
469.534	3305.25
469.906	3361.52
470.278	3398.81
470.65	3416.89
471.022	3518.81
471.394	3524.68
471.766	3591.12
472.138	3642.64
472.51	3686.48
472.882	3724.9
473.253	3763.77
473.625	3808.97
473.997	3835.63
474.369	3897.55
474.74	3970.09
475.112	4066.81
475.484	4082.63
475.855	4129.86
476.227	4246.7
476.598	4246.7
476.97	4320.82
477.341	4403.53
477.713	4466.35
478.084	4541.6
478.455	4641.49
478.827	4662.96
479.198	4759.68
479.569	4812.78
479.94	4939.33
480.311	5005.55
480.682	5113.57
481.053	5149.27
481.424	5243.73
481.795	5344.97
482.166	5411.41
482.537	5481.01
482.908	5665.19
483.279	5646.66
483.65	5799.42
484.021	5814.79
484.391	5950.61
484.762	6044.62
485.133	6091.85
485.503	6195.57
485.874	6370.03
486.244	6400.54
486.615	6537.03
486.985	6561.21
487.356	6719.17
487.726	6804.37
488.097	6903.12
488.467	6966.17
488.837	7062.22
489.207	7202.78
489.578	7294.3
489.948	7364.81
490.318	7547.4
490.688	7562.77
491.058	7708.98
491.428	7837.34
491.798	7872.14
492.168	8027.39
492.538	8066.93
492.908	8180.83
493.278	8313.03
493.648	8326.59
494.017	8467.15
494.387	8550.31
494.757	8612.91
495.126	8672.79
495.496	8781.72
495.866	8849.29
496.235	8939.23
496.605	9044.54
496.974	9056.74
497.344	9179
497.713	9248.15
498.082	9272.78
498.452	9390.74
498.821	9511.64
499.19	9501.02
499.559	9569.27
499.928	9723.39
500.298	9677.74
500.667	9798.64
501.036	9812.65
501.405	9889.49
501.774	9962.93
502.143	10031.18
502.512	10048.13
502.88	10195.69
503.249	10152.53
503.618	10293.09
503.987	10326.99
504.356	10340.32
504.724	10418.96
505.093	10500.54
505.462	10544.61
505.83	10587.55
506.199	10711.61
506.567	10847.88
506.936	10800.65
507.304	10997.25
507.672	11010.36
508.041	11044.94
508.409	11127.42
508.777	11183.24
509.145	11333.74
509.514	11330.58
509.882	11369.9
510.25	11415.55
510.618	11562.21
510.986	11535.54
511.354	11643.34
511.722	11744.35
512.09	11862.99
512.458	11867.96
512.826	11956.1
513.193	12017.34
513.561	12084.68
513.929	12172.82
514.297	12239.71
514.664	12424.11
515.032	12450.1
515.4	12570.55
515.767	12657.1
516.135	12711.78
516.502	12651
516.869	12902.51
517.237	12960.59
517.604	12850.99
517.972	13102.51
518.339	13205.1
518.706	13296.63
519.073	13382.05
519.44	13459.56
519.808	13537.3
520.175	13693
520.542	13876.27
520.909	13876.05
521.276	13961.47
521.643	14214.12
522.009	14223.16
522.376	14287.56
522.743	14519.87
523.11	14752.86
523.477	14827.21
523.843	14922.35
524.21	15061.78
524.577	15136.81
524.943	15240.76
525.31	15363.01
525.676	15497.25
526.043	15601.65
526.409	15766.85
526.776	16005.94
527.142	16133.62
527.508	16099.94
527.874	16269.2
528.241	16408.18
528.607	16484.11
528.973	16755.97
529.339	16727.27
529.705	16894.73
530.071	17032.35
530.437	17202.06
530.803	17415.39
531.169	17466.24
531.535	17515.95
531.901	17545.1
532.267	17729.51
532.632	17796.17
532.998	17915.72
533.364	18006.56
533.73	18189.15
534.095	18312.09
534.461	18364.07
534.826	18485.64
535.192	18492.65
535.557	18722.25
535.923	18694
536.288	18844.96
536.653	19017.83
537.019	18923.37
537.384	19081.56
537.749	19259.86
538.114	19175.34
538.479	19262.12
538.845	19384.83
539.21	19435.9
539.575	19446.07
539.94	19582.79
540.305	19764.25
540.67	19775.78
541.034	19867.08
541.399	19878.83
541.764	20045.38
542.129	20027.98
542.494	20192.04
542.858	20245.82
543.223	20249.21
543.587	20273.62
543.952	20468.64
544.316	20506.38
544.681	20455.99
545.045	20710.22
545.41	20722.42
545.774	20755.87
546.138	20775.3
546.503	20876.09
546.867	20992.24
547.231	21098.91
547.595	21169.19
547.959	21249.19
548.324	21286.02
548.688	21384.55
549.052	21422.74
549.416	21501.61
549.779	21582.96
550.143	21544.77
550.507	21750.87
550.871	21855.95
551.235	21916.51
551.599	22059.34
551.962	22177.98
552.326	22248.93
552.689	22336.39
553.053	22333.68
553.417	22447.35
553.78	22682.14
554.143	22685.99
554.507	22826.09
554.87	22926.88
555.234	23118.06
555.597	23066.31
555.96	23167.1
556.323	23302.47
556.686	23355.12
557.05	23519.86
557.413	23587.2
557.776	23741.78
558.139	23840.76
558.502	23866.75
558.865	23986.29
559.228	24254.53
559.59	24372.95
559.953	24455.66
560.316	24554.18
560.679	24703.11
561.041	24816.32
561.404	25033.49
561.767	25251.34
562.129	25184.22
562.492	25502.18
562.854	25609.52
563.217	25612.01
563.579	25819.24
563.941	25947.59
564.304	26233.01
564.666	26495.15
565.028	26716.84
565.39	26685.88
565.753	26910.73
566.115	27059.66
566.477	27238.86
566.839	27443.37
567.201	27843.14
567.563	27745.74
567.925	28048.33
568.287	28218.5
568.648	28283.8
569.01	28635.21
569.372	28832.49
569.734	28950.68
570.095	29271.57
570.457	29447.84
570.819	29418.24
571.18	29598.12
571.542	29996.3
571.903	30092.8
572.265	30351.77
572.626	30645.78
572.987	30692.55
573.349	30960.57
573.71	31107.68
574.071	31216.16
574.432	31496.83
574.794	31765.75
575.155	31909.02
575.516	31946.53
575.877	32066.76
576.238	32261.1
576.599	32449.57
576.96	32544.48
577.32	32619.06
577.681	32847.75
578.042	33163.9
578.403	33075.99
578.763	33261.75
579.124	33344.46
579.485	33744
579.845	33849.76
580.206	33782.87
580.566	33969.3
580.927	34113.93
581.287	34303.31
581.648	34333.14
582.008	34520.02
582.368	34610.87
582.728	34682.96
583.089	34684.77
583.449	34842.95
583.809	35042.72
584.169	35356.84
584.529	35265.54
584.889	35861.68
585.249	35589.6
585.609	35706.21
585.969	36137.16
586.329	36113.88
586.688	36507.99
587.048	36520.88
587.408	36827.08
587.768	37042.67
588.127	37332.38
588.487	37453.73
588.846	38024.11
589.206	37845.59
589.565	38325.35
589.925	38827.71
590.284	39043.3
590.643	39381.59
591.003	39771.41
591.362	40199.42
591.721	40501.11
592.08	40936.35
592.44	41454.31
592.799	41606.62
593.158	42130.9
593.517	42382.19
593.876	42886.81
594.235	43296.52
594.593	43748.03
594.952	44220.79
595.311	44483.38
595.67	45125.17
596.029	45732.84
596.387	46253.5
596.746	46843.32
597.104	46910.21
597.463	47330.99
597.822	47940.01
598.18	48179.1
598.538	48509.94
598.897	49302.69
599.255	49407.99
599.613	50245.49
599.972	50259.27
600.33	50772.25
600.688	51051.34
601.046	51566.58
601.404	51967.48
601.762	52202.27
602.12	52743.05
602.478	53036.83
602.836	53321.79
603.194	53487.89
603.552	53826.86
603.91	54102.79
604.268	54448.54
604.625	54707.52
604.983	55135.3
605.341	55288.97
605.698	55662.52
606.056	55967.6
606.413	56123.52
606.771	56501.14
607.128	56672.89
607.485	56897.97
607.843	57116.49
608.2	57500.21
608.557	57713.76
608.914	57829.69
609.272	58165.05
609.629	58452.95
609.986	58725.26
610.343	58770.91
610.7	59185.82
611.057	59263.55
611.414	59430.33
611.771	59725.46
612.127	59901.05
612.484	60047.49
612.841	60235.05
613.198	60349.4
613.554	60421.49
613.911	60824.42
614.267	60898.54
614.624	61034.13
614.98	61183.28
615.337	61430.05
615.693	61489.71
616.05	61601.8
616.406	61846.54
616.762	61856.03
617.118	62055.35
617.475	62111.62
617.831	62361.55
618.187	62448.33
618.543	62539.17
618.899	62772.62
619.255	62808.32
619.611	62862.1
619.967	63105.04
620.323	63193.62
620.678	63163.79
621.034	63252.15
621.39	63354.07
621.746	63418.25
622.101	63521.97
622.457	63511.8
622.812	63521.97
623.168	63521.97
623.523	63521.97
623.879	63521.97
624.234	63521.97
624.589	63521.97
624.945	63521.97
625.3	63521.97
625.655	63521.97
626.01	63521.97
626.365	63521.97
626.72	63521.97
627.075	63521.97
627.43	63521.97
627.785	63521.97
628.14	63521.97
628.495	63521.97
628.85	63521.97
629.205	63521.97
629.559	63521.97
629.914	63521.97
630.269	63521.97
630.623	63521.97
630.978	63521.97
631.332	63521.97
631.687	63521.97
632.041	63521.97
632.396	63521.97
632.75	63521.97
633.104	63521.97
633.459	63521.97
633.813	63521.97
634.167	63521.97
634.521	63521.97
634.875	63521.97
635.229	63521.97
635.583	63521.97
635.937	63521.97
636.291	63521.97
636.645	63521.97
636.999	63521.97
637.352	63521.97
637.706	63521.97
638.06	63521.97
638.413	63521.97
638.767	63521.97
639.121	63521.97
639.474	63521.97
639.828	63521.97
640.181	63521.97
640.534	63521.97
640.888	63521.97
641.241	63521.97
641.594	63521.97
641.947	63521.97
642.301	63521.97
642.654	63521.97
643.007	63521.97
643.36	63521.97
643.713	63521.97
644.066	63521.97
644.419	63521.97
644.771	63521.97
645.124	63521.97
645.477	63521.97
645.83	63521.97
646.182	63521.97
646.535	63521.97
646.888	63521.97
647.24	63521.97
647.593	63521.97
647.945	63521.97
648.298	63519.49
648.65	63496.66
649.002	63440.17
649.355	63453.5
649.707	63359.94
650.059	63382.99
650.411	63521.52
650.763	63521.97
651.115	63521.97
651.467	63521.97
651.819	63521.97
652.171	63521.97
652.523	63521.97
652.875	63521.97
653.227	63521.97
653.578	63521.97
653.93	63521.97
654.282	63521.97
654.633	63521.97
654.985	63521.97
655.337	63521.97
655.688	63521.97
656.039	63521.97
656.391	63519.94
656.742	63521.97
657.094	63521.97
657.445	63521.97
657.796	63521.97
658.147	63521.97
658.498	63521.97
658.849	63521.97
659.2	63518.81
659.551	63521.97
659.902	63521.97
660.253	63521.97
660.604	63521.97
660.955	63521.97
661.306	63521.97
661.656	63519.49
662.007	63521.97
662.358	63521.97
662.708	63521.97
663.059	63521.97
663.409	63473.84
663.76	63521.97
664.11	63521.97
664.461	63521.97
664.811	63521.97
665.161	63521.3
665.511	63518.81
665.862	63514.06
666.212	63519.04
666.562	63521.97
666.912	63521.97
667.262	63521.52
667.612	63521.97
667.962	63521.97
668.312	63504.8
668.662	63521.97
669.011	63521.75
669.361	63495.08
669.711	63520.62
670.06	63491.01
670.41	63488.98
670.76	63505.03
671.109	63521.97
671.459	63511.13
671.808	63505.7
672.157	63504.57
672.507	63393.39
672.856	63397.68
673.205	63456.89
673.554	63491.01
673.904	63439.26
674.253	63521.97
674.602	63445.14
674.951	63183.45
675.3	63079.05
675.649	63435.42
675.998	63434.07
676.346	63483.33
676.695	63449.66
677.044	63352.03
677.393	63374.41
677.741	63435.87
678.09	63342.77
678.438	63319.27
678.787	63372.6
679.135	63351.58
679.484	63206.05
679.832	63245.37
680.181	63191.59
680.529	63248.76
680.877	63138.71
681.225	63094.87
681.573	63262.55
681.922	63080.18
682.27	63027.3
682.618	62994.08
682.966	62914.31
683.314	63051.93
683.661	62971.71
684.009	62899.17
684.357	62838.6
684.705	62805.38
685.053	62771.49
685.4	62672.5
685.748	62616.91
686.095	62651.49
686.443	62484.71
686.79	62526.52
687.138	62592.51
687.485	62488.55
687.832	62448.56
688.18	62446.07
688.527	62313.87
688.874	62260.09
689.221	62268.45
689.568	62221.44
689.915	62096.7
690.262	62085.18
690.609	62012.41
690.956	61935.35
691.303	61982.35
691.65	61901.45
691.997	61772.87
692.344	61716.37
692.69	61606.32
693.037	61684.96
693.383	61431.18
693.73	61505.53
694.077	61387.11
694.423	61388.24
694.769	61338.3
695.116	61293.11
695.462	61210.4
695.808	61127.01
696.155	61158.42
696.501	60927.69
696.847	61035.26
697.193	60793.68
697.539	60809.95
697.885	60657.19
698.231	60584.88
698.577	60600.47
698.923	60561.83
699.269	60357.09
699.614	60331.78
699.96	60247.26
700.306	60307.14
700.651	60181.27
700.997	60092.01
701.342	60018.34
701.688	59980.37
702.033	59921.62
702.379	59914.39
702.724	59765.24
703.069	59802.07
703.415	59559.37
703.76	59526.15
704.105	59605.47
704.45	59427.17
704.795	59390.56
705.14	59258.36
705.485	59370.44
705.83	59170.9
706.175	59199.6
706.52	59131.13
706.865	59090.9
707.209	58999.83
707.554	58920.96
707.899	58875.09
708.243	58792.15
708.588	58817.69
708.932	58631.71
709.277	58720.97
709.621	58559.39
709.966	58462.22
710.31	58492.05
710.654	58381.09
710.998	58372.5
711.342	58315.78
711.687	58184.71
712.031	58184.49
712.375	58093.87
712.719	58068.11
713.063	57996.02
713.407	58130.03
713.75	58007.54
714.094	57920.54
714.438	57855.23
714.782	57791.96
715.125	57659.98
715.469	57798.06
715.812	57628.57
716.156	57585.63
716.499	57572.07
716.843	57542.24
717.186	57456.37
717.53	57514.45
717.873	57474.9
718.216	57339.76
718.559	57257.05
718.902	57093.67
719.246	57212.76
719.589	57048.92
719.932	56955.37
720.275	56975.25
720.617	57015.48
720.96	56918.31
721.303	56927.8
721.646	56951.3
721.989	56691.87
722.331	56839.66
722.674	56686.67
723.016	56697.52
723.359	56640.57
723.701	56609.39
724.044	56461.82
724.386	56394.93
724.729	56491.2
725.071	56468.37
725.413	56418.43
725.755	56304.54
726.097	56272.67
726.439	56188.61
726.782	56144.09
727.124	56220.7
727.465	56182.05
727.807	56112.23
728.149	56144.99
728.491	55957.43
728.833	55962.4
729.175	55966.92
729.516	55879.24
729.858	55925.34
730.199	55974.83
730.541	55842.4
730.882	55786.81
731.224	55763.53
731.565	55699.13
731.906	55661.16
732.248	55761.05
732.589	55570.32
732.93	55579.58
733.271	55459.81
733.612	55452.58
733.953	55569.87
734.294	55441.73
734.635	55377.56
734.976	55450.55
735.317	55213.72
735.658	55288.29
735.999	55181.4
736.339	55287.84
736.68	55240.61
737.021	55175.07
737.361	55062.54
737.702	55309.08
738.042	55120.16
738.383	55179.82
738.723	55146.37
739.063	54997.45
739.404	55096.43
739.744	55015.76
740.084	54879.94
740.424	54995.87
740.764	54920.84
741.104	54870.22
741.444	54771.7
741.784	54692.38
742.124	54920.62
742.464	54739.38
742.804	54676.78
743.143	54600.85
743.483	54709.32
743.823	54563.57
744.162	54575.99
744.502	54572.15
744.841	54393.85
745.181	54529.44
745.52	54382.55
745.86	54560.18
746.199	54455.09
746.538	54378.94
746.877	54420.97
747.216	54327.64
747.556	54258.49
747.895	54290.35
748.234	54091.26
748.573	54186.4
748.911	54048.32
749.25	54041.32
749.589	53964.03
749.928	54025.05
750.267	54062.11
750.605	53880.42
750.944	53893.07
751.283	53771.04
751.621	53863.02
751.96	53681.55
752.298	53611.5
752.636	53608.11
752.975	53591.61
753.313	53533.08
753.651	53594.33
753.989	53446.76
754.327	53444.05
754.666	53185.97
