Data from 199_FLMS001491_007.txt Node
Date: Thu Apr 19 16:33:05 BST 2018
User: hsy
Spectrometer: FLMS00149
Trigger mode: 0
Integration Time (sec): 1.000000E-2
Scans to average: 10
Electric dark correction enabled: true
Nonlinearity correction enabled: false
Boxcar width: 0
XAxis mode: Wavelengths
Number of Pixels in Spectrum: 2048
>>>>>Begin Spectral Data<<<<<
341.393	-8.71
341.776	-8.71
342.16	-8.71
342.543	-45.32
342.927	-60.24
343.31	-42.84
343.693	-63.85
344.077	-62.72
344.46	-67.24
344.843	-52.1
345.226	-67.47
345.61	-27.02
345.993	-20.92
346.376	-7.13
346.759	0.32
347.142	25.63
347.525	42.58
347.908	47.1
348.291	82.81
348.674	99.76
349.057	113.09
349.44	125.52
349.823	127.55
350.206	165.74
350.588	251.62
350.971	258.85
351.354	288.9
351.737	282.58
352.119	317.15
352.502	326.87
352.884	335.23
353.267	350.6
353.65	358.51
354.032	356.02
354.414	371.84
354.797	359.41
355.179	377.49
355.562	368.68
355.944	404.38
356.326	390.15
356.709	375.23
357.091	392.86
357.473	412.07
357.855	392.86
358.238	401.44
358.62	410.03
359.002	392.18
359.384	417.72
359.766	415.91
360.148	393.76
360.53	419.75
360.912	389.02
361.294	396.92
361.676	391.28
362.057	403.48
362.439	411.16
362.821	383.14
363.203	379.98
363.584	392.86
363.966	385.4
364.348	400.54
364.729	397.15
365.111	401.44
365.493	403.7
365.874	370.26
366.256	400.77
366.637	387.66
367.019	416.36
367.4	400.54
367.781	378.62
368.163	402.57
368.544	411.39
368.925	387.43
369.306	384.27
369.688	395.34
370.069	395.34
370.45	391.73
370.831	394.21
371.212	386.76
371.593	407.55
371.974	397.83
372.355	403.03
372.736	412.74
373.117	406.42
373.498	408.68
373.879	409.81
374.26	399.18
374.641	400.54
375.021	433.08
375.402	423.82
375.783	435.34
376.163	442.35
376.544	440.77
376.925	402.57
377.305	427.21
377.686	414.55
378.066	409.13
378.447	458.39
378.827	458.84
379.208	428.56
379.588	434.21
379.968	440.99
380.349	437.38
380.729	465.4
381.109	445.28
381.489	438.28
381.87	429.47
382.25	459.3
382.63	473.53
383.01	457.26
383.39	476.47
383.77	451.16
384.15	468.56
384.53	473.31
384.91	496.36
385.29	470.59
385.67	475.11
386.049	498.84
386.429	475.11
386.809	494.78
387.189	479.41
387.568	487.54
387.948	492.29
388.328	511.27
388.707	514.89
389.087	517.37
389.466	521.22
389.846	521.44
390.225	528.9
390.605	500.65
390.984	534.1
391.363	532.06
391.743	544.49
392.122	563.7
392.501	558.95
392.881	565.73
393.26	532.74
393.639	551.95
394.018	544.94
394.397	546.98
394.776	570.71
395.155	558.73
395.534	579.29
395.913	570.48
396.292	581.33
396.671	591.27
397.05	598.05
397.429	589.01
397.808	591.5
398.186	588.56
398.565	593.08
398.944	603.47
399.323	595.56
399.701	622.68
400.08	619.07
400.458	613.42
400.837	626.07
401.215	631.27
401.594	629.23
401.972	611.16
402.351	655.22
402.729	645.05
403.107	660.42
403.486	652.74
403.864	672.62
404.242	660.87
404.62	686.41
404.999	669.46
405.377	654.77
405.755	683.24
406.133	696.58
406.511	693.64
406.889	742
407.267	707.88
407.645	711.94
408.023	726.41
408.401	745.39
408.779	735.45
409.156	758.05
409.534	747.42
409.912	773.19
410.29	818.83
410.667	794.43
411.045	830.59
411.422	788.55
411.8	810.93
412.178	812.51
412.555	833.75
412.933	847.53
413.31	867.65
413.687	838.04
414.065	866.29
414.442	871.26
414.819	884.37
415.197	891.15
415.574	913.3
415.951	885.05
416.328	916.68
416.705	891.15
417.082	932.28
417.46	914.2
417.837	939.28
418.214	951.49
418.591	954.2
418.967	948.1
419.344	946.74
419.721	954.42
420.098	977.7
420.475	997.81
420.852	986.97
421.228	997.81
421.605	1004.59
421.982	995.33
422.358	1019.73
422.735	1032.16
423.111	1051.82
423.488	1048.43
423.864	1073.74
424.241	1076.68
424.617	1087.08
424.994	1060.64
425.37	1098.38
425.746	1106.51
426.123	1100.18
426.499	1136.79
426.875	1120.97
427.251	1156.23
427.627	1138.6
428.003	1152.16
428.379	1200.52
428.756	1176.79
429.132	1203.01
429.507	1211.37
429.883	1245.94
430.259	1260.63
430.635	1246.62
431.011	1289.33
431.387	1303.34
431.763	1315.32
432.138	1323.23
432.514	1331.36
432.89	1353.28
433.265	1401.87
433.641	1404.58
434.016	1394.19
434.392	1430.12
434.767	1470.12
435.143	1457.01
435.518	1493.62
435.894	1486.84
436.269	1496.33
436.644	1524.8
437.02	1544.01
437.395	1529.55
437.77	1564.13
438.145	1606.61
438.52	1583.33
438.895	1594.86
439.271	1622.43
439.646	1662.43
440.021	1655.42
440.395	1647.74
440.77	1637.34
441.145	1650.9
441.52	1683.44
441.895	1672.6
442.27	1709.88
442.645	1715.76
443.019	1749.43
443.394	1745.36
443.769	1741.52
444.143	1765.25
444.518	1749.43
444.892	1786.94
445.267	1793.95
445.641	1785.81
446.016	1796.89
446.39	1811.12
446.764	1817.68
447.139	1835.76
447.513	1850.67
447.887	1851.58
448.262	1857.45
448.636	1897.68
449.01	1891.12
449.384	1944.68
449.758	1942.87
450.132	1955.98
450.506	1977.45
450.88	1982.42
451.254	1952.82
451.628	2003.21
452.002	2023.77
452.376	2052.25
452.75	2055.41
453.123	2060.61
453.497	2106.26
453.871	2126.6
454.244	2186.93
454.618	2160.72
454.992	2181.74
455.365	2233.49
455.739	2268.06
456.112	2282.75
456.486	2299.93
456.859	2327.04
457.232	2376.99
457.606	2377.21
457.979	2421.05
458.352	2466.93
458.725	2480.94
459.099	2496.3
459.472	2531.33
459.845	2578.79
460.218	2585.34
460.591	2653.36
460.964	2640.03
461.337	2665.79
461.71	2708.73
462.083	2747.15
462.456	2745.79
462.829	2752.12
463.201	2824.21
463.574	2797.99
463.947	2865.56
464.32	2849.29
464.692	2927.25
465.065	2956.86
465.438	2979.91
465.81	2972.9
466.183	3046.57
466.555	3101.71
466.928	3153.91
467.3	3106.01
467.672	3179.68
468.045	3246.12
468.417	3257.19
468.789	3243.63
469.161	3308.49
469.534	3399.56
469.906	3401.14
470.278	3423.06
470.65	3522.94
471.022	3558.65
471.394	3579.67
471.766	3652.88
472.138	3652.66
472.51	3744.18
472.882	3783.73
473.253	3823.05
473.625	3830.73
473.997	3933.78
474.369	3969.26
474.74	4037.51
475.112	4095.81
475.484	4150.5
475.855	4226.43
476.227	4241.57
476.598	4339.87
476.97	4370.15
477.341	4484.27
477.713	4553.88
478.084	4530.15
478.455	4654.44
478.827	4692.18
479.198	4836.13
479.569	4858.28
479.94	5019.18
480.311	5094.43
480.682	5147.31
481.053	5302.56
481.424	5362.9
481.795	5429.56
482.166	5523.34
482.537	5589.56
482.908	5670.46
483.279	5745.48
483.65	5916.55
484.021	5940.51
484.391	5996.33
484.762	6091.46
485.133	6208.98
485.503	6265.47
485.874	6405.35
486.244	6436.31
486.615	6614.16
486.985	6637.44
487.356	6798.79
487.726	6883.76
488.097	7010.99
488.467	7076.07
488.837	7217.08
489.207	7256.63
489.578	7370.53
489.948	7544.31
490.318	7590.41
490.688	7666.34
491.058	7765.09
491.428	7862.04
491.798	7895.94
492.168	8093.9
492.538	8200.79
492.908	8310.61
493.278	8401.91
493.648	8377.28
494.017	8544.51
494.387	8631.06
494.757	8687.33
495.126	8785.86
495.496	8882.8
495.866	8946.3
496.235	8977.94
496.605	9138.84
496.974	9170.03
497.344	9206.18
497.713	9319.63
498.082	9359.63
498.452	9485.05
498.821	9497.25
499.19	9606.17
499.559	9671.93
499.928	9739.28
500.298	9815.43
500.667	9866.51
501.036	9806.85
501.405	10000.74
501.774	9984.02
502.143	10111.92
502.512	10185.82
502.88	10288.87
503.249	10325.03
503.618	10358.02
503.987	10323.67
504.356	10458.81
504.724	10576.09
505.093	10600.72
505.462	10628.29
505.83	10688.86
506.199	10775.86
506.567	10880.94
506.936	10910.32
507.304	11003.2
507.672	11027.15
508.041	11123.87
508.409	11224.44
508.777	11323.64
509.145	11335.85
509.514	11412.91
509.882	11459.91
510.25	11507.82
510.618	11586.23
510.986	11690.64
511.354	11770.18
511.722	11837.75
512.09	11925.89
512.458	11986
512.826	12121.81
513.193	12138.31
513.561	12195.26
513.929	12312.54
514.297	12363.62
514.664	12476.83
515.032	12584.85
515.4	12761.57
515.767	12717.05
516.135	12816.03
516.502	12764.51
516.869	13020.55
517.237	13091.05
517.604	13078.85
517.972	13299.64
518.339	13302.8
518.706	13402.68
519.073	13420.76
519.44	13561.78
519.808	13682.9
520.175	13789.57
520.542	13922.9
520.909	14010.13
521.276	14168.09
521.643	14317.24
522.009	14433.84
522.376	14538.47
522.743	14602.43
523.11	14707.51
523.477	14946.15
523.843	14950.21
524.21	15228.63
524.577	15381.84
524.943	15402.63
525.31	15496.19
525.676	15713.58
526.043	15847.37
526.409	15935.05
526.776	16177.3
527.142	16171.2
527.508	16347.01
527.874	16431.08
528.241	16525.54
528.607	16656.61
528.973	16881.69
529.339	16834.46
529.705	17079.42
530.071	17238.52
530.437	17410.26
530.803	17537.04
531.169	17661.1
531.535	17593.08
531.901	17857.26
532.267	18024.71
532.632	18062.22
532.998	18111.04
533.364	18190.13
533.73	18267.42
534.095	18451.82
534.461	18557.58
534.826	18570.68
535.192	18725.93
535.557	18864.24
535.923	18874.63
536.288	19075.98
536.653	19136.09
537.019	19223.32
537.384	19236.66
537.749	19350.1
538.114	19532.69
538.479	19447.95
538.845	19583.76
539.21	19499.47
539.575	19691.33
539.94	19750.99
540.305	19982.4
540.67	19999.8
541.034	20073.24
541.399	20076.18
541.764	20228.49
542.129	20213.13
542.494	20296.29
542.858	20420.58
543.223	20394.59
543.587	20522.5
543.952	20560.91
544.316	20623.74
544.681	20686.11
545.045	20775.6
545.41	20927.46
545.774	20908.93
546.138	20968.14
546.503	21083.84
546.867	21084.97
547.231	21204.51
547.595	21269.6
547.959	21376.49
548.324	21486.54
548.688	21547.55
549.052	21678.85
549.416	21693.09
549.779	21860.09
550.143	21794.33
550.507	22002.91
550.871	21989.35
551.235	22054.21
551.599	22279.74
551.962	22261.66
552.326	22335.56
552.689	22521.77
553.053	22445.84
553.417	22565.16
553.78	22783.45
554.143	22836.33
554.507	22984.13
554.87	23110
555.234	23288.3
555.597	23212.37
555.96	23374.17
556.323	23523.77
556.686	23494.85
557.05	23808.51
557.413	23734.39
557.776	23878.34
558.139	24031.56
558.502	24083.08
558.865	24283.08
559.228	24431.77
559.59	24528.27
559.953	24623.63
560.316	24926
560.679	24792.22
561.041	25028.59
561.404	25161.7
561.767	25518.75
562.129	25347.91
562.492	25663.38
562.854	25835.35
563.217	25906.54
563.579	26097.27
563.941	26266.98
564.304	26348.11
564.666	26614.31
565.028	26781.54
565.39	26822.22
565.753	27199.38
566.115	27334.97
566.477	27518.92
566.839	27690.22
567.201	28158
567.563	27944.45
567.925	28290.88
568.287	28296.76
568.648	28598.44
569.01	28849.74
569.372	29075.04
569.734	29121.59
570.095	29395.03
570.457	29629.38
570.819	29740.33
571.18	29827.79
571.542	30251.28
571.903	30319.98
572.265	30529.69
572.626	30754.32
572.987	30772.17
573.349	31095.55
573.71	31228.66
574.071	31445.15
574.432	31749.77
574.794	32026.15
575.155	32058.69
575.516	32067.5
575.877	32403.09
576.238	32446.48
576.599	32504.78
576.96	32747.71
577.32	32888.5
577.681	32950.19
578.042	33309.96
578.403	33386.79
578.763	33447.58
579.124	33630.4
579.485	33873.33
579.845	33913.78
580.206	33880.56
580.566	34119.65
580.927	34220.22
581.287	34399.42
581.648	34331.4
582.008	34608.68
582.368	34660.43
582.728	34846.19
583.089	34968.67
583.449	35182.22
583.809	35230.13
584.169	35452.05
584.529	35431.03
584.889	35752.38
585.249	35733.62
585.609	35755.54
585.969	36261.97
586.329	36282.53
586.688	36393.72
587.048	36758.23
587.408	36725.46
587.768	36985.79
588.127	37316.63
588.487	37424.88
588.846	37983.05
589.206	37881.36
589.565	38254.01
589.925	38789.14
590.284	38799.53
590.643	39183.93
591.003	39653.29
591.362	40050.12
591.721	40286.05
592.08	40564.46
592.44	41185
592.799	41462.51
593.158	41795.84
593.517	42284.41
593.876	42685.53
594.235	43122.58
594.593	43552.17
594.952	43947.64
595.311	44343.57
595.67	44886.38
596.029	45460.15
596.387	45830.76
596.746	46414.25
597.104	46568.82
597.463	46967
597.822	47574.89
598.18	47724.95
598.538	48298.49
598.897	48849.66
599.255	48984.35
599.613	49841.5
599.972	50013.93
600.33	50513.8
600.688	50644.42
601.046	51146.78
601.404	51624.05
601.762	51941.11
602.12	52358.95
602.478	52662.89
602.836	52947.86
603.194	53163.45
603.552	53524.79
603.91	53820.6
604.268	54147.38
604.625	54436.63
604.983	54819.67
605.341	54925.89
605.698	55481.8
606.056	55762.93
606.413	55814.9
606.771	56149.58
607.128	56399.07
607.485	56620.31
607.843	56794.76
608.2	57192.49
608.557	57457.12
608.914	57598.13
609.272	57899.59
609.629	58143.88
609.986	58447.6
610.343	58536.86
610.7	58903.86
611.057	58990.86
611.414	59131.43
611.771	59413.45
612.127	59562.6
612.484	59771.63
612.841	59939.31
613.198	60029.71
613.554	60139.99
613.911	60467.89
614.267	60623.36
614.624	60720.31
614.98	60933.19
615.337	61196
615.693	61323.68
616.05	61458.82
616.406	61652.26
616.762	61709.21
617.118	61828.08
617.475	61905.36
617.831	62093.38
618.187	62202.53
618.543	62369.08
618.899	62586.25
619.255	62650.65
619.611	62685.91
619.967	62894.04
620.323	63017.65
620.678	62969.29
621.034	63114.37
621.39	63156.63
621.746	63199.34
622.101	63469.39
622.457	63364.53
622.812	63506.68
623.168	63525.43
623.523	63525.43
623.879	63525.43
624.234	63525.43
624.589	63525.43
624.945	63525.43
625.3	63525.43
625.655	63525.43
626.01	63525.43
626.365	63525.43
626.72	63525.43
627.075	63525.43
627.43	63525.43
627.785	63525.43
628.14	63525.43
628.495	63525.43
628.85	63525.43
629.205	63525.43
629.559	63525.43
629.914	63525.43
630.269	63525.43
630.623	63525.43
630.978	63525.43
631.332	63525.43
631.687	63525.43
632.041	63525.43
632.396	63525.43
632.75	63525.43
633.104	63525.43
633.459	63525.43
633.813	63525.43
634.167	63525.43
634.521	63525.43
634.875	63525.43
635.229	63525.43
635.583	63525.43
635.937	63525.43
636.291	63525.43
636.645	63525.43
636.999	63525.43
637.352	63525.43
637.706	63525.43
638.06	63525.43
638.413	63525.43
638.767	63525.43
639.121	63525.43
639.474	63525.43
639.828	63525.43
640.181	63525.43
640.534	63525.43
640.888	63525.43
641.241	63525.43
641.594	63525.43
641.947	63525.43
642.301	63525.43
642.654	63525.43
643.007	63525.43
643.36	63525.43
643.713	63525.43
644.066	63525.43
644.419	63525.43
644.771	63525.43
645.124	63525.43
645.477	63525.43
645.83	63508.03
646.182	63516.62
646.535	63500.35
646.888	63525.43
647.24	63507.58
647.593	63525.43
647.945	63500.35
648.298	63441.37
648.65	63342.39
649.002	63228.94
649.355	63231.2
649.707	63168.61
650.059	63217.42
650.411	63503.06
650.763	63521.82
651.115	63525.43
651.467	63525.43
651.819	63525.43
652.171	63525.43
652.523	63525.43
652.875	63525.43
653.227	63525.43
653.578	63525.43
653.93	63525.43
654.282	63524.08
654.633	63525.43
654.985	63521.14
655.337	63525.43
655.688	63524.3
656.039	63525.43
656.391	63495.15
656.742	63525.43
657.094	63511.88
657.445	63516.62
657.796	63522.04
658.147	63476.17
658.498	63519.33
658.849	63525.43
659.2	63477.07
659.551	63479.79
659.902	63525.43
660.253	63497.41
660.604	63518.65
660.955	63502.16
661.306	63520.69
661.656	63480.01
662.007	63481.37
662.358	63514.36
662.708	63486.79
663.059	63453.8
663.409	63417.64
663.76	63497.64
664.11	63511.42
664.461	63495.83
664.811	63515.26
665.161	63511.2
665.511	63481.82
665.862	63444.08
666.212	63481.82
666.562	63510.97
666.912	63449.96
667.262	63470.07
667.612	63476.62
667.962	63464.87
668.312	63416.74
668.662	63502.16
669.011	63509.84
669.361	63475.04
669.711	63512.33
670.06	63432.33
670.41	63420.35
670.76	63409.73
671.109	63481.82
671.459	63425.78
671.808	63392.33
672.157	63464.87
672.507	63339.9
672.856	63393.91
673.205	63403.86
673.554	63454.48
673.904	63342.61
674.253	63496.06
674.602	63399.56
674.951	63112.79
675.3	62982.62
675.649	63372.44
675.998	63316.17
676.346	63387.13
676.695	63385.55
677.044	63169.96
677.393	63277.98
677.741	63331.54
678.09	63178.1
678.438	63225.1
678.787	63268.94
679.135	63231.2
679.484	63094.26
679.832	63143.52
680.181	63068.5
680.529	63126.12
680.877	63007.26
681.225	62995.73
681.573	63168.16
681.922	63018.33
682.27	62936.3
682.618	62982.85
682.966	62913.47
683.314	62907.37
683.661	62846.13
684.009	62731.33
684.357	62725
684.705	62642.52
685.053	62698.56
685.4	62624.44
685.748	62577.66
686.095	62446.14
686.443	62374.5
686.79	62357.78
687.138	62450.89
687.485	62388.51
687.832	62210.67
688.18	62302.64
688.527	62214.06
688.874	62180.38
689.221	62098.58
689.568	62045.47
689.915	61932.48
690.262	61978.36
690.609	61925.02
690.956	61820.17
691.303	61823.56
691.65	61738.81
691.997	61699.27
692.344	61539.27
692.69	61478.71
693.037	61523.9
693.383	61356.23
693.73	61405.49
694.077	61276.91
694.423	61273.06
694.769	61152.84
695.116	61190.58
695.462	61037.14
695.808	60973.64
696.155	61023.81
696.501	60818.16
696.847	60850.48
697.193	60709.69
697.539	60784.49
697.885	60503.14
698.231	60503.37
698.577	60513.76
698.923	60436.93
699.269	60337.27
699.614	60288.23
699.96	60182.25
700.306	60127.78
700.651	60081.91
700.997	60010.95
701.342	59959.88
701.688	59902.7
702.033	59871.74
702.379	59789.49
702.724	59628.14
703.069	59699.09
703.415	59448.93
703.76	59501.59
704.105	59532.09
704.45	59423.17
704.795	59325.77
705.14	59242.83
705.485	59187.7
705.83	59050.75
706.175	59187.92
706.52	59043.07
706.865	58897.53
707.209	58836.74
707.554	58821.15
707.899	58828.38
708.243	58680.59
708.588	58632
708.932	58546.36
709.277	58524.66
709.621	58420.94
709.966	58249.64
710.31	58349.75
710.654	58134.39
710.998	58159.47
711.342	58157.89
711.687	58070.89
712.031	58009.65
712.375	57881.74
712.719	57879.93
713.063	57851.46
713.407	57933.04
713.75	57816.43
714.094	57761.52
714.438	57697.34
714.782	57670.22
715.125	57556.33
715.469	57667.06
715.812	57425.93
716.156	57425.93
716.499	57391.36
716.843	57448.31
717.186	57232.72
717.53	57414.63
717.873	57401.3
718.216	57250.8
718.559	57210.35
718.902	57002.44
719.246	57027.3
719.589	57025.04
719.932	56974.65
720.275	56957.7
720.617	56899.62
720.96	56794.99
721.303	56829.34
721.646	56822.79
721.989	56666.18
722.331	56696.46
722.674	56727.42
723.016	56709.79
723.359	56605.16
723.701	56589.35
724.044	56463.47
724.386	56328.56
724.729	56532.4
725.071	56514.77
725.413	56366.75
725.755	56345.51
726.097	56217.15
726.439	56074.56
726.782	56115.23
727.124	56287.21
727.465	56133.76
727.807	56047.66
728.149	56034.78
728.491	56000.89
728.833	56015.12
729.175	55946.42
729.516	55808.12
729.858	55837.5
730.199	55955.01
730.541	55840.44
730.882	55718.18
731.224	55718.86
731.565	55670.27
731.906	55650.39
732.248	55626.88
732.589	55517.28
732.93	55422.37
733.271	55478.41
733.612	55401.58
733.953	55482.93
734.294	55307.57
734.635	55277.52
734.976	55414.01
735.317	55310.73
735.658	55274.13
735.999	55203.39
736.339	55108.48
736.68	55235.71
737.021	55153.45
737.361	54993.68
737.702	55211.53
738.042	55062.61
738.383	55047.47
738.723	55079.33
739.063	54911.2
739.404	54966.56
739.744	54937.41
740.084	54814.93
740.424	54843.85
740.764	54696.51
741.104	54795.72
741.444	54750.98
741.784	54603.63
742.124	54715.95
742.464	54610.64
742.804	54628.04
743.143	54489.06
743.483	54563.41
743.823	54443.87
744.162	54415.17
744.502	54442.51
744.841	54385.79
745.181	54555.05
745.52	54322.06
745.86	54383.98
746.199	54283.42
746.538	54237.54
746.877	54342.85
747.216	54287.26
747.556	54152.12
747.895	54231.44
748.234	54129.52
748.573	54056.08
748.911	54002.29
749.25	54047.94
749.589	53769.98
749.928	53986.02
750.267	53944.67
750.605	53819.93
750.944	53838.23
751.283	53758.23
751.621	53702.64
751.96	53564.79
752.298	53615.41
752.636	53623.1
752.975	53442.76
753.313	53404.12
753.651	53524.34
753.989	53345.81
754.327	53415.42
