Data from 199_FLMS001491_002.txt Node
Date: Thu Apr 19 16:32:53 BST 2018
User: hsy
Spectrometer: FLMS00149
Trigger mode: 0
Integration Time (sec): 1.000000E-2
Scans to average: 10
Electric dark correction enabled: true
Nonlinearity correction enabled: false
Boxcar width: 0
XAxis mode: Wavelengths
Number of Pixels in Spectrum: 2048
>>>>>Begin Spectral Data<<<<<
341.393	-11.06
341.776	-11.06
342.16	-11.06
342.543	-59.42
342.927	-73.66
343.31	-76.82
343.693	-75.69
344.077	-50.38
344.46	-45.41
344.843	-76.59
345.226	-52.64
345.61	-38.85
345.993	-20.32
346.376	-5.86
346.759	23.97
347.142	19.67
347.525	42.5
347.908	60.58
348.291	76.17
348.674	103.74
349.057	115.94
349.44	123.85
349.823	129.28
350.206	188.48
350.588	229.61
350.971	248.82
351.354	272.1
351.737	287.24
352.119	299.89
352.502	295.6
352.884	316.84
353.267	329.72
353.65	335.6
354.032	348.93
354.414	345.77
354.797	398.65
355.179	372.21
355.562	376.95
355.944	383.05
356.326	372.21
356.709	398.42
357.091	416.27
357.473	402.72
357.855	373.34
358.238	391.42
358.62	421.25
359.002	397.52
359.384	368.82
359.766	418.76
360.148	410.85
360.53	396.61
360.912	412.88
361.294	398.65
361.676	397.07
362.057	404.07
362.439	385.77
362.821	385.99
363.203	377.41
363.584	368.82
363.966	393.9
364.348	386.44
364.729	378.99
365.111	388.7
365.493	377.41
365.874	367.91
366.256	391.87
366.637	369.5
367.019	391.64
367.4	391.87
367.781	412.88
368.163	402.72
368.544	369.72
368.925	385.99
369.306	381.25
369.688	378.54
370.069	373.56
370.45	398.65
370.831	411.75
371.212	374.69
371.593	394.35
371.974	395.48
372.355	400
372.736	396.61
373.117	407.69
373.498	394.13
373.879	389.83
374.26	403.17
374.641	373.56
375.021	391.42
375.402	410.4
375.783	407.91
376.163	411.98
376.544	403.62
376.925	437.29
377.305	440.23
377.686	449.72
378.066	423.51
378.447	427.12
378.827	425.77
379.208	428.48
379.588	424.86
379.968	421.25
380.349	449.95
380.729	426.44
381.109	421.02
381.489	437.29
381.87	458.99
382.25	455.37
382.63	436.84
383.01	473.67
383.39	472.32
383.77	458.08
384.15	445.88
384.53	461.02
384.91	479.32
385.29	463.05
385.67	470.51
386.049	471.19
386.429	481.81
386.809	473.9
387.189	471.19
387.568	482.49
387.948	503.28
388.328	503.73
388.707	506.22
389.087	500.34
389.466	507.12
389.846	491.53
390.225	522.71
390.605	493.79
390.984	515.48
391.363	518.42
391.743	503.96
392.122	533.11
392.501	522.94
392.881	561.13
393.26	552.54
393.639	544.86
394.018	540.34
394.397	557.51
394.776	534.69
395.155	553.67
395.534	554.35
395.913	573.11
396.292	575.14
396.671	582.82
397.05	586.21
397.429	572.65
397.808	568.13
398.186	570.39
398.565	587.12
398.944	601.58
399.323	596.38
399.701	611.07
400.08	610.17
400.458	594.12
400.837	589.15
401.215	616.5
401.594	620.34
401.972	617.4
402.351	634.8
402.729	609.49
403.107	619.21
403.486	645.87
403.864	638.42
404.242	634.8
404.62	658.08
404.999	644.29
405.377	670.05
405.755	659.88
406.133	681.13
406.511	667.79
406.889	703.05
407.267	681.8
407.645	710.05
408.023	701.69
408.401	703.5
408.779	717.51
409.156	743.5
409.534	750.5
409.912	745.53
410.29	771.97
410.667	756.15
411.045	779.88
411.422	759.99
411.8	776.94
412.178	793.44
412.555	799.99
412.933	799.77
413.31	807
413.687	812.87
414.065	866.66
414.442	822.14
414.819	845.87
415.197	843.38
415.574	861.46
415.951	898.97
416.328	858.07
416.705	885.64
417.082	879.99
417.46	905.75
417.837	894.68
418.214	919.99
418.591	927.22
418.967	927.45
419.344	931.74
419.721	906.2
420.098	942.14
420.475	948.92
420.852	970.38
421.228	954.11
421.605	974.23
421.982	973.1
422.358	974.23
422.735	1004.73
423.111	1021.68
423.488	1031.4
423.864	1041.57
424.241	1041.34
424.617	1046.77
424.994	1038.18
425.37	1041.12
425.746	1035.92
426.123	1083.6
426.499	1065.75
426.875	1110.49
427.251	1098.29
427.627	1126.99
428.003	1152.07
428.379	1147.1
428.756	1174.45
429.132	1170.83
429.507	1196.82
429.883	1169.47
430.259	1220.1
430.635	1219.87
431.011	1237.04
431.387	1250.15
431.763	1254.67
432.138	1274.1
432.514	1291.73
432.89	1292.86
433.265	1337.38
433.641	1361.79
434.016	1341.22
434.392	1355.46
434.767	1396.59
435.143	1405.4
435.518	1413.31
435.894	1431.84
436.269	1435.68
436.644	1460.54
437.02	1478.62
437.395	1500.54
437.77	1542.8
438.145	1548.67
438.52	1491.73
438.895	1519.3
439.271	1545.74
439.646	1563.36
440.021	1582.57
440.395	1561.78
440.77	1596.58
441.145	1624.38
441.52	1643.59
441.895	1623.7
442.27	1654.89
442.645	1631.38
443.019	1665.28
443.394	1662.12
443.769	1680.65
444.143	1673.87
444.518	1684.72
444.892	1689.91
445.267	1737.37
445.641	1706.18
446.016	1726.3
446.39	1767.43
446.764	1765.84
447.139	1749.8
447.513	1783.47
447.887	1817.82
448.262	1776.46
448.636	1767.2
449.01	1844.03
449.384	1840.42
449.758	1856.46
450.132	1856.01
450.506	1871.15
450.88	1893.52
451.254	1884.48
451.628	1872.28
452.002	1948.21
452.376	1945.5
452.75	2008.77
453.123	1956.57
453.497	2009.9
453.871	2039.73
454.244	2057.81
454.618	2078.15
454.992	2128.09
455.365	2105.04
455.739	2185.72
456.112	2191.82
456.486	2211.71
456.859	2205.38
457.232	2272.27
457.606	2300.52
457.979	2284.7
458.352	2368.31
458.725	2387.97
459.099	2364.92
459.472	2398.82
459.845	2433.85
460.218	2456.22
460.591	2536.22
460.964	2509.55
461.337	2530.57
461.71	2572.6
462.083	2618.7
462.456	2633.84
462.829	2661.41
463.201	2667.97
463.574	2680.17
463.947	2719.72
464.32	2739.6
464.692	2781.18
465.065	2813.05
465.438	2855.76
465.81	2864.12
466.183	2857.79
466.555	2957.68
466.928	2989.31
467.3	2957.68
467.672	3015.53
468.045	3068.86
468.417	3106.6
468.789	3112.93
469.161	3191.79
469.534	3184.11
469.906	3238.35
470.278	3236.99
470.65	3307.05
471.022	3362.19
471.394	3351.11
471.766	3433.6
472.138	3489.41
472.51	3530.77
472.882	3597.21
473.253	3627.04
473.625	3690.09
473.997	3751.78
474.369	3803.98
474.74	3832.23
475.112	3910.65
475.484	3895.73
475.855	4023.19
476.227	4045.33
476.598	4154.48
476.97	4208.27
477.341	4248.26
477.713	4292.33
478.084	4335.72
478.455	4437.19
478.827	4438.54
479.198	4625.66
479.569	4613.23
479.94	4768.48
480.311	4798.98
480.682	4877.17
481.053	5010.28
481.424	5115.81
481.795	5123.95
482.166	5211.85
482.537	5270.38
482.908	5436.26
483.279	5431.28
483.65	5546.76
484.021	5677.15
484.391	5707.66
484.762	5839.86
485.133	5850.26
485.503	5904.27
485.874	6047.99
486.244	6127.54
486.615	6297.93
486.985	6326.18
487.356	6470.35
487.726	6524.59
488.097	6660.86
488.467	6695.88
488.837	6846.16
489.207	6866.95
489.578	7011.13
489.948	7173.38
490.318	7219.94
490.688	7247.96
491.058	7374.51
491.428	7496.31
491.798	7550.1
492.168	7715.74
492.538	7817.21
492.908	7884.1
493.278	7970.2
493.648	7958
494.017	8157.09
494.387	8168.84
494.757	8261.72
495.126	8375.84
495.496	8379.91
495.866	8534.93
496.235	8563.86
496.605	8630.07
496.974	8733.8
497.344	8792.78
497.713	8895.6
498.082	8977.18
498.452	9070.74
498.821	9127.68
499.19	9107.8
499.559	9193.44
499.928	9328.13
500.298	9352.76
500.667	9444.51
501.036	9384.85
501.405	9456.26
501.774	9496.26
502.143	9607.67
502.512	9679.76
502.88	9759.08
503.249	9834.56
503.618	9874.78
503.987	9927.89
504.356	9985.97
504.724	10072.97
505.093	10075.91
505.462	10123.14
505.83	10189.12
506.199	10345.5
506.567	10381.89
506.936	10398.84
507.304	10461.43
507.672	10587.76
508.041	10613.97
508.409	10716.79
508.777	10811.03
509.145	10869.33
509.514	10946.84
509.882	10990.01
510.25	10991.14
510.618	11070.01
510.986	11128.76
511.354	11220.74
511.722	11403.56
512.09	11549.54
512.458	11434.97
512.826	11548.64
513.193	11549.99
513.561	11731.23
513.929	11730.55
514.297	11838.8
514.664	11906.14
515.032	12072.24
515.4	12187.72
515.767	12195.4
516.135	12265.68
516.502	12216.87
516.869	12480.36
517.237	12559.91
517.604	12523.75
517.972	12732.11
518.339	12733.69
518.706	12831.77
519.073	12887.58
519.44	13029.05
519.808	13104.53
520.175	13189.5
520.542	13347.23
520.909	13468.36
521.276	13515.82
521.643	13658.41
522.009	13821.57
522.376	13907.22
522.743	13971.85
523.11	14168.46
523.477	14323.48
523.843	14394.89
524.21	14613.64
524.577	14716.01
524.943	14760.76
525.31	14860.41
525.676	15001.43
526.043	15192.61
526.409	15290.46
526.776	15465.82
527.142	15449.78
527.508	15646.16
527.874	15830.56
528.241	15824
528.607	15976.32
528.973	16135.86
529.339	16207.27
529.705	16315.97
530.071	16494.04
530.437	16587.37
530.803	16807.26
531.169	16841.15
531.535	16995.5
531.901	17023.97
532.267	17126.57
532.632	17284.53
532.998	17366.79
533.364	17461.48
533.73	17516.84
534.095	17750.06
534.461	17835.93
534.826	17873.44
535.192	17937.85
535.557	18096.94
535.923	18221.23
536.288	18196.82
536.653	18560.43
537.019	18399.98
537.384	18580.99
537.749	18606.98
538.114	18691.05
538.479	18787.99
538.845	18794.32
539.21	18889.23
539.575	18929.01
539.94	19006.97
540.305	19215.78
540.67	19166.97
541.034	19386.17
541.399	19413.06
541.764	19399.96
542.129	19513.4
542.494	19623.9
542.858	19710.46
543.223	19671.81
543.587	19869.32
543.952	19878.36
544.316	19954.97
544.681	19931.69
545.045	20160.84
545.41	20152.93
545.774	20241.06
546.138	20248.75
546.503	20417.33
546.867	20438.8
547.231	20502.07
547.595	20604.9
547.959	20735.29
548.324	20820.26
548.688	20761.95
549.052	20949.29
549.416	20970.76
549.779	21086.92
550.143	21191.32
550.507	21227.93
550.871	21375.05
551.235	21282.62
551.599	21544.53
551.962	21439.9
552.326	21661.82
552.689	21743.4
553.053	21737.07
553.417	21928.25
553.78	22071.3
554.143	22122.82
554.507	22259.09
554.87	22353.32
555.234	22652.53
555.597	22424.96
555.96	22562.81
556.323	22749.47
556.686	22806.65
557.05	23021.78
557.413	23053.65
557.776	23143.59
558.139	23224.71
558.502	23371.38
558.865	23625.16
559.228	23662.44
559.59	23749.9
559.953	23913.06
560.316	24186.72
560.679	24122.09
561.041	24318.92
561.404	24481.18
561.767	24754.17
562.129	24654.73
562.492	24925.23
562.854	25162.52
563.217	25045.46
563.579	25344.66
563.941	25552.34
564.304	25696.97
564.666	25924.3
565.028	25970.86
565.39	26221.47
565.753	26458.08
566.115	26494.91
566.477	26730.38
566.839	26950.27
567.201	27253.08
567.563	27094.89
567.925	27322.91
568.287	27552.06
568.648	27785.05
569.01	27951.6
569.372	28209.44
569.734	28252.83
570.095	28497.57
570.457	28741.86
570.819	28856.2
571.18	28947.05
571.542	29378.45
571.903	29375.06
572.265	29612.79
572.626	29853.24
572.987	29989.51
573.349	30198.54
573.71	30235.38
574.071	30465.2
574.432	30723.95
574.794	30921.91
575.155	31059.08
575.516	31059.99
575.877	31295.91
576.238	31472.18
576.599	31646.41
576.96	31684.83
577.32	31863.58
577.681	32005.73
578.042	32325.72
578.403	32341.99
578.763	32224.93
579.124	32548.31
579.485	32865.14
579.845	32967.96
580.206	32942.65
580.566	33134.06
580.927	33172.02
581.287	33505.35
581.648	33374.5
582.008	33685.91
582.368	33759.13
582.728	33858.33
583.089	33883.19
583.449	34044.77
583.809	34277.53
584.169	34350.98
584.529	34350.3
584.889	34801.81
585.249	34704.86
585.609	34683.62
585.969	35078.19
586.329	35305.3
586.688	35517.95
587.048	35642.92
587.408	35967.88
587.768	36101.89
588.127	36305.95
588.487	36622.55
588.846	37148.42
589.206	36855.32
589.565	37281.97
589.925	37805.8
590.284	38050.54
590.643	38315.84
591.003	38776.4
591.362	39285.08
591.721	39476.94
592.08	39794.9
592.44	40501.77
592.799	40665.39
593.158	41112.83
593.517	41379.27
593.876	41958.23
594.235	42119.13
594.593	42680.25
594.952	43225.54
595.311	43530.39
595.67	43941.68
596.029	44617.82
596.387	45184.81
596.746	45709.09
597.104	46019.6
597.463	46336.2
597.822	46931.21
598.18	47196.06
598.538	47722.15
598.897	48330.95
599.255	48477.38
599.613	49324.59
599.972	49471.71
600.33	49904.01
600.688	50066.95
601.046	50764.1
601.404	51217.2
601.762	51424.65
602.12	52006.78
602.478	52302.82
602.836	52669.59
603.194	52772.86
603.552	53157.71
603.91	53367.65
604.268	53789.33
604.625	54066.39
604.983	54464.12
605.341	54653.04
605.698	55024.33
606.056	55418.9
606.413	55536.18
606.771	55872.22
607.128	56095.04
607.485	56311.3
607.843	56503.61
608.2	56810.72
608.557	57182.69
608.914	57272.63
609.272	57582.23
609.629	57893.86
609.986	58140.41
610.343	58239.61
610.7	58619.49
611.057	58711.01
611.414	58936.77
611.771	59145.58
612.127	59356.87
612.484	59527.49
612.841	59734.71
613.198	59805.22
613.554	59942.39
613.911	60293.57
614.267	60460.57
614.624	60545.09
614.98	60732.2
615.337	60965.42
615.693	61071.63
616.05	61232.3
616.406	61447.66
616.762	61433.88
617.118	61624.38
617.475	61684.72
617.831	61933.98
618.187	62007.88
618.543	62209.9
618.899	62381.2
619.255	62406.96
619.611	62479.05
619.967	62634.53
620.323	62825.71
620.678	62795.2
621.034	62898.02
621.39	62913.39
621.746	63024.8
622.101	63372.59
622.457	63246.26
622.812	63365.13
623.168	63479.7
623.523	63478.12
623.879	63508.17
624.234	63502.3
624.589	63516.31
624.945	63516.31
625.3	63516.31
625.655	63516.31
626.01	63516.31
626.365	63516.31
626.72	63516.31
627.075	63516.31
627.43	63516.31
627.785	63516.31
628.14	63516.31
628.495	63516.31
628.85	63516.31
629.205	63516.31
629.559	63516.31
629.914	63516.31
630.269	63516.31
630.623	63516.31
630.978	63516.31
631.332	63516.31
631.687	63516.31
632.041	63516.31
632.396	63516.31
632.75	63516.31
633.104	63516.31
633.459	63516.31
633.813	63516.31
634.167	63516.31
634.521	63516.31
634.875	63516.31
635.229	63516.31
635.583	63516.31
635.937	63516.31
636.291	63516.31
636.645	63516.31
636.999	63516.31
637.352	63516.31
637.706	63516.31
638.06	63516.31
638.413	63516.31
638.767	63516.31
639.121	63516.31
639.474	63516.31
639.828	63516.31
640.181	63516.31
640.534	63516.31
640.888	63516.31
641.241	63516.31
641.594	63516.31
641.947	63516.31
642.301	63516.31
642.654	63516.31
643.007	63516.31
643.36	63516.31
643.713	63516.31
644.066	63516.31
644.419	63516.31
644.771	63516.31
645.124	63499.81
645.477	63502.98
645.83	63461.85
646.182	63394.51
646.535	63351.79
646.888	63465.01
647.24	63366.26
647.593	63448.97
647.945	63360.38
648.298	63310.21
648.65	63206.94
649.002	63103.44
649.355	63105.93
649.707	63031.13
650.059	63018.92
650.411	63351.57
650.763	63457.55
651.115	63516.31
651.467	63516.31
651.819	63516.31
652.171	63512.47
652.523	63516.31
652.875	63516.31
653.227	63444
653.578	63512.02
653.93	63486.03
654.282	63446.26
654.633	63459.36
654.985	63475.41
655.337	63491.68
655.688	63445.13
656.039	63501.85
656.391	63339.37
656.742	63432.24
657.094	63381.85
657.445	63388.63
657.796	63419.36
658.147	63394.96
658.498	63466.82
658.849	63451.68
659.2	63448.06
659.551	63362.87
659.902	63466.37
660.253	63341.17
660.604	63443.09
660.955	63311.8
661.306	63420.49
661.656	63369.42
662.007	63377.78
662.358	63380.95
662.708	63392.25
663.059	63353.83
663.409	63189.09
663.76	63329.87
664.11	63345.69
664.461	63423.66
664.811	63357.44
665.161	63357.9
665.511	63310.21
665.862	63292.81
666.212	63352.47
666.562	63408.06
666.912	63330.78
667.262	63292.59
667.612	63301.63
667.962	63284.23
668.312	63210.78
668.662	63370.78
669.011	63305.92
669.361	63253.49
669.711	63346.82
670.06	63265.24
670.41	63183.44
670.76	63216.21
671.109	63280.61
671.459	63256.43
671.808	63240.16
672.157	63270.89
672.507	63140.05
672.856	63149.77
673.205	63156.32
673.554	63235.87
673.904	63160.16
674.253	63331.91
674.602	63120.39
674.951	62880.17
675.3	62739.61
675.649	63148.86
675.998	63165.58
676.346	63134.85
676.695	63162.87
677.044	63005.82
677.393	63125.81
677.741	63138.92
678.09	63044.01
678.438	63033.61
678.787	63065.25
679.135	63079.49
679.484	62841.53
679.832	63018.02
680.181	62908.64
680.529	62916.55
680.877	62848.53
681.225	62808.98
681.573	62922.43
681.922	62811.02
682.27	62776.22
682.618	62787.52
682.966	62733.28
683.314	62720.85
683.661	62694.86
684.009	62557.92
684.357	62532.38
684.705	62495.09
685.053	62526.05
685.4	62402.22
685.748	62362.22
686.095	62357.92
686.443	62213.75
686.79	62215.33
687.138	62267.08
687.485	62234.31
687.832	62112.51
688.18	62126.97
688.527	62029.34
688.874	61999.74
689.221	61984.15
689.568	61868.44
689.915	61794.1
690.262	61799.52
690.609	61767.66
690.956	61672.06
691.303	61670.93
691.65	61537.15
691.997	61551.62
692.344	61385.29
692.69	61308.23
693.037	61404.73
693.383	61218.52
693.73	61260.55
694.077	61153.89
694.423	61084.28
694.769	61058.07
695.116	61027.11
695.462	60909.15
695.808	60862.37
696.155	60865.31
696.501	60676.38
696.847	60772.88
697.193	60578.53
697.539	60564.52
697.885	60405.21
698.231	60324.08
698.577	60381.93
698.923	60300.8
699.269	60150.07
699.614	60089.73
699.96	60075.95
700.306	60024.2
700.651	59877.54
700.997	59764.09
701.342	59800.93
701.688	59787.14
702.033	59605
702.379	59669.63
702.724	59579.01
703.069	59602.06
703.415	59336.99
703.76	59393.93
704.105	59369.53
704.45	59204.11
704.795	59112.13
705.14	59063.77
705.485	59057.9
705.83	58925.24
706.175	58946.03
706.52	58848.41
706.865	58767.51
707.209	58666.04
707.554	58619.94
707.899	58632.14
708.243	58549.44
708.588	58445.26
708.932	58350.34
709.277	58372.94
709.621	58236.45
709.966	58188.31
710.31	58185.6
710.654	57933.41
710.998	58056.57
711.342	57956.46
711.687	57896.34
712.031	57969.79
712.375	57746.74
712.719	57758.95
713.063	57689.34
713.407	57758.04
713.75	57654.09
714.094	57598.5
714.438	57497.49
714.782	57441.67
715.125	57289.81
715.469	57402.8
715.812	57226.76
716.156	57162.8
716.499	57193.54
716.843	57186.76
717.186	57074.45
717.53	57249.58
717.873	57116.7
718.216	57040.32
718.559	56959.87
718.902	56702.03
719.246	56790.16
719.589	56739.99
719.932	56568.7
720.275	56620.22
720.617	56644.4
720.96	56520.79
721.303	56593.55
721.646	56509.49
721.989	56423.84
722.331	56480.11
722.674	56391.98
723.016	56300.45
723.359	56256.61
723.701	56307.01
724.044	56194.47
724.386	56013.46
724.729	56196.05
725.071	56125.77
725.413	56060.69
725.755	56038.31
726.097	56004.19
726.439	55907.24
726.782	55820.02
727.124	55990.41
727.465	55893.01
727.807	55784.54
728.149	55834.48
728.491	55728.94
728.833	55772.33
729.175	55669.96
729.516	55557.42
729.858	55556.75
730.199	55650.75
730.541	55593.35
730.882	55467.03
731.224	55432
731.565	55306.58
731.906	55456.41
732.248	55424.55
732.589	55217.77
732.93	55191.33
733.271	55190.65
733.612	55152.69
733.953	55221.16
734.294	55106.59
734.635	55000.15
734.976	55176.87
735.317	55051.67
735.658	55071.33
735.999	54986.82
736.339	55013.03
736.68	55041.05
737.021	54945.46
737.361	54853.04
737.702	54964.9
738.042	54801.29
738.383	54840.61
738.723	54911.79
739.063	54721.74
739.404	54844.67
739.744	54719.93
740.084	54646.26
740.424	54735.75
740.764	54531.46
741.104	54708.41
741.444	54491.91
741.784	54395.19
742.124	54545.92
742.464	54393.39
742.804	54441.97
743.143	54329.89
743.483	54348.42
743.823	54205.59
744.162	54297.12
744.502	54366.49
744.841	54133.05
745.181	54301.41
745.52	54153.39
745.86	54144.58
746.199	54105.26
746.538	54084.24
746.877	54080.17
747.216	54092.6
747.556	53939.61
747.895	54007.41
748.234	53901.2
748.573	53876.56
748.911	53803.35
749.25	53789.33
749.589	53698.94
749.928	53694.2
750.267	53829.56
750.605	53546.4
750.944	53669.56
751.283	53508.89
751.621	53534.43
751.96	53353.87
752.298	53411.94
752.636	53379.4
752.975	53345.96
753.313	53119.97
753.651	53307.77
753.989	53154.55
754.327	53158.39
754.666	52958.85
755.004	53069.58
