Data from 199_FLMS001491_003.txt Node
Date: Thu Apr 19 16:32:55 BST 2018
User: hsy
Spectrometer: FLMS00149
Trigger mode: 0
Integration Time (sec): 1.000000E-2
Scans to average: 10
Electric dark correction enabled: true
Nonlinearity correction enabled: false
Boxcar width: 0
XAxis mode: Wavelengths
Number of Pixels in Spectrum: 2048
>>>>>Begin Spectral Data<<<<<
341.393	12.25
341.776	12.25
342.16	12.25
342.543	-65.49
342.927	-68.66
343.31	-77.7
343.693	-70.46
344.077	-62.55
344.46	-68.66
344.843	-61.42
345.226	-39.5
345.61	-26.62
345.993	-10.58
346.376	0.72
346.759	7.27
347.142	19.48
347.525	23.77
347.908	57.89
348.291	81.17
348.674	108.51
349.057	118.68
349.44	138.12
349.823	152.58
350.206	198.91
350.588	236.65
350.971	262.63
351.354	274.84
351.737	301.28
352.119	295.18
352.502	319.36
352.884	342.63
353.267	336.76
353.65	333.59
354.032	342.18
354.414	347.38
354.797	378.34
355.179	376.08
355.562	397.55
355.944	386.47
356.326	419.92
356.709	378.11
357.091	388.96
357.473	391.67
357.855	423.99
358.238	407.49
358.62	379.92
359.002	395.06
359.384	425.57
359.766	396.87
360.148	399.13
360.53	421.27
360.912	423.31
361.294	393.93
361.676	397.32
362.057	402.97
362.439	399.58
362.821	400.71
363.203	399.13
363.584	405
363.966	381.05
364.348	397.32
364.729	386.92
365.111	414.95
365.493	402.52
365.874	398.45
366.256	378.56
366.637	398.22
367.019	396.87
367.4	400.94
367.781	381.95
368.163	390.77
368.544	406.36
368.925	394.38
369.306	413.36
369.688	416.08
370.069	387.38
370.45	403.65
370.831	415.17
371.212	393.48
371.593	370.43
371.974	389.18
372.355	391.67
372.736	419.47
373.117	392.8
373.498	402.74
373.879	372.69
374.26	416.08
374.641	391.67
375.021	381.73
375.402	428.73
375.783	442.74
376.163	445.68
376.544	426.47
376.925	424.89
377.305	445.91
377.686	445.23
378.066	426.02
378.447	431.9
378.827	423.76
379.208	441.16
379.588	429.64
379.968	460.37
380.349	448.17
380.729	448.84
381.109	456.75
381.489	456.98
381.87	448.62
382.25	443.19
382.63	449.97
383.01	472.57
383.39	463.76
383.77	451.1
384.15	459.24
384.53	486.58
384.91	474.15
385.29	481.61
385.67	496.07
386.049	487.49
386.429	482.06
386.809	479.58
387.189	485.68
387.568	494.72
387.948	504.44
388.328	504.89
388.707	497.43
389.087	493.36
389.466	500.37
389.846	492.46
390.225	532.68
390.605	527.94
390.984	540.82
391.363	517.54
391.743	546.69
392.122	534.94
392.501	540.82
392.881	557.09
393.26	533.81
393.639	539.01
394.018	573.13
394.397	576.52
394.776	560.03
395.155	556.64
395.534	560.48
395.913	567.26
396.292	565.9
396.671	599.57
397.05	579.01
397.429	556.64
397.808	587.6
398.186	611.55
398.565	610.2
398.944	600.7
399.323	613.36
399.701	620.82
400.08	616.3
400.458	616.52
400.837	637.09
401.215	624.66
401.594	641.16
401.972	643.19
402.351	666.92
402.729	655.17
403.107	636.18
403.486	650.65
403.864	657.88
404.242	638.67
404.62	653.81
404.999	684.54
405.377	680.7
405.755	700.36
406.133	700.81
406.511	677.99
406.889	705.79
407.267	706.01
407.645	717.31
408.023	739.68
408.401	701.27
408.779	729.51
409.156	741.72
409.534	738.33
409.912	761.38
410.29	769.51
410.667	766.8
411.045	749.85
411.422	775.39
411.8	805.9
412.178	813.13
412.555	817.42
412.933	842.51
413.31	847.48
413.687	844.77
414.065	862.84
414.442	845.22
414.819	852
415.197	890.87
415.574	887.93
415.951	911.2
416.328	873.69
416.705	888.38
417.082	901.26
417.46	919.11
417.837	903.97
418.214	924.09
418.591	927.7
418.967	937.42
419.344	938.55
419.721	946.91
420.098	939
420.475	969.96
420.852	995.27
421.228	974.93
421.605	989.39
421.982	1000.47
422.358	1005.21
422.735	1003.41
423.111	1009.28
423.488	1027.36
423.864	1063.74
424.241	1061.71
424.617	1060.35
424.994	1062.61
425.37	1102.39
425.746	1096.74
426.123	1079.56
426.499	1091.77
426.875	1115.04
427.251	1106.91
427.627	1142.16
428.003	1190.29
428.379	1164.53
428.756	1189.84
429.132	1191.88
429.507	1173.12
429.883	1219.9
430.259	1212.44
430.635	1254.25
431.011	1263.74
431.387	1295.15
431.763	1291.31
432.138	1310.06
432.514	1311.19
432.89	1317.07
433.265	1368.37
433.641	1362.72
434.016	1368.37
434.392	1416.73
434.767	1405.43
435.143	1426.22
435.518	1458.31
435.894	1443.39
436.269	1488.14
436.644	1501.25
437.02	1511.64
437.395	1494.92
437.77	1548.48
438.145	1543.28
438.52	1551.41
438.895	1580.79
439.271	1573.79
439.646	1587.35
440.021	1595.48
440.395	1616.05
440.77	1569.94
441.145	1602.71
441.52	1631.64
441.895	1642.49
442.27	1682.03
442.645	1637.97
443.019	1677.51
443.394	1682.26
443.769	1693.11
444.143	1693.56
444.518	1724.74
444.892	1722.48
445.267	1715.7
445.641	1744.18
446.016	1752.09
446.39	1780.79
446.764	1774.91
447.139	1774.68
447.513	1781.92
447.887	1774.68
448.262	1813.55
448.636	1832.99
449.01	1866.43
449.384	1876.6
449.758	1868.24
450.132	1893.55
450.506	1907.11
450.88	1917.28
451.254	1913.89
451.628	1954.12
452.002	1958.86
452.376	2004.28
452.75	1989.14
453.123	2035.24
453.497	2034.34
453.871	2076.82
454.244	2112.76
454.618	2123.38
454.992	2140.1
455.365	2155.47
455.739	2185.52
456.112	2195.92
456.486	2202.47
456.859	2268.91
457.232	2287.44
457.606	2289.02
457.979	2329.92
458.352	2375.57
458.725	2397.04
459.099	2390.26
459.472	2439.75
459.845	2482.24
460.218	2494.89
460.591	2503.93
460.964	2555.68
461.337	2597.49
461.71	2594.55
462.083	2648.56
462.456	2649.69
462.829	2715.45
463.201	2754.77
463.574	2757.26
463.947	2784.38
464.32	2799.74
464.692	2818.95
465.065	2859.85
465.438	2842.68
465.81	2926.29
466.183	2949.12
466.555	2985.27
466.928	3053.07
467.3	2991.83
467.672	3056.69
468.045	3148.66
468.417	3106.18
468.789	3133.97
469.161	3187.98
469.534	3256.91
469.906	3267.98
470.278	3319.05
470.65	3338.49
471.022	3383.23
471.394	3426.84
471.766	3464.81
472.138	3544.13
472.51	3598.82
472.882	3637.23
473.253	3670
473.625	3709.32
473.997	3770.11
474.369	3806.72
474.74	3832.48
475.112	3925.14
475.484	3945.48
475.855	4013.5
476.227	4112.7
476.598	4159.03
476.97	4214.62
477.341	4306.82
477.713	4330.1
478.084	4411.9
478.455	4469.53
478.827	4537.55
479.198	4702.74
479.569	4706.13
479.94	4840.82
480.311	4822.06
480.682	4956.52
481.053	5071.32
481.424	5130.08
481.795	5200.58
482.166	5249.17
482.537	5372.33
482.908	5496.17
483.279	5544.76
483.65	5612.1
484.021	5722.15
484.391	5764.41
484.762	5880.79
485.133	5925.31
485.503	6044.4
485.874	6127.56
486.244	6169.6
486.615	6314
486.985	6442.81
487.356	6522.58
487.726	6611.62
488.097	6789.02
488.467	6799.86
488.837	6964.83
489.207	6973.87
489.578	7161.21
489.948	7174.99
490.318	7308.1
490.688	7308.32
491.058	7513.97
491.428	7583.57
491.798	7646.17
492.168	7797.8
492.538	7848.42
492.908	7959.38
493.278	8066.04
493.648	8134.29
494.017	8241.63
494.387	8265.36
494.757	8369.31
495.126	8499.93
495.496	8523.21
495.866	8610.66
496.235	8656.99
496.605	8765.69
496.974	8889.98
497.344	8946.7
497.713	9069.86
498.082	9044.32
498.452	9157.09
498.821	9205
499.19	9197.99
499.559	9364.54
499.928	9447.25
500.298	9436.18
500.667	9555.5
501.036	9527.93
501.405	9637.08
501.774	9658.32
502.143	9783.97
502.512	9859.67
502.88	9913.91
503.249	9933.11
503.618	9991.42
503.987	10078.42
504.356	10154.13
504.724	10197.06
505.093	10246.55
505.462	10233.45
505.83	10237.06
506.199	10395.02
506.567	10552.31
506.936	10585.07
507.304	10667.33
507.672	10598.63
508.041	10794.33
508.409	10851.73
508.777	10905.74
509.145	10958.17
509.514	10963.14
509.882	11157.04
510.25	11141.67
510.618	11216.24
510.986	11288.56
511.354	11313.19
511.722	11546.63
512.09	11534.2
512.458	11559.96
512.826	11692.84
513.193	11689.68
513.561	11870.24
513.929	11956.11
514.297	11991.37
514.664	12079.05
515.032	12164.24
515.4	12273.39
515.767	12341.19
516.135	12406.95
516.502	12352.26
516.869	12611.46
517.237	12656.21
517.604	12550.9
517.972	12872.47
518.339	12820.04
518.706	12994.95
519.073	13009.42
519.44	13154.72
519.808	13306.81
520.175	13359.92
520.542	13568.95
520.909	13614.37
521.276	13658.44
521.643	13886
522.009	13999.45
522.376	14078.09
522.743	14120.35
523.11	14342.49
523.477	14467.91
523.843	14483.28
524.21	14772.99
524.577	14810.27
524.943	14876.94
525.31	15063.38
525.676	15288
526.043	15398.28
526.409	15415.91
526.776	15617.03
527.142	15753.75
527.508	15836.24
527.874	15987.42
528.241	16077.59
528.607	16242.55
528.973	16411.14
529.339	16400.74
529.705	16747.4
530.071	16782.43
530.437	16945.81
530.803	17031.68
531.169	17144.45
531.535	17243.66
531.901	17278.68
532.267	17392.35
532.632	17597.09
532.998	17539.92
533.364	17803.64
533.73	17845.9
534.095	17983.52
534.461	18024.88
534.826	18165.89
535.192	18287.25
535.557	18452.89
535.923	18321.59
536.288	18590.51
536.653	18645.43
537.019	18676.39
537.384	18804.07
537.749	18886.33
538.114	19109.82
538.479	19073.89
538.845	19178.3
539.21	19173.78
539.575	19302.13
539.94	19449.25
540.305	19490.83
540.67	19510.94
541.034	19690.37
541.399	19658.73
541.764	19711.39
542.129	19809.47
542.494	19917.48
542.858	19910.93
543.223	19922.68
543.587	20084.94
543.952	20218.49
544.316	20241.77
544.681	20282.9
545.045	20425.72
545.41	20498.71
545.774	20472.72
546.138	20618.71
546.503	20658.03
546.867	20708.2
547.231	20965.14
547.595	20941.41
547.959	21045.14
548.324	21098.92
548.688	21174.63
549.052	21226.38
549.416	21284.68
549.779	21342.08
550.143	21455.52
550.507	21574.39
550.871	21631.34
551.235	21649.42
551.599	21836.08
551.962	21926.92
552.326	22075.85
552.689	22060.03
553.053	21995.17
553.417	22227.48
553.78	22602.39
554.143	22554.93
554.507	22566.91
554.87	22718.09
555.234	22955.6
555.597	22758.77
555.96	23013.9
556.323	23069.27
556.686	23163.28
557.05	23338.64
557.413	23438.97
557.776	23502.48
558.139	23640.1
558.502	23754.9
558.865	23950.6
559.228	24068.11
559.59	24110.14
559.953	24294.09
560.316	24606.63
560.679	24524.37
561.041	24821.08
561.404	24939.27
561.767	25197.57
562.129	25205.03
562.492	25457.9
562.854	25494.51
563.217	25543.1
563.579	25742.87
563.941	25960.72
564.304	26105.34
564.666	26348.73
565.028	26418.1
565.39	26598.21
565.753	26864.19
566.115	26916.4
566.477	27207.46
566.839	27228.93
567.201	27649.48
567.563	27732.65
567.925	27986.65
568.287	28062.36
568.648	28224.16
569.01	28386.64
569.372	28759.06
569.734	28830.7
570.095	29131.71
570.457	29300.74
570.819	29507.52
571.18	29524.69
571.542	29855.3
571.903	29968.29
572.265	30274.95
572.626	30404.44
572.987	30499.13
573.349	30800.81
573.71	30909.74
574.071	31231.54
574.432	31416.17
574.794	31623.17
575.155	31522.83
575.516	31734.35
575.877	32021.12
576.238	31935.25
576.599	32215.47
576.96	32459.75
577.32	32591.95
577.681	32687.09
578.042	32935.45
578.403	32988.78
578.763	33163.24
579.124	33144.26
579.485	33547.63
579.845	33606.62
580.206	33699.04
580.566	33747.4
580.927	33996.21
581.287	34178.8
581.648	34123.89
582.008	34421.96
582.368	34469.42
582.728	34537.67
583.089	34666.93
583.449	34814.95
583.809	35059.23
584.169	35282.96
584.529	35152.79
584.889	35573.12
585.249	35431.88
585.609	35627.35
585.969	35998.42
586.329	35962.94
586.688	36359.09
587.048	36482.25
587.408	36687.21
587.768	37031.39
588.127	37249.01
588.487	37361.32
588.846	37976.44
589.206	37948.65
589.565	38400.84
589.925	38910.66
590.284	39069.75
590.643	39462.28
591.003	39888.26
591.362	40250.51
591.721	40685.07
592.08	41029.92
592.44	41506.52
592.799	41908.54
593.158	42267.63
593.517	42605.93
593.876	43107.16
594.235	43501.72
594.593	43936.97
594.952	44334.47
595.311	44834.34
595.67	45369.92
596.029	45875.22
596.387	46560.85
596.746	47013.95
597.104	47225.47
597.463	47742.06
597.822	48285.78
598.18	48525.55
598.538	48897.51
598.897	49539.53
599.255	49729.58
599.613	50616.34
599.972	50662.21
600.33	51038.7
600.688	51278.24
601.046	51796.87
601.404	52378.1
601.762	52580.35
602.12	52995.03
602.478	53289.49
602.836	53618.29
603.194	53927.89
603.552	54267.77
603.91	54338.95
604.268	54913.85
604.625	55081.31
604.983	55482.2
605.341	55590.67
605.698	55951.11
606.056	56417.77
606.413	56510.87
606.771	56885.33
607.128	57054.81
607.485	57184.53
607.843	57391.53
608.2	57718.07
608.557	58051.62
608.914	58189.92
609.272	58474.66
609.629	58745.62
609.986	59043.46
610.343	59120.07
610.7	59507.4
611.057	59536.56
611.414	59666.95
611.771	59956.21
612.127	60244.11
612.484	60381.73
612.841	60602.97
613.198	60697.88
613.554	60778.33
613.911	61073.69
614.267	61235.95
614.624	61326.34
614.98	61527.24
615.337	61845.87
615.693	61837.06
616.05	62026.66
616.406	62202.47
616.762	62236.37
617.118	62329.7
617.475	62474.56
617.831	62729.01
618.187	62818.73
618.543	62924.72
618.899	63170.36
619.255	63164.03
619.611	63246.29
619.967	63417.13
620.323	63516.79
620.678	63498.26
621.034	63518.15
621.39	63523.34
621.746	63523.34
622.101	63523.34
622.457	63523.34
622.812	63523.34
623.168	63523.34
623.523	63523.34
623.879	63523.34
624.234	63523.34
624.589	63523.34
624.945	63523.34
625.3	63523.34
625.655	63523.34
626.01	63523.34
626.365	63523.34
626.72	63523.34
627.075	63523.34
627.43	63523.34
627.785	63523.34
628.14	63523.34
628.495	63523.34
628.85	63523.34
629.205	63523.34
629.559	63523.34
629.914	63523.34
630.269	63523.34
630.623	63523.34
630.978	63523.34
631.332	63523.34
631.687	63523.34
632.041	63523.34
632.396	63523.34
632.75	63523.34
633.104	63523.34
633.459	63523.34
633.813	63523.34
634.167	63523.34
634.521	63523.34
634.875	63523.34
635.229	63523.34
635.583	63523.34
635.937	63523.34
636.291	63523.34
636.645	63523.34
636.999	63523.34
637.352	63523.34
637.706	63523.34
638.06	63523.34
638.413	63523.34
638.767	63523.34
639.121	63523.34
639.474	63523.34
639.828	63523.34
640.181	63523.34
640.534	63523.34
640.888	63523.34
641.241	63523.34
641.594	63523.34
641.947	63523.34
642.301	63523.34
642.654	63523.34
643.007	63523.34
643.36	63523.34
643.713	63523.34
644.066	63523.34
644.419	63523.34
644.771	63523.34
645.124	63523.34
645.477	63523.34
645.83	63523.34
646.182	63523.34
646.535	63523.34
646.888	63523.34
647.24	63523.34
647.593	63523.34
647.945	63523.34
648.298	63523.34
648.65	63523.34
649.002	63523.34
649.355	63523.34
649.707	63523.34
650.059	63523.34
650.411	63523.34
650.763	63523.34
651.115	63523.34
651.467	63523.34
651.819	63523.34
652.171	63523.34
652.523	63523.34
652.875	63523.34
653.227	63523.34
653.578	63523.34
653.93	63523.34
654.282	63523.34
654.633	63523.34
654.985	63523.34
655.337	63523.34
655.688	63523.34
656.039	63523.34
656.391	63523.34
656.742	63523.34
657.094	63523.34
657.445	63523.34
657.796	63523.34
658.147	63523.34
658.498	63523.34
658.849	63523.34
659.2	63523.34
659.551	63523.34
659.902	63523.34
660.253	63523.34
660.604	63523.34
660.955	63523.34
661.306	63523.34
661.656	63523.34
662.007	63523.34
662.358	63523.34
662.708	63523.34
663.059	63523.34
663.409	63523.34
663.76	63523.34
664.11	63523.34
664.461	63523.34
664.811	63523.34
665.161	63523.34
665.511	63523.34
665.862	63523.34
666.212	63523.34
666.562	63523.34
666.912	63523.34
667.262	63523.34
667.612	63523.34
667.962	63523.34
668.312	63523.34
668.662	63523.34
669.011	63523.34
669.361	63523.34
669.711	63523.34
670.06	63523.34
670.41	63523.34
670.76	63523.34
671.109	63523.34
671.459	63523.34
671.808	63523.34
672.157	63523.34
672.507	63523.34
672.856	63523.34
673.205	63523.34
673.554	63523.34
673.904	63523.34
674.253	63523.34
674.602	63523.34
674.951	63485.15
675.3	63492.16
675.649	63523.34
675.998	63523.34
676.346	63523.34
676.695	63523.34
677.044	63523.34
677.393	63523.34
677.741	63523.34
678.09	63523.34
678.438	63523.34
678.787	63523.34
679.135	63523.34
679.484	63504.14
679.832	63523.34
680.181	63516.56
680.529	63511.59
680.877	63457.13
681.225	63498.71
681.573	63522.67
681.922	63493.97
682.27	63444.93
682.618	63420.07
682.966	63453.29
683.314	63370.13
683.661	63386.4
684.009	63260.3
684.357	63195.44
684.705	63180.53
685.053	63266.4
685.4	63076.12
685.748	63064.37
686.095	63010.36
686.443	62861.67
686.79	62867.99
687.138	62953.64
687.485	62901.44
687.832	62827.09
688.18	62790.93
688.527	62722.23
688.874	62671.61
689.221	62659.41
689.568	62512.07
689.915	62466.42
690.262	62534.22
690.609	62427.78
690.956	62340.55
691.303	62352.53
691.65	62171.06
691.997	62223.27
692.344	62037.51
692.69	61999.54
693.037	62111.86
693.383	61856.5
693.73	61979.66
694.077	61788.02
694.423	61813.78
694.769	61731.53
695.116	61676.16
695.462	61538.54
695.808	61476.39
696.155	61490.63
696.501	61302.84
696.847	61336.28
697.193	61265.32
697.539	61282.5
697.885	61061.04
698.231	61055.84
698.577	60984.88
698.923	60963.86
699.269	60826.01
699.614	60772.91
699.96	60689.07
700.306	60741.27
700.651	60578.11
700.997	60496.3
701.342	60470.77
701.688	60431.67
702.033	60302.86
702.379	60358.23
702.724	60270.32
703.069	60251.11
703.415	60000.95
703.76	60047.5
704.105	60033.04
704.45	59973.15
704.795	59877.11
705.14	59783.78
705.485	59749.43
705.83	59623.56
706.175	59668.76
706.52	59621.07
706.865	59468.99
707.209	59378.82
707.554	59426.73
707.899	59404.36
708.243	59221.08
708.588	59233.51
708.932	59123.69
709.277	59128.88
709.621	59029.9
709.966	58869.45
710.31	58941.77
710.654	58775.67
710.998	58747.2
711.342	58801.66
711.687	58655
712.031	58628.33
712.375	58548.11
712.719	58517.15
713.063	58455.91
713.407	58521.89
713.75	58343.59
714.094	58377.72
714.438	58287.32
714.782	58232.86
715.125	58097.95
715.469	58237.61
715.812	57959.2
716.156	57942.7
716.499	57937.05
716.843	58006.2
717.186	57879.42
717.53	57912.42
717.873	57894.11
718.216	57813.44
718.559	57740.22
718.902	57504.07
719.246	57616.61
719.589	57533.44
719.932	57518.98
720.275	57517.63
720.617	57454.58
720.96	57373.9
721.303	57438.53
721.646	57387.91
721.989	57195.37
722.331	57221.14
722.674	57179.1
723.016	57149.27
723.359	57097.07
723.701	57072.67
724.044	57032.22
724.386	56904.31
724.729	56956.74
725.071	56952.9
725.413	56841.94
725.755	56869.96
726.097	56707.7
726.439	56734.82
726.782	56655.95
727.124	56735.5
727.465	56652.56
727.807	56607.37
728.149	56604.43
728.491	56455.96
728.833	56497.54
729.175	56484.66
729.516	56441.95
729.858	56365.11
730.199	56432.91
730.541	56466.35
730.882	56270.88
731.224	56350.43
731.565	56064.56
731.906	56225.23
732.248	56206.7
732.589	56026.82
732.93	56087.61
733.271	56066.82
733.612	55963.09
733.953	56059.13
734.294	55905.24
734.635	55898.46
734.976	55975.97
735.317	55795.86
735.658	55797.45
735.999	55715.64
736.339	55699.82
736.68	55741.85
737.021	55642.42
737.361	55571.46
737.702	55648.97
738.042	55618.92
738.383	55592.03
738.723	55691.91
739.063	55433.61
739.404	55586.83
739.744	55491.92
740.084	55455.99
740.424	55413.05
740.764	55348.87
741.104	55441.3
741.444	55243.34
741.784	55233.17
742.124	55337.8
742.464	55264.13
742.804	55201.3
743.143	55162.66
743.483	55229.78
743.823	55064.58
744.162	55089.67
744.502	55067.52
744.841	55022.32
745.181	55057.8
745.52	54927.86
745.86	54917.69
746.199	54834.76
746.538	54830.69
746.877	54901.88
747.216	54926.28
747.556	54745.5
747.895	54788.43
748.234	54675.89
748.573	54687.64
748.911	54618.95
749.25	54649
749.589	54517.93
749.928	54460.08
750.267	54491.04
750.605	54458.95
750.944	54456.92
751.283	54324.72
751.621	54406.07
751.96	54208.33
752.298	54232.97
752.636	54162.46
752.975	54138.73
753.313	53956.82
753.651	54098.28
753.989	54014.89
754.327	53934.9
754.666	53753.43
