Data from 199_FLMS001491_010.txt Node
Date: Thu Apr 19 16:33:14 BST 2018
User: hsy
Spectrometer: FLMS00149
Trigger mode: 0
Integration Time (sec): 1.000000E-2
Scans to average: 10
Electric dark correction enabled: true
Nonlinearity correction enabled: false
Boxcar width: 0
XAxis mode: Wavelengths
Number of Pixels in Spectrum: 2048
>>>>>Begin Spectral Data<<<<<
341.393	-3.35
341.776	-3.35
342.16	-3.35
342.543	-46.96
342.927	-79.5
343.31	-73.85
343.693	-62.55
344.077	-59.62
344.46	-53.06
344.843	-51.26
345.226	-41.99
345.61	-47.19
345.993	-20.3
346.376	1.62
346.759	12.02
347.142	16.54
347.525	41.17
347.908	43.21
348.291	95.18
348.674	91.34
349.057	108.74
349.44	118.01
349.823	148.97
350.206	187.38
350.588	246.82
350.971	265.35
351.354	273.93
351.737	278.45
352.119	310.99
352.502	339.69
352.884	333.82
353.267	347.38
353.65	350.99
354.032	345.57
354.414	355.29
354.797	354.84
355.179	383.54
355.562	353.93
355.944	376.53
356.326	416.53
356.709	391.67
357.091	377.66
357.473	388.05
357.855	390.99
358.238	391.44
358.62	410.65
359.002	369.07
359.384	403.2
359.766	395.96
360.148	390.77
360.53	383.54
360.912	400.48
361.294	415.85
361.676	398.22
362.057	390.77
362.439	396.64
362.821	391.9
363.203	409.52
363.584	398.45
363.966	397.09
364.348	381.73
364.729	409.3
365.111	383.31
365.493	366.13
365.874	380.82
366.256	374.27
366.637	386.47
367.019	377.21
367.4	390.09
367.781	374.5
368.163	379.69
368.544	388.51
368.925	368.85
369.306	365.91
369.688	392.8
370.069	394.16
370.45	397.32
370.831	395.51
371.212	396.64
371.593	385.12
371.974	397.09
372.355	399.58
372.736	376.08
373.117	390.31
373.498	386.92
373.879	390.54
374.26	406.13
374.641	402.07
375.021	408.39
375.402	409.3
375.783	427.38
376.163	414.04
376.544	415.85
376.925	409.98
377.305	409.98
377.686	422.18
378.066	417.66
378.447	431.44
378.827	425.79
379.208	411.56
379.588	420.82
379.968	429.64
380.349	432.12
380.729	433.03
381.109	441.39
381.489	442.29
381.87	423.31
382.25	443.65
382.63	457.21
383.01	430.31
383.39	457.88
383.77	440.03
384.15	474.38
384.53	442.97
384.91	459.69
385.29	482.74
385.67	456.75
386.049	480.71
386.429	488.39
386.809	486.81
387.189	466.24
387.568	468.73
387.948	465.57
388.328	472.35
388.707	475.06
389.087	497.88
389.466	499.24
389.846	525.68
390.225	486.36
390.605	509.63
390.984	502.4
391.363	503.53
391.743	509.41
392.122	508.73
392.501	525.23
392.881	525.9
393.26	546.02
393.639	521.61
394.018	510.76
394.397	524.77
394.776	557.32
395.155	560.03
395.534	539.46
395.913	547.82
396.292	554.83
396.671	565
397.05	554.83
397.429	564.55
397.808	554.15
398.186	555.28
398.565	586.69
398.944	553.47
399.323	568.16
399.701	577.88
400.08	567.71
400.458	599.57
400.837	592.34
401.215	594.38
401.594	574.04
401.972	597.77
402.351	602.51
402.729	606.81
403.107	619.01
403.486	597.77
403.864	612
404.242	612.23
404.62	639.57
404.999	611.55
405.377	630.53
405.755	641.38
406.133	642.06
406.511	658.33
406.889	664.21
407.267	670.31
407.645	674.83
408.023	652.23
408.401	679.8
408.779	707.82
409.156	686.8
409.534	710.31
409.912	696.97
410.29	722.06
410.667	702.62
411.045	738.55
411.422	755.95
411.8	752.11
412.178	753.92
412.555	768.16
412.933	786.46
413.31	768.61
413.687	778.33
414.065	779
414.442	787.82
414.819	815.39
415.197	807.7
415.574	823.98
415.951	830.75
416.328	817.2
416.705	850.42
417.082	832.79
417.46	837.53
417.837	841.15
418.214	867.59
418.591	880.7
418.967	884.76
419.344	869.85
419.721	890.19
420.098	870.98
420.475	901.49
420.852	889.74
421.228	901.94
421.605	925.22
421.982	915.27
422.358	919.34
422.735	899
423.111	951.2
423.488	936.97
423.864	982.84
424.241	971.54
424.617	978.77
424.994	979
425.37	1007.02
425.746	985.55
426.123	1034.59
426.499	1013.12
426.875	1045.44
427.251	1016.06
427.627	1071.43
428.003	1082.27
428.379	1087.02
428.756	1093.57
429.132	1101.71
429.507	1114.59
429.883	1122.27
430.259	1111.88
430.635	1144.42
431.011	1154.59
431.387	1175.15
431.763	1205.21
432.138	1198.2
432.514	1220.12
432.89	1218.99
433.265	1241.59
433.641	1250.63
434.016	1271.2
434.392	1283.4
434.767	1291.76
435.143	1292.21
435.518	1324.08
435.894	1339.89
436.269	1355.49
436.644	1390.06
437.02	1395.94
437.395	1387.35
437.77	1418.99
438.145	1397.07
438.52	1412.89
438.895	1452.43
439.271	1459.89
439.646	1449.27
440.021	1480.68
440.395	1495.14
440.77	1462.6
441.145	1526.78
441.52	1508.93
441.895	1499.21
442.27	1537.63
442.645	1515.03
443.019	1521.13
443.394	1515.93
443.769	1548.25
444.143	1562.49
444.518	1559.1
444.892	1587.12
445.267	1609.27
445.641	1556.61
446.016	1631.86
446.39	1626.67
446.764	1645.2
447.139	1610.17
447.513	1640
447.887	1679.09
448.262	1642.94
448.636	1677.06
449.01	1694.46
449.384	1696.49
449.758	1704.4
450.132	1726.32
450.506	1718.19
450.88	1761.8
451.254	1735.14
451.628	1804.97
452.002	1818.75
452.376	1795.7
452.75	1833.67
453.123	1807.68
453.497	1841.35
453.871	1863.5
454.244	1909.37
454.618	1919.09
454.992	1934.68
455.365	1960.89
455.739	1999.54
456.112	2001.12
456.486	2040.67
456.859	2082.93
457.232	2107.78
457.606	2101.68
457.979	2114.34
458.352	2144.17
458.725	2166.54
459.099	2194.11
459.472	2216.48
459.845	2242.92
460.218	2312.52
460.591	2285.41
460.964	2318.63
461.337	2329.92
461.71	2379.41
462.083	2424.61
462.456	2409.7
462.829	2409.7
463.201	2454.67
463.574	2476.59
463.947	2500.54
464.32	2550.26
464.692	2554.1
465.065	2601.1
465.438	2607.21
465.81	2648.79
466.183	2656.24
466.555	2716.36
466.928	2739.41
467.3	2677.94
467.672	2799.74
468.045	2832.28
468.417	2812.4
468.789	2838.84
469.161	2853.75
469.534	2913.41
469.906	2973.75
470.278	2978.04
470.65	3047.65
471.022	3093.07
471.394	3110.02
471.766	3152.28
472.138	3132.84
472.51	3255.1
472.882	3248.77
473.253	3296.23
473.625	3326.28
473.997	3405.15
474.369	3390.01
474.74	3469.78
475.112	3559.72
475.484	3522.89
475.855	3613.51
476.227	3676.78
476.598	3784.35
476.97	3787.06
477.341	3873.39
477.713	3913.16
478.084	3935.76
478.455	4062.99
478.827	4008.75
479.198	4154.28
479.569	4178.24
479.94	4286.03
480.311	4316.09
480.682	4446.25
481.053	4502.07
481.424	4647.15
481.795	4643.99
482.166	4723.76
482.537	4801.27
482.908	4886.69
483.279	4952.45
483.65	5063.64
484.021	5082.17
484.391	5203.75
484.762	5241.94
485.133	5275.16
485.503	5410.75
485.874	5493.46
486.244	5589.27
486.615	5640.12
486.985	5729.16
487.356	5787.01
487.726	5790.85
488.097	5998.08
488.467	5986.1
488.837	6109.03
489.207	6250.5
489.578	6331.18
489.948	6400.33
490.318	6475.8
490.688	6528.46
491.058	6591.28
491.428	6755.8
491.798	6779.07
492.168	6916.02
492.538	6989.46
492.908	7084.6
493.278	7125.96
493.648	7207.76
494.017	7312.39
494.387	7342.45
494.757	7424.48
495.126	7497.7
495.496	7548.77
495.866	7614.31
496.235	7736.11
496.605	7824.92
496.974	7838.71
497.344	7927.07
497.713	7993.96
498.082	8010.68
498.452	8145.36
498.821	8184.69
499.19	8219.94
499.559	8261.52
499.928	8364.57
500.298	8447.73
500.667	8490.44
501.036	8447.5
501.405	8539.48
501.774	8564.56
502.143	8639.59
502.512	8755.29
502.88	8812.47
503.249	8798.23
503.618	8903.31
503.987	8923.88
504.356	8954.84
504.724	9066.7
505.093	9107.6
505.462	9111.22
505.83	9203.19
506.199	9226.47
506.567	9386.24
506.936	9392.11
507.304	9509.62
507.672	9505.1
508.041	9599.56
508.409	9685.44
508.777	9668.04
509.145	9782.38
509.514	9805.66
509.882	9863.96
510.25	9924.53
510.618	9993
510.986	9965.43
511.354	10107.57
511.722	10179.21
512.09	10315.25
512.458	10234.8
512.826	10406.1
513.193	10421.92
513.561	10531.06
513.929	10556.83
514.297	10642.25
514.664	10647.45
515.032	10791.85
515.4	10797.05
515.767	10942.35
516.135	11040.88
516.502	10962.69
516.869	11152.74
517.237	11206.08
517.604	11237.49
517.972	11400.87
518.339	11442.91
518.706	11595.67
519.073	11544.15
519.44	11572.85
519.808	11783.46
520.175	11806.96
520.542	12011.03
520.909	12065.04
521.276	12129.67
521.643	12232.49
522.009	12317.91
522.376	12522.65
522.743	12514.97
523.11	12640.84
523.477	12850.33
523.843	12877.9
524.21	13100.94
524.577	13171.67
524.943	13227.27
525.31	13266.13
525.676	13441.72
526.043	13621.61
526.409	13725.11
526.776	13785.44
527.142	13902.73
527.508	14014.14
527.874	14150.63
528.241	14254.58
528.607	14358.99
528.973	14543.61
529.339	14505.2
529.705	14665.65
530.071	14826.32
530.437	14909.93
530.803	15084.17
531.169	15101.11
531.535	15132.98
531.901	15241
532.267	15389.24
532.632	15511.27
532.998	15673.08
533.364	15760.98
533.73	15778.61
534.095	15991.94
534.461	15955.33
534.826	16026.74
535.192	16240.29
535.557	16202.55
535.923	16301.76
536.288	16381.08
536.653	16511.92
537.019	16466.95
537.384	16537.91
537.749	16662.66
538.114	16666.72
538.479	16815.42
538.845	16857.68
539.21	16878.92
539.575	17035.07
539.94	17091.34
540.305	17223.09
540.67	17247.27
541.034	17342.19
541.399	17379.92
541.764	17586.47
542.129	17534.5
542.494	17591.22
542.858	17583.53
543.223	17679.58
543.587	17804.09
543.952	17778.56
544.316	17847.71
544.681	17889.74
545.045	18094.93
545.41	18140.36
545.774	18190.3
546.138	18102.84
546.503	18388.03
546.867	18306.45
547.231	18422.61
547.595	18496.05
547.959	18688.59
548.324	18625.99
548.688	18691.53
549.052	18868.47
549.416	18735.14
549.779	18857.85
550.143	18935.14
550.507	19034.57
550.871	19176.94
551.235	19194.34
551.599	19441.11
551.962	19450.38
552.326	19501.22
552.689	19623.03
553.053	19592.97
553.417	19688.56
553.78	19897.6
554.143	19847.2
554.507	19983.02
554.87	20020.98
555.234	20231.37
555.597	20124.03
555.96	20366.96
556.323	20286.74
556.686	20473.18
557.05	20630.69
557.413	20746.62
557.776	20787.07
558.139	20902.09
558.502	20950.45
558.865	21001.75
559.228	21368.97
559.59	21438.12
559.953	21511.12
560.316	21686.48
560.679	21768.51
561.041	21872.01
561.404	22040.59
561.767	22236.75
562.129	22226.35
562.492	22465.44
562.854	22534.82
563.217	22597.64
563.579	22729.61
563.941	22863.62
564.304	23128.02
564.666	23318.3
565.028	23325.98
565.39	23375.7
565.753	23687.1
566.115	23876.93
566.477	23961.22
566.839	24203.93
567.201	24481.88
567.563	24494.54
567.925	24759.84
568.287	24762.78
568.648	24965.49
569.01	25240.06
569.372	25437.11
569.734	25548.98
570.095	25777.22
570.457	25921.85
570.819	26051.79
571.18	26097.44
571.542	26400.25
571.903	26468.5
572.265	26737.42
572.626	27001.37
572.987	27153.45
573.349	27175.15
573.71	27373.56
574.071	27496.49
574.432	27764.74
574.794	28112.3
575.155	28093.31
575.516	28100.77
575.877	28380.09
576.238	28440.42
576.599	28705.05
576.96	28627.99
577.32	28827.08
577.681	28956.34
578.042	29189.33
578.403	29233.17
578.763	29467.74
579.124	29391.36
579.485	29655.76
579.845	29914.06
580.206	29833.61
580.566	30077.22
580.927	30064.34
581.287	30319.25
581.648	30265.01
582.008	30544.1
582.368	30632.46
582.728	30789.74
583.089	30769.85
583.449	30917.65
583.809	31099.79
584.169	31309.28
584.529	31334.13
584.889	31781.81
585.249	31698.19
585.609	31730.96
585.969	32173.43
586.329	32039.88
586.688	32509.02
587.048	32574.33
587.408	32833.3
587.768	33015.67
588.127	33278.72
588.487	33466.73
588.846	34028.98
589.206	34094.97
589.565	34407.73
589.925	34933.36
590.284	35174.94
590.643	35511.2
591.003	35798.88
591.362	36380.78
591.721	36564.28
592.08	37050.82
592.44	37665.04
592.799	37801.76
593.158	38164.91
593.517	38568.29
593.876	39077.43
594.235	39544.09
594.593	39858.43
594.952	40437.17
595.311	40831.06
595.67	41475.79
596.029	42065.38
596.387	42591.46
596.746	43067.61
597.104	43320.71
597.463	43846.8
597.822	44577.18
598.18	44936.26
598.538	45489.02
598.897	46304.59
599.255	46481.31
599.613	47421.85
599.972	47530.32
600.33	48067.93
600.688	48507.47
601.046	48983.39
601.404	49568.46
601.762	49929.13
602.12	50457.47
602.478	50995.76
602.836	51308.98
603.194	51336.09
603.552	51855.4
603.91	52107.15
604.268	52597.76
604.625	52909.61
604.983	53289.94
605.341	53461.69
605.698	54057.6
606.056	54473.64
606.413	54525.61
606.771	54936.68
607.128	55173.73
607.485	55340.96
607.843	55673.83
608.2	56001.73
608.557	56357.2
608.914	56493.25
609.272	56808.72
609.629	57125.32
609.986	57424.52
610.343	57510.17
610.7	57886.66
611.057	57996.48
611.414	58183.6
611.771	58483.7
612.127	58712.17
612.484	58894.76
612.841	59120.97
613.198	59154.65
613.554	59368.2
613.911	59633.5
614.267	59868.98
614.624	59912.82
614.98	60201.62
615.337	60420.37
615.693	60459.7
616.05	60598.9
616.406	60830.08
616.762	60978.1
617.118	61105.33
617.475	61111.66
617.831	61429.39
618.187	61554.36
618.543	61704.18
618.899	61865.53
619.255	61947.11
619.611	62004.06
619.967	62243.38
620.323	62372.19
620.678	62413.09
621.034	62424.39
621.39	62497.38
621.746	62608.79
622.101	62902.8
622.457	62715
622.812	62994.77
623.168	63074.77
623.523	63068.44
623.879	63209.91
624.234	63162.22
624.589	63270.47
624.945	63385.95
625.3	63442.22
625.655	63498.71
626.01	63512.95
626.365	63524.47
626.72	63506.85
627.075	63524.47
627.43	63524.47
627.785	63524.47
628.14	63524.47
628.495	63524.47
628.85	63524.47
629.205	63524.47
629.559	63524.47
629.914	63524.47
630.269	63524.47
630.623	63524.47
630.978	63524.47
631.332	63524.47
631.687	63524.47
632.041	63524.47
632.396	63524.47
632.75	63524.47
633.104	63524.47
633.459	63524.47
633.813	63524.47
634.167	63524.47
634.521	63524.47
634.875	63524.47
635.229	63524.47
635.583	63524.47
635.937	63524.47
636.291	63524.47
636.645	63524.47
636.999	63524.47
637.352	63524.47
637.706	63524.47
638.06	63524.47
638.413	63524.47
638.767	63524.47
639.121	63524.47
639.474	63524.47
639.828	63524.47
640.181	63524.47
640.534	63524.47
640.888	63524.47
641.241	63524.47
641.594	63524.47
641.947	63524.47
642.301	63524.47
642.654	63524.47
643.007	63524.47
643.36	63524.47
643.713	63524.47
644.066	63524.47
644.419	63524.47
644.771	63447.41
645.124	63249.9
645.477	63254.42
645.83	63153.86
646.182	63115.9
646.535	63058.05
646.888	63117.25
647.24	63039.97
647.593	63161.55
647.945	63076.8
648.298	62988.22
648.65	62900.76
649.002	62759.07
649.355	62797.26
649.707	62704.38
650.059	62696.25
650.411	63028.67
650.763	63127.2
651.115	63466.85
651.467	63357.92
651.819	63400.86
652.171	63270.47
652.523	63268.21
652.875	63271.6
653.227	63180.98
653.578	63407.41
653.93	63287.42
654.282	63197.48
654.633	63142.56
654.985	63191.83
655.337	63131.26
655.688	63170.36
656.039	63169.45
656.391	62955.9
656.742	63048.55
657.094	63078.61
657.445	63130.59
657.796	63123.13
658.147	62972.17
658.498	63141.43
658.849	63142.56
659.2	63058.27
659.551	63026.18
659.902	63168.55
660.253	63024.37
660.604	63132.62
660.955	62994.32
661.306	63111.38
661.656	63077.03
662.007	63027.99
662.358	63074.77
662.708	63099.85
663.059	63076.8
663.409	62932.17
663.76	63043.81
664.11	63060.76
664.461	63096.69
664.811	63035.9
665.161	63007.2
665.511	63001.1
665.862	63018.5
666.212	63064.82
666.562	63060.31
666.912	63037.93
667.262	63026.86
667.612	62957.48
667.962	63044.49
668.312	62956.58
668.662	63051.94
669.011	63048.33
669.361	63019.63
669.711	63001.32
670.06	62959.52
670.41	62930.37
670.76	62908.9
671.109	62995.45
671.459	62929.24
671.808	62935.79
672.157	62964.94
672.507	62821.44
672.856	62813.76
673.205	62900.08
673.554	62900.08
673.904	62779.41
674.253	63017.82
674.602	62842.01
674.951	62548.23
675.3	62431.85
675.649	62844.94
675.998	62842.23
676.346	62881.78
676.695	62839.97
677.044	62684.95
677.393	62784.15
677.741	62856.69
678.09	62773.08
678.438	62695.34
678.787	62773.53
679.135	62778.05
679.484	62634.33
679.832	62676.36
680.181	62627.55
680.529	62642.24
680.877	62529.92
681.225	62469.59
681.573	62716.81
681.922	62497.38
682.27	62443.15
682.618	62496.48
682.966	62354.56
683.314	62380.78
683.661	62379.87
684.009	62262.81
684.357	62147.79
684.705	62153.21
685.053	62145.53
685.4	62056.49
685.748	62023.95
686.095	62005.64
686.443	61912.76
686.79	61887
687.138	61919.54
687.485	61851.75
687.832	61773.11
688.18	61841.13
688.527	61649.27
688.874	61696.95
689.221	61542.15
689.568	61540.8
689.915	61420.35
690.262	61567.24
690.609	61460.8
690.956	61335.15
691.303	61341.93
691.65	61259.67
691.997	61229.62
692.344	61071.88
692.69	61002.28
693.037	61080.7
693.383	60876.41
693.73	60926.35
694.077	60815.84
694.423	60847.93
694.769	60702.18
695.116	60676.64
695.462	60568.62
695.808	60521.39
696.155	60569.52
696.501	60373.14
696.847	60429.19
697.193	60258.57
697.539	60305.58
697.885	60086.6
698.231	60018.58
698.577	60069.42
698.923	60030.1
699.269	59864.01
699.614	59739.04
699.96	59720.96
700.306	59701.98
700.651	59616.1
700.997	59475.09
701.342	59490.68
701.688	59427.41
702.033	59344.24
702.379	59326.62
702.724	59151.26
703.069	59213.17
703.415	59016.57
703.76	58936.57
704.105	59018.15
704.45	58927.08
704.795	58843.47
705.14	58739.29
705.485	58778.84
705.83	58590.37
706.175	58637.6
706.52	58550.14
706.865	58464.27
707.209	58448
707.554	58325.97
707.899	58340.66
708.243	58245.97
708.588	58164.61
708.932	58054.11
709.277	58021.12
709.621	57876.94
709.966	57808.92
710.31	57882.59
710.654	57699.99
710.998	57716.26
711.342	57732.99
711.687	57589.49
712.031	57546.33
712.375	57428.81
712.719	57419.78
713.063	57363.28
713.407	57462.71
713.75	57303.17
714.094	57278.76
714.438	57148.14
714.782	57156.96
715.125	57073.57
715.469	57117.64
715.812	56907.7
716.156	56851.65
716.499	56879.68
716.843	56874.03
717.186	56769.17
717.53	56962.61
717.873	56761.49
718.216	56808.49
718.559	56642.39
718.902	56439.91
719.246	56528.73
719.589	56416.86
719.932	56288.96
720.275	56370.99
720.617	56399.24
720.96	56253.7
721.303	56242.41
721.646	56269.98
721.989	56186.81
722.331	56177.1
722.674	56050.32
723.016	56083.54
723.359	55947.5
723.701	55938.68
724.044	55883.77
724.386	55785.69
724.729	55832.7
725.071	55799.71
725.413	55752.02
725.755	55717.67
726.097	55611.24
726.439	55621.18
726.782	55441.07
727.124	55633.16
727.465	55483.56
727.807	55396.33
728.149	55382.77
728.491	55288.76
728.833	55397.46
729.175	55334.86
729.516	55239.95
729.858	55180.06
730.199	55320.4
730.541	55202.21
730.882	55103.45
731.224	55185.26
731.565	55002.21
731.906	55046.5
732.248	55061.19
732.589	54802.44
732.93	54921.99
733.271	54898.49
733.612	54882.44
733.953	54867.75
734.294	54819.17
734.635	54747.98
734.976	54860.97
735.317	54604.03
735.658	54617.59
735.999	54608.1
736.339	54510.25
736.68	54614.43
737.021	54545.27
737.361	54476.12
737.702	54637.02
738.042	54397.26
738.383	54470.93
738.723	54450.36
739.063	54348.9
739.404	54437.71
739.744	54244.94
740.084	54179.18
740.424	54234.1
740.764	54128.11
741.104	54261.89
741.444	54024.16
741.784	54007.21
742.124	54184.38
742.464	53962.24
742.804	53965.86
743.143	53849.93
743.483	53966.98
743.823	53919.08
744.162	53792.3
744.502	53846.08
744.841	53665.52
745.181	53867.78
745.52	53694.45
745.86	53725.18
746.199	53715.47
746.538	53681.12
746.877	53740.55
747.216	53597.28
747.556	53576.03
747.895	53582.81
748.234	53470.27
748.573	53497.62
748.911	53485.64
749.25	53419.2
749.589	53286.32
749.928	53381.46
750.267	53314.35
750.605	53193.45
750.944	53109.61
751.283	53154.8
751.621	53215.82
751.96	52928.82
752.298	53002.26
752.636	53023.51
752.975	52875.49
753.313	52832.78
753.651	52840.91
753.989	52666.23
754.327	52806.56
754.666	52479.11
755.004	52635.49
755.342	52587.81
755.679	52479.34
