Data from 199_FLMS001491_008.txt Node
Date: Thu Apr 19 16:33:08 BST 2018
User: hsy
Spectrometer: FLMS00149
Trigger mode: 0
Integration Time (sec): 1.000000E-2
Scans to average: 10
Electric dark correction enabled: true
Nonlinearity correction enabled: false
Boxcar width: 0
XAxis mode: Wavelengths
Number of Pixels in Spectrum: 2048
>>>>>Begin Spectral Data<<<<<
341.393	-25.3
341.776	-25.3
342.16	-25.3
342.543	-46.31
342.927	-65.29
343.31	-83.6
343.693	-83.15
344.077	-53.09
344.46	-75.01
344.843	-30.27
345.226	-51.28
345.61	-10.83
345.993	-25.07
346.376	-3.83
346.759	15.38
347.142	7.92
347.525	36.85
347.908	65.32
348.291	93.8
348.674	87.7
349.057	109.16
349.44	141.03
349.823	135.6
350.206	205.88
350.588	227.35
350.971	256.05
351.354	263.28
351.737	293.11
352.119	300.35
352.502	319.1
352.884	322.72
353.267	340.8
353.65	348.48
354.032	337.63
354.414	331.08
354.797	364.3
355.179	377.86
355.562	383.28
355.944	371.53
356.326	380.34
356.709	383.73
357.091	376.28
357.473	393.68
357.855	414.69
358.238	412.21
358.62	386.44
359.002	407.69
359.384	393.9
359.766	393.68
360.148	381.25
360.53	407.69
360.912	401.59
361.294	387.57
361.676	395.26
362.057	376.05
362.439	384.64
362.821	386.67
363.203	383.28
363.584	382.83
363.966	391.64
364.348	408.14
364.729	393
365.111	385.09
365.493	372.21
365.874	397.97
366.256	384.41
366.637	385.77
367.019	389.16
367.4	402.49
367.781	389.83
368.163	398.2
368.544	384.41
368.925	386.67
369.306	411.98
369.688	381.02
370.069	371.76
370.45	379.44
370.831	391.64
371.212	394.58
371.593	402.26
371.974	394.13
372.355	375.6
372.736	403.62
373.117	410.62
373.498	389.38
373.879	395.26
374.26	379.21
374.641	375.37
375.021	394.58
375.402	401.59
375.783	423.05
376.163	432.55
376.544	424.86
376.925	433
377.305	414.01
377.686	418.76
378.066	436.84
378.447	433.45
378.827	452.88
379.208	432.32
379.588	433.22
379.968	417.4
380.349	435.03
380.729	447.91
381.109	444.75
381.489	436.84
381.87	460.79
382.25	454.01
382.63	457.18
383.01	469.61
383.39	487.46
383.77	443.62
384.15	464.41
384.53	470.51
384.91	471.64
385.29	465.99
385.67	473.22
386.049	464.41
386.429	477.97
386.809	477.74
387.189	487.46
387.568	478.19
387.948	510.51
388.328	494.69
388.707	470.51
389.087	482.04
389.466	511.87
389.846	519.32
390.225	527.23
390.605	514.58
390.984	518.87
391.363	529.49
391.743	516.61
392.122	524.29
392.501	543.5
392.881	534.46
393.26	544.18
393.639	561.13
394.018	535.59
394.397	542.82
394.776	546.21
395.155	549.6
395.534	552.77
395.913	541.69
396.292	565.2
396.671	594.35
397.05	570.85
397.429	586.21
397.808	571.3
398.186	585.76
398.565	596.61
398.944	608.81
399.323	586.67
399.701	582.15
400.08	614.01
400.458	610.17
400.837	614.24
401.215	625.76
401.594	640
401.972	644.52
402.351	639.77
402.729	634.12
403.107	644.97
403.486	642.71
403.864	654.46
404.242	647.68
404.62	671.41
404.999	640.45
405.377	648.36
405.755	691.75
406.133	691.97
406.511	678.41
406.889	693.33
407.267	690.62
407.645	724.51
408.023	711.41
408.401	719.32
408.779	740.79
409.156	722.26
409.534	770.62
409.912	760.22
410.29	776.49
410.667	768.36
411.045	781.01
411.422	790.05
411.8	803.38
412.178	776.94
412.555	799.09
412.933	837.73
413.31	811.29
413.687	842.25
414.065	847.45
414.442	857.84
414.819	869.37
415.197	860.78
415.574	899.88
415.951	889.03
416.328	870.95
416.705	888.8
417.082	907.56
417.46	941.46
417.837	908.69
418.214	917.05
418.591	908.46
418.967	940.1
419.344	954.57
419.721	953.66
420.098	939.42
420.475	960.89
420.852	955.92
421.228	980.33
421.605	990.72
421.982	975.58
422.358	1014.45
422.735	1020.1
423.111	1027.33
423.488	1028.46
423.864	1031.85
424.241	1031.63
424.617	1058.74
424.994	1038.86
425.37	1065.75
425.746	1082.47
426.123	1074.79
426.499	1115.01
426.875	1101.91
427.251	1143.26
427.627	1122.7
428.003	1157.05
428.379	1164.96
428.756	1192.3
429.132	1185.07
429.507	1196.59
429.883	1204.05
430.259	1220.1
430.635	1248.12
431.011	1228.46
431.387	1287.44
431.763	1312.52
432.138	1281.34
432.514	1322.24
432.89	1316.14
433.265	1335.35
433.641	1397.27
434.016	1377.83
434.392	1423.03
434.767	1418.73
435.143	1450.82
435.518	1424.38
435.894	1472.97
436.269	1487.43
436.644	1509.58
437.02	1517.26
437.395	1519.97
437.77	1519.07
438.145	1551.61
438.52	1540.99
438.895	1580.09
439.271	1553.87
439.646	1608.56
440.021	1587.09
440.395	1624.38
440.77	1576.92
441.145	1648.78
441.52	1637.26
441.895	1644.26
442.27	1683.36
442.645	1679.52
443.019	1701.44
443.394	1691.04
443.769	1708.44
444.143	1711.16
444.518	1707.54
444.892	1724.04
445.267	1738.73
445.641	1747.76
446.016	1776.24
446.39	1750.02
446.764	1798.16
447.139	1778.5
447.513	1799.29
447.887	1846.07
448.262	1838.84
448.636	1821.89
449.01	1848.1
449.384	1842.9
449.758	1860.08
450.132	1918.61
450.506	1913.86
450.88	1919.74
451.254	1936.91
451.628	1983.69
452.002	1956.12
452.376	1982.11
452.75	2036.8
453.123	2035.44
453.497	2083.58
453.871	2072.28
454.244	2114.99
454.618	2127.42
454.992	2133.52
455.365	2167.64
455.739	2201.99
456.112	2251.71
456.486	2254.64
456.859	2258.03
457.232	2328.31
457.606	2320.41
457.979	2364.47
458.352	2400.85
458.725	2423
459.099	2442.89
459.472	2479.27
459.845	2516.78
460.218	2530.8
460.591	2540.96
460.964	2566.5
461.337	2612.6
461.71	2660.06
462.083	2665.03
462.456	2719.94
462.829	2674.75
463.201	2761.3
463.574	2761.75
463.947	2796.78
464.32	2778.92
464.692	2819.6
465.065	2877.68
465.438	2921.29
465.81	2951.57
466.183	2959.26
466.555	3021.18
466.928	3056.66
467.3	3066.83
467.672	3088.52
468.045	3155.86
468.417	3167.61
468.789	3156.77
469.161	3219.82
469.534	3257.78
469.906	3302.75
470.278	3336.88
470.65	3421.62
471.022	3451.45
471.394	3460.71
471.766	3484.89
472.138	3556.53
472.51	3666.36
472.882	3645.57
473.253	3706.13
473.625	3757.2
473.997	3834.04
474.369	3889.4
474.74	3900.93
475.112	3948.61
475.484	4087.14
475.855	4052.34
476.227	4142.05
476.598	4222.28
476.97	4285.1
477.341	4347.24
477.713	4398.32
478.084	4473.57
478.455	4546.34
478.827	4570.52
479.198	4700.46
479.569	4737.52
479.94	4850.06
480.311	4911.75
480.682	4978.87
481.053	5177.51
481.424	5175.47
481.795	5250.95
482.166	5363.49
482.537	5436.03
482.908	5495.01
483.279	5610.49
483.65	5729.81
484.021	5753.08
484.391	5862.91
484.762	5960.54
485.133	6027.43
485.503	6102.9
485.874	6241.43
486.244	6269.68
486.615	6371.15
486.985	6520.52
487.356	6603.23
487.726	6656.56
488.097	6823.56
488.467	6829.89
488.837	7090.45
489.207	7079.38
489.578	7219.49
489.948	7311.01
490.318	7384.9
490.688	7471.68
491.058	7523.88
491.428	7694.95
491.798	7709.19
492.168	7901.73
492.538	7983.31
492.908	8066.02
493.278	8168.84
493.648	8223.07
494.017	8311.89
494.387	8398.44
494.757	8496.29
495.126	8608.83
495.496	8616.28
495.866	8712.33
496.235	8831.65
496.605	8914.36
496.974	8941.25
497.344	8975.15
497.713	9072.32
498.082	9135.14
498.452	9234.12
498.821	9236.38
499.19	9322.71
499.559	9410.39
499.928	9434.57
500.298	9502.14
500.667	9621
501.036	9650.16
501.405	9667.1
501.774	9780.77
502.143	9878.62
502.512	9934.22
502.88	9971.5
503.249	9970.83
503.618	10104.61
503.987	10129.47
504.356	10189.12
504.724	10173.53
505.093	10272.51
505.462	10332.17
505.83	10399.51
506.199	10458.04
506.567	10598.15
506.936	10663.69
507.304	10746.4
507.672	10752.73
508.041	10819.84
508.409	10948.43
508.777	10988.65
509.145	11075.88
509.514	11103
509.882	11184.58
510.25	11201.75
510.618	11344.8
510.986	11248.98
511.354	11418.02
511.722	11563.55
512.09	11632.93
512.458	11615.53
512.826	11704.34
513.193	11751.8
513.561	11833.6
513.929	11966.25
514.297	12071.34
514.664	12081.28
515.032	12213.25
515.4	12312.01
515.767	12342.74
516.135	12443.3
516.502	12340.03
516.869	12566.01
517.237	12720.81
517.604	12711.54
517.972	12853.24
518.339	12875.83
518.706	12978.2
519.073	13005.1
519.44	13176.39
519.808	13337.06
520.175	13369.83
520.542	13481.69
520.909	13700.22
521.276	13748.35
521.643	13950.16
522.009	14041.9
522.376	14113.54
522.743	14162.81
523.11	14352.86
523.477	14419.3
523.843	14569.8
524.21	14740.42
524.577	14913.07
524.943	14996.23
525.31	15009.34
525.676	15280.06
526.043	15348.09
526.409	15519.61
526.776	15620.39
527.142	15693.61
527.508	15777.68
527.874	15955.3
528.241	16116.2
528.607	16163.88
528.973	16371.34
529.339	16373.14
529.705	16621.72
530.071	16819.46
530.437	16852
530.803	17022.62
531.169	17085.67
531.535	17228.71
531.901	17273.01
532.267	17327.69
532.632	17477.29
532.998	17487.24
533.364	17727.01
533.73	17779.43
534.095	17922.03
534.461	17975.13
534.826	18175.81
535.192	18249.25
535.557	18362.02
535.923	18404.05
536.288	18440.21
536.653	18604.04
537.019	18680.88
537.384	18744.61
537.749	18799.97
538.114	18919.52
538.479	18884.72
538.845	19126.74
539.21	19137.59
539.575	19197.93
539.94	19250.58
540.305	19417.13
540.67	19378.49
541.034	19617.58
541.399	19562.66
541.764	19630.01
542.129	19695.32
542.494	19867.51
542.858	19897.34
543.223	19802.88
543.587	19945.7
543.952	19958.81
544.316	20063.44
544.681	20139.82
545.045	20316.09
545.41	20401.06
545.774	20324.23
546.138	20429.76
546.503	20528.74
546.867	20620.49
547.231	20783.42
547.595	20775.51
547.959	20892.12
548.324	20913.14
548.688	21012.12
549.052	21147.93
549.416	21180.47
549.779	21275.16
550.143	21209.85
550.507	21361.49
550.871	21590.18
551.235	21527.58
551.599	21709.27
551.962	21812.32
552.326	21770.52
552.689	21889.38
553.053	21813.45
553.417	21949.72
553.78	22212.76
554.143	22254.57
554.507	22407.79
554.87	22454.79
555.234	22622.92
555.597	22679.19
555.96	22788.12
556.323	23000.09
556.686	22974.1
557.05	23209.35
557.413	23209.57
557.776	23320.08
558.139	23501.32
558.502	23540.86
558.865	23607.53
559.228	23999.84
559.59	23864.47
559.953	24090.45
560.316	24373.38
560.679	24347.17
561.041	24487.28
561.404	24751.23
561.767	24911.68
562.129	24962.52
562.492	25252.01
562.854	25264.66
563.217	25292.46
563.579	25452.68
563.941	25797.53
564.304	25910.07
564.666	26271.64
565.028	26242.49
565.39	26422.6
565.753	26709.59
566.115	26848.57
566.477	27036.14
566.839	27041.11
567.201	27439.74
567.563	27436.58
567.925	27775.33
568.287	27815.55
568.648	28106.85
569.01	28402.88
569.372	28666.83
569.734	28754.51
570.095	29028.63
570.457	29286.02
570.819	29399.92
571.18	29565.79
571.542	29818.44
571.903	29914.71
572.265	30119.22
572.626	30515.82
572.987	30585.65
573.349	30924.85
573.71	30894.57
574.071	31388.12
574.432	31444.84
574.794	31843.47
575.155	31865.39
575.516	31951.26
575.877	32112.39
576.238	32258.83
576.599	32449.78
576.96	32538.59
577.32	32693.17
577.681	32794.18
578.042	33221.51
578.403	33238.46
578.763	33316.2
579.124	33491.34
579.485	33630.32
579.845	33914.15
580.206	33954.15
580.566	34087.71
580.927	34040.48
581.287	34427.81
581.648	34312.33
582.008	34608.14
582.368	34665.54
582.728	34905.54
583.089	34913.45
583.449	35046.55
583.809	35149.82
584.169	35481.79
584.529	35416.48
584.889	35850.82
585.249	35707.1
585.609	35839.52
585.969	36201.1
586.329	36175.56
586.688	36498.94
587.048	36674.3
587.408	36863.68
587.768	37186.83
588.127	37442.65
588.487	37509.54
588.846	37977.55
589.206	37927.6
589.565	38193.36
589.925	38819.33
590.284	38952.21
590.643	39375.02
591.003	39742.47
591.362	40279.18
591.721	40523.02
592.08	40781.54
592.44	41337.01
592.799	41529.77
593.158	42004.11
593.517	42218.11
593.876	42821.94
594.235	43161.59
594.593	43577.17
594.952	44043.6
595.311	44397.26
595.67	44868.89
596.029	45519.72
596.387	45930.11
596.746	46450.54
597.104	46572.35
597.463	47109.74
597.822	47644.64
598.18	47862.71
598.538	48373.21
598.897	48922.34
599.255	49017.93
599.613	49967.97
599.972	50026.72
600.33	50502.87
600.688	50735.18
601.046	51318.89
601.404	51777.86
601.762	52000.45
602.12	52481.8
602.478	52685.63
602.836	53075.23
603.194	53210.37
603.552	53662.78
603.91	53843.12
604.268	54336.44
604.625	54561.97
604.983	54857.33
605.341	55020.49
605.698	55475.17
606.056	55860.24
606.413	55883.52
606.771	56343.84
607.128	56477.63
607.485	56696.6
607.843	56906.77
608.2	57224.05
608.557	57544.04
608.914	57678.5
609.272	57948.32
609.629	58213.85
609.986	58506.95
610.343	58518.93
610.7	58896.09
611.057	58972.02
611.414	59097.22
611.771	59471.9
612.127	59643.42
612.484	59857.65
612.841	60069.85
613.198	60035.72
613.554	60185.32
613.911	60503.73
614.267	60671.64
614.624	60794.35
614.98	60930.39
615.337	61214.22
615.693	61328.35
616.05	61397.95
616.406	61651.73
616.762	61676.81
617.118	61801.1
617.475	61961.32
617.831	62126.74
618.187	62240.41
618.543	62334.42
618.899	62531.7
619.255	62575.77
619.611	62633.4
619.967	62868.64
620.323	62987.06
620.678	62917.68
621.034	62954.29
621.39	63099.37
621.746	63248.52
622.101	63487.38
622.457	63373.49
622.812	63511.79
623.168	63522.86
623.523	63522.86
623.879	63522.86
624.234	63522.86
624.589	63522.86
624.945	63522.86
625.3	63522.86
625.655	63522.86
626.01	63522.86
626.365	63522.86
626.72	63522.86
627.075	63522.86
627.43	63522.86
627.785	63522.86
628.14	63522.86
628.495	63522.86
628.85	63522.86
629.205	63522.86
629.559	63522.86
629.914	63522.86
630.269	63522.86
630.623	63522.86
630.978	63522.86
631.332	63522.86
631.687	63522.86
632.041	63522.86
632.396	63522.86
632.75	63522.86
633.104	63522.86
633.459	63522.86
633.813	63522.86
634.167	63522.86
634.521	63522.86
634.875	63522.86
635.229	63522.86
635.583	63522.86
635.937	63522.86
636.291	63522.86
636.645	63522.86
636.999	63522.86
637.352	63522.86
637.706	63522.86
638.06	63522.86
638.413	63522.86
638.767	63522.86
639.121	63522.86
639.474	63522.86
639.828	63522.86
640.181	63522.86
640.534	63522.86
640.888	63522.86
641.241	63522.86
641.594	63522.86
641.947	63522.86
642.301	63522.86
642.654	63522.86
643.007	63522.86
643.36	63522.86
643.713	63522.86
644.066	63522.86
644.419	63522.86
644.771	63522.86
645.124	63522.86
645.477	63522.86
645.83	63514.95
646.182	63498.01
646.535	63488.29
646.888	63519.02
647.24	63422.75
647.593	63518.8
647.945	63498.68
648.298	63388.86
648.65	63309.31
649.002	63237
649.355	63165.13
649.707	63154.96
650.059	63165.81
650.411	63474.5
650.763	63502.98
651.115	63522.86
651.467	63522.86
651.819	63522.86
652.171	63522.19
652.523	63522.86
652.875	63522.86
653.227	63511.34
653.578	63522.86
653.93	63522.86
654.282	63494.16
654.633	63483.99
654.985	63507.27
655.337	63522.86
655.688	63510.21
656.039	63517.21
656.391	63400.16
656.742	63471.79
657.094	63431.34
657.445	63477.89
657.796	63469.76
658.147	63440.61
658.498	63463.66
658.849	63479.93
659.2	63387.5
659.551	63364.22
659.902	63488.74
660.253	63385.24
660.604	63455.97
660.955	63337.78
661.306	63447.16
661.656	63412.36
662.007	63397.22
662.358	63391.57
662.708	63431.79
663.059	63405.35
663.409	63283.1
663.76	63409.19
664.11	63394.51
664.461	63437.44
664.811	63415.52
665.161	63428.85
665.511	63368.29
665.862	63430.89
666.212	63450.32
666.562	63471.11
666.912	63386.14
667.262	63315.41
667.612	63421.4
667.962	63403.77
668.312	63305.47
668.662	63471.79
669.011	63423.88
669.361	63320.16
669.711	63451
670.06	63336.43
670.41	63305.24
670.76	63293.04
671.109	63354.05
671.459	63293.04
671.808	63321.74
672.157	63349.08
672.507	63221.18
672.856	63265.7
673.205	63250.33
673.554	63300.04
673.904	63215.08
674.253	63453.49
674.602	63265.02
674.951	62948.64
675.3	62815.54
675.649	63224.34
675.998	63192.02
676.346	63258.24
676.695	63304.56
677.044	63147.05
677.393	63170.78
677.741	63177.34
678.09	63107.96
678.438	63067.51
678.787	63151.8
679.135	63066.83
679.484	62972.82
679.832	63068.19
680.181	62937.57
680.529	62984.8
680.877	62917
681.225	62896.21
681.573	63098.92
681.922	62838.36
682.27	62808.98
682.618	62841.98
682.966	62784.13
683.314	62798.81
683.661	62686.5
684.009	62606.5
684.357	62577.58
684.705	62522.89
685.053	62525.6
685.4	62442.89
685.748	62407.19
686.095	62414.42
686.443	62276.12
686.79	62263.24
687.138	62282.9
687.485	62221.2
687.832	62119.06
688.18	62149.57
688.527	62054.65
688.874	62039.74
689.221	62070.92
689.568	61907.09
689.915	61849.24
690.262	61849.46
690.609	61802.23
690.956	61717.04
691.303	61699.18
691.65	61530.15
691.997	61535.35
692.344	61437.49
692.69	61404.05
693.037	61399.53
693.383	61225.07
693.73	61308.23
694.077	61192.08
694.423	61164.28
694.769	61057.84
695.116	61015.58
695.462	60914.57
695.808	60833.22
696.155	60858.75
696.501	60678.42
696.847	60760.45
697.193	60569.04
697.539	60650.85
697.885	60388.48
698.231	60395.26
698.577	60396.84
698.923	60330.41
699.269	60160.24
699.614	60117.76
699.96	59980.81
700.306	60009.28
700.651	59916.4
700.997	59852
701.342	59795.05
701.688	59770.19
702.033	59637.99
702.379	59621.95
702.724	59520.93
703.069	59546.25
703.415	59307.38
703.76	59261.73
704.105	59269.19
704.45	59257.67
704.795	59151
705.14	59058.8
705.485	59000.04
705.83	58863.78
706.175	59027.16
706.52	58902.19
706.865	58790.33
707.209	58676.66
707.554	58604.8
707.899	58606.38
708.243	58550.11
708.588	58512.83
708.932	58387.63
709.277	58386.5
709.621	58201.2
709.966	58167.98
710.31	58231.48
710.654	58022.9
710.998	58089.79
711.342	58018.6
711.687	57997.13
712.031	57846.18
712.375	57741.77
712.719	57778.61
713.063	57729.57
713.407	57780.87
713.75	57637.82
714.094	57679.18
714.438	57456.81
714.782	57444.61
715.125	57437.6
715.469	57526.19
715.812	57276.7
716.156	57282.8
716.499	57250.94
716.843	57235.57
717.186	57094.33
717.53	57183.14
717.873	57179.53
718.216	57072.64
718.559	57009.14
718.902	56742.93
719.246	56847.78
719.589	56768.24
719.932	56734.57
720.275	56655.02
720.617	56750.16
720.96	56621.58
721.303	56608.92
721.646	56675.81
721.989	56440.11
722.331	56531.64
722.674	56412.32
723.016	56408.7
723.359	56249.16
723.701	56353.56
724.044	56221.36
724.386	56104.75
724.729	56247.12
725.071	56092.1
725.413	56012.55
725.755	56094.36
726.097	56026.11
726.439	55881.03
726.782	55899.79
727.124	55945.21
727.465	55860.92
727.807	55778.66
728.149	55792.9
728.491	55678.1
728.833	55831.31
729.175	55714.03
729.516	55595.61
729.858	55582.28
730.199	55691.66
730.541	55596.97
730.882	55483.75
731.224	55526.69
731.565	55450.08
731.906	55439.69
732.248	55411.66
732.589	55243.31
732.93	55227.49
733.271	55216.64
733.612	55173.7
733.953	55254.61
734.294	55115.18
734.635	55025.01
734.976	55149.52
735.317	55072.92
735.658	55043.99
735.999	54953.82
736.339	54876.54
736.68	54971.9
737.021	54901.85
737.361	54763.77
737.702	54894.16
738.042	54829.31
738.383	54839.25
738.723	54830.66
739.063	54675.19
739.404	54751.79
739.744	54668.18
740.084	54638.8
740.424	54634.74
740.764	54534.4
741.104	54622.31
741.444	54493.5
741.784	54447.62
742.124	54491.24
742.464	54513.16
742.804	54351.35
743.143	54362.43
743.483	54399.49
743.823	54239.72
744.162	54245.59
744.502	54218.7
744.841	54109.1
745.181	54266.61
745.52	54115.88
745.86	54192.04
746.199	54102.32
746.538	54033.4
746.877	54140.74
747.216	54046.28
747.556	53959.5
747.895	54011.25
748.234	53928.54
748.573	53950.91
748.911	53807.64
749.25	53664.14
749.589	53669.56
749.928	53691.03
750.267	53691.71
750.605	53625.72
750.944	53664.37
751.283	53555.22
751.621	53602.45
751.96	53432.73
752.298	53366.75
752.636	53353.87
752.975	53308.22
753.313	53227.77
753.651	53415.33
753.989	53103.02
754.327	53159.52
754.666	52943.71
755.004	52956.59
