Data from 214_FLMS001491_008.txt Node
Date: Thu Apr 19 16:36:52 BST 2018
User: hsy
Spectrometer: FLMS00149
Trigger mode: 0
Integration Time (sec): 1.000000E-2
Scans to average: 10
Electric dark correction enabled: true
Nonlinearity correction enabled: false
Boxcar width: 0
XAxis mode: Wavelengths
Number of Pixels in Spectrum: 2048
>>>>>Begin Spectral Data<<<<<
341.393	-11.86
341.776	-11.86
342.16	-11.86
342.543	-62.03
342.927	-63.39
343.31	-58.87
343.693	-65.87
344.077	-82.6
344.46	-55.03
344.843	-46.44
345.226	-55.48
345.61	-53.22
345.993	-17.51
346.376	-7.34
346.759	2.37
347.142	38.98
347.525	49.38
347.908	64.74
348.291	77.63
348.674	103.61
349.057	105.65
349.44	134.12
349.823	130.73
350.206	162.59
350.588	211.41
350.971	255.7
351.354	252.99
351.737	272.87
352.119	293.89
352.502	300.22
352.884	306.09
353.267	333.44
353.65	322.59
354.032	308.58
354.414	335.25
354.797	335.47
355.179	349.71
355.562	380.89
355.944	374.79
356.326	352.42
356.709	370.72
357.091	377.28
357.473	366.66
357.855	384.51
358.238	401.68
358.62	404.4
359.002	361.01
359.384	384.28
359.766	386.77
360.148	393.1
360.53	363.95
360.912	372.08
361.294	387
361.676	401.01
362.057	379.31
362.439	398.29
362.821	375.47
363.203	369.82
363.584	385.87
363.966	386.32
364.348	355.58
364.729	355.13
365.111	364.85
365.493	360.78
365.874	375.24
366.256	370.27
366.637	339.77
367.019	373.44
367.4	390.39
367.781	379.76
368.163	398.07
368.544	365.98
368.925	355.58
369.306	364.4
369.688	366.21
370.069	388.13
370.45	380.44
370.831	386.32
371.212	380.22
371.593	373.66
371.974	383.83
372.355	368.24
372.736	383.38
373.117	366.88
373.498	377.96
373.879	373.44
374.26	385.64
374.641	390.84
375.021	385.19
375.402	384.51
375.783	401.91
376.163	413.66
376.544	409.14
376.925	394
377.305	392.87
377.686	391.52
378.066	407.33
378.447	439.65
378.827	410.05
379.208	399.65
379.588	399.2
379.968	410.27
380.349	429.48
380.729	424.96
381.109	431.29
381.489	423.15
381.87	425.41
382.25	422.47
382.63	449.37
383.01	433.1
383.39	426.09
383.77	436.71
384.15	434
384.53	455.02
384.91	428.58
385.29	454.79
385.67	436.94
386.049	459.08
386.429	452.53
386.809	462.02
387.189	454.56
387.568	473.55
387.948	476.48
388.328	460.67
388.707	493.43
389.087	488.01
389.466	481
389.846	472.64
390.225	513.32
390.605	503.15
390.984	467.67
391.363	492.08
391.743	514.22
392.122	506.99
392.501	491.63
392.881	502.47
393.26	513.77
393.639	521
394.018	523.26
394.397	525.75
394.776	537.27
395.155	553.32
395.534	556.26
395.913	533.88
396.292	532.75
396.671	552.87
397.05	538.18
397.429	578.18
397.808	555.8
398.186	554.9
398.565	555.35
398.944	562.58
399.323	578.4
399.701	560.32
400.08	563.71
400.458	559.87
400.837	595.13
401.215	599.65
401.594	576.14
401.972	597.39
402.351	595.58
402.729	603.03
403.107	638.97
403.486	606.2
403.864	620.66
404.242	614.79
404.62	634.22
404.999	622.92
405.377	627.89
405.755	648.68
406.133	664.5
406.511	646.65
406.889	684.39
407.267	680.55
407.645	690.49
408.023	685.52
408.401	692.07
408.779	735.23
409.156	726.2
409.534	729.59
409.912	737.49
410.29	756.48
410.667	735.69
411.045	764.84
411.422	753.31
411.8	759.87
412.178	779.08
412.555	783.37
412.933	795.35
413.31	797.15
413.687	833.31
414.065	822.92
414.442	830.6
414.819	844.38
415.197	823.37
415.574	863.37
415.951	870.37
416.328	859.75
416.705	876.93
417.082	857.27
417.46	895.23
417.837	902.46
418.214	907.43
418.591	919.18
418.967	928.45
419.344	925.29
419.721	951.27
420.098	945.17
420.475	952.86
420.852	978.17
421.228	953.76
421.605	997.83
421.982	963.7
422.358	1001.89
422.735	1019.07
423.111	1012.97
423.488	1048.9
423.864	1024.27
424.241	1048.67
424.617	1050.03
424.994	1041.22
425.37	1069.69
425.746	1087.09
426.123	1088.9
426.499	1103.13
426.875	1114.43
427.251	1118.28
427.627	1164.38
428.003	1128.9
428.379	1200.76
428.756	1165.96
429.132	1183.36
429.507	1218.84
429.883	1199.63
430.259	1222.45
430.635	1258.84
431.011	1279.85
431.387	1290.7
431.763	1289.34
432.138	1296.8
432.514	1327.31
432.89	1329.34
433.265	1380.87
433.641	1359.17
434.016	1388.33
434.392	1412.96
434.767	1434.88
435.143	1429.68
435.518	1418.61
435.894	1448.66
436.269	1458.38
436.644	1496.12
437.02	1523.69
437.395	1511.03
437.77	1518.94
438.145	1544.93
438.52	1548.09
438.895	1579.73
439.271	1576.57
439.646	1593.07
440.021	1632.61
440.395	1620.86
440.77	1608.88
441.145	1632.61
441.52	1648.66
441.895	1677.36
442.27	1684.59
442.645	1677.13
443.019	1718.94
443.394	1731.59
443.769	1733.85
444.143	1737.02
444.518	1751.93
444.892	1715.32
445.267	1756.68
445.641	1774.98
446.016	1766.39
446.39	1811.82
446.764	1799.61
447.139	1813.4
447.513	1813.62
447.887	1835.09
448.262	1827.64
448.636	1825.38
449.01	1866.96
449.384	1880.97
449.758	1899.72
450.132	1914.64
450.506	1937.01
450.88	1947.41
451.254	1932.94
451.628	1974.07
452.002	1977.46
452.376	2023.34
452.75	2036.9
453.123	2019.72
453.497	2037.57
453.871	2077.57
454.244	2118.7
454.618	2125.48
454.992	2155.54
455.365	2156.21
455.739	2191.92
456.112	2221.98
456.486	2236.89
456.859	2250.22
457.232	2273.5
457.606	2312.59
457.979	2325.48
458.352	2412.25
458.725	2432.82
459.099	2411.35
459.472	2431.69
459.845	2480.73
460.218	2475.53
460.591	2501.52
460.964	2535.87
461.337	2565.02
461.71	2607.5
462.083	2631.68
462.456	2646.6
462.829	2648.63
463.201	2685.24
463.574	2707.16
463.947	2723.88
464.32	2749.19
464.692	2779.25
465.065	2781.28
465.438	2831.9
465.81	2834.39
466.183	2870.55
466.555	2914.16
466.928	2934.95
467.3	2945.8
467.672	2995.51
468.045	3030.32
468.417	3078.68
468.789	3077.09
469.161	3095.85
469.534	3144.21
469.906	3198.22
470.278	3228.73
470.65	3221.27
471.022	3301.95
471.394	3376.3
471.766	3349.86
472.138	3385.33
472.51	3469.85
472.882	3494.26
473.253	3492.68
473.625	3587.14
473.997	3663.52
474.369	3668.72
474.74	3735.83
475.112	3725.21
475.484	3830.97
475.855	3863.74
476.227	3874.14
476.598	3983.51
476.97	3984.19
477.341	4073.9
477.713	4113.23
478.084	4167.46
478.455	4255.59
478.827	4282.94
479.198	4406.78
479.569	4393.67
479.94	4520.22
480.311	4549.6
480.682	4629.82
481.053	4722.25
481.424	4804.05
481.795	4830.72
482.166	4909.36
482.537	4918.4
482.908	5062.8
483.279	5101
483.65	5223.7
484.021	5324.94
484.391	5321.55
484.762	5401.55
485.133	5466.18
485.503	5570.36
485.874	5647.2
486.244	5702.56
486.615	5847.42
486.985	5849.45
487.356	5936.68
487.726	6039.28
488.097	6104.59
488.467	6160.18
488.837	6247.18
489.207	6330.57
489.578	6426.84
489.948	6515.2
490.318	6646.49
490.688	6622.09
491.058	6707.73
491.428	6754.06
491.798	6829.76
492.168	6961.06
492.538	7023.43
492.908	7073.83
493.278	7214.84
493.648	7213.48
494.017	7302.97
494.387	7358.34
494.757	7414.83
495.126	7473.36
495.496	7540.03
495.866	7591.33
496.235	7594.04
496.605	7696.63
496.974	7770.98
497.344	7886.69
497.713	7882.17
498.082	7940.92
498.452	8021.82
498.821	8042.16
499.19	8056.62
499.559	8100.01
499.928	8200.58
500.298	8232.21
500.667	8239.67
501.036	8256.85
501.405	8290.06
501.774	8390.85
502.143	8415.94
502.512	8444.64
502.88	8559.89
503.249	8531.64
503.618	8635.14
503.987	8670.17
504.356	8690.28
504.724	8763.27
505.093	8720.34
505.462	8737.06
505.83	8830.16
506.199	8855.25
506.567	8999.42
506.936	8990.39
507.304	9049.14
507.672	9046.43
508.041	9090.95
508.409	9162.36
508.777	9263.82
509.145	9324.61
509.514	9368.23
509.882	9344.5
510.25	9382.24
510.618	9460.88
510.986	9493.87
511.354	9588.34
511.722	9636.92
512.09	9681.89
512.458	9718.5
512.826	9824.04
513.193	9823.81
513.561	9895.45
513.929	9979.74
514.297	10050.02
514.664	10069
515.032	10117.81
515.4	10221.09
515.767	10224.25
516.135	10336.11
516.502	10270.13
516.869	10419.5
517.237	10553.73
517.604	10512.38
517.972	10612.72
518.339	10678.7
518.706	10771.58
519.073	10785.82
519.44	10832.6
519.808	10993.72
520.175	11035.98
520.542	11176.54
520.909	11207.73
521.276	11246.14
521.643	11415.41
522.009	11401.4
522.376	11526.14
522.743	11620.82
523.11	11694.72
523.477	11942.4
523.843	11952.34
524.21	12128.83
524.577	12156.63
524.943	12245.89
525.31	12355.49
525.676	12476.4
526.043	12609.05
526.409	12698.08
526.776	12817.86
527.142	12804.52
527.508	13036.15
527.874	13070.5
528.241	13174
528.607	13294.45
528.973	13363.83
529.339	13397.05
529.705	13541.9
530.071	13756.59
530.437	13767.43
530.803	13849.24
531.169	13925.4
531.535	14010.82
531.901	14001.1
532.267	14166.07
532.632	14197.03
532.998	14377.59
533.364	14464.82
533.73	14513.18
534.095	14626.62
534.461	14703.23
534.826	14768.09
535.192	14792.94
535.557	14936.44
535.923	14954.97
536.288	15015.76
536.653	15202.88
537.019	15244.23
537.384	15291.01
537.749	15368.75
538.114	15391.57
538.479	15450.55
538.845	15568.29
539.21	15472.25
539.575	15652.13
539.94	15656.42
540.305	15757.89
540.67	15718.34
541.034	15843.09
541.399	15829.08
541.764	16026.81
542.129	15956.53
542.494	16028.62
542.858	16055.06
543.223	16145.9
543.587	16197.43
543.952	16217.99
544.316	16337.08
544.681	16372.56
545.045	16394.94
545.41	16479.45
545.774	16541.82
546.138	16536.85
546.503	16645.78
546.867	16674.48
547.231	16804.19
547.595	16897.97
547.959	16888.93
548.324	16956.28
548.688	17050.96
549.052	17042.15
549.416	16986.78
549.779	17184.29
550.143	17212.09
550.507	17236.72
550.871	17285.53
551.235	17390.62
551.599	17648.46
551.962	17600.55
552.326	17561.46
552.689	17798.06
553.053	17738.86
553.417	17816.37
553.78	18062.46
554.143	18055.01
554.507	18040.54
554.87	18185.85
555.234	18419.06
555.597	18265.62
555.96	18393.3
556.323	18544.26
556.686	18555.56
557.05	18586.97
557.413	18763.01
557.776	18793.52
558.139	18958.94
558.502	19081.87
558.865	19057.01
559.228	19222.88
559.59	19389.21
559.953	19428.53
560.316	19671.23
560.679	19706.94
561.041	19825.81
561.404	20011.11
561.767	20126.82
562.129	20140.15
562.492	20515.96
562.854	20545.79
563.217	20560.02
563.579	20755.95
563.941	20967.92
564.304	21128.37
564.666	21329.27
565.028	21344.18
565.39	21544.63
565.753	21841.35
566.115	21796.83
566.477	21981.46
566.839	22221.22
567.201	22430.94
567.563	22463.93
567.925	22864.37
568.287	22907.31
568.648	23112.95
569.01	23250.35
569.372	23501.64
569.734	23642.66
570.095	23950.67
570.457	24126.26
570.819	24235.63
571.18	24323.77
571.542	24728.73
571.903	24885.56
572.265	24987.48
572.626	25227.02
572.987	25297.07
573.349	25510.18
573.71	25777.74
574.071	25929.37
574.432	26110.61
574.794	26480.77
575.155	26516.25
575.516	26535.91
575.877	26717.83
576.238	26932.06
576.599	27190.58
576.96	27238.04
577.32	27504.25
577.681	27474.87
578.042	27769.78
578.403	27892.03
578.763	27946.27
579.124	28009.77
579.485	28426.26
579.845	28493.15
580.206	28487.5
580.566	28686.36
580.927	28746.93
581.287	29050.2
581.648	29186.69
582.008	29300.36
582.368	29562.73
582.728	29786.45
583.089	29818.99
583.449	29991.41
583.809	30156.16
584.169	30285.64
584.529	30379.88
584.889	30807.66
585.249	30889.02
585.609	30919.75
585.969	31433.86
586.329	31558.38
586.688	31873.85
587.048	31976.45
587.408	32342.09
587.768	32643.55
588.127	32883.09
588.487	33154.04
588.846	33632.22
589.206	33822.27
589.565	34084.87
589.925	34709.26
590.284	34912.87
590.643	35257.27
591.003	35654.77
591.362	36227.41
591.721	36554.86
592.08	36895.87
592.44	37417.89
592.799	37752.79
593.158	38084.76
593.517	38422.15
593.876	39038.18
594.235	39456.93
594.593	39843.36
594.952	40357.47
595.311	40694.86
595.67	41389.08
596.029	41921.04
596.387	42337.98
596.746	42868.59
597.104	43106.1
597.463	43429.93
597.822	44126.18
598.18	44328.66
598.538	44732.27
598.897	45459.03
599.255	45581.29
599.613	46441.6
599.972	46632.33
600.33	47054.47
600.688	47337.63
601.046	47915.24
601.404	48552.73
601.762	48749.34
602.12	49134.41
602.478	49488.53
602.836	49797.9
603.194	49953.83
603.552	50390.43
603.91	50659.12
604.268	51000.81
604.625	51378.65
604.983	51685.31
605.341	51863.38
605.698	52344.95
606.056	52628.11
606.413	52679.41
606.771	53200.75
607.128	53324.81
607.485	53409.1
607.843	53718.25
608.2	54149.2
608.557	54363.88
608.914	54535.63
609.272	54792.57
609.629	55123.18
609.986	55300.81
610.343	55385.32
610.7	55768.36
611.057	55848.81
611.414	55958.87
611.771	56150.5
612.127	56429.82
612.484	56544.61
612.841	56631.84
613.198	56732.18
613.554	56872.97
613.911	57183.92
614.267	57303.92
614.624	57423.24
614.98	57638.37
615.337	57897.8
615.693	57878.14
616.05	57973.05
616.406	58157.68
616.762	58131.92
617.118	58317.68
617.475	58362.19
617.831	58591.79
618.187	58642.64
618.543	58779.58
618.899	58980.26
619.255	58915.4
619.611	59015.06
619.967	59219.35
620.323	59317.65
620.678	59293.24
621.034	59356.97
621.39	59438.1
621.746	59478.32
622.101	59757.86
622.457	59610.3
622.812	59774.36
623.168	59852.32
623.523	59907.69
623.879	60017.07
624.234	59977.52
624.589	60038.31
624.945	60100.68
625.3	60182.03
625.655	60191.07
626.01	60220.22
626.365	60220.45
626.72	60235.37
627.075	60248.02
627.43	60325.08
627.785	60324.18
628.14	60411.41
628.495	60382.25
628.85	60483.95
629.205	60452.76
629.559	60576.6
629.914	60405.98
630.269	60434
630.623	60396.49
630.978	60368.47
631.332	60516.71
631.687	60505.87
632.041	60474.68
632.396	60494.12
632.75	60451.63
633.104	60523.72
633.459	60393.78
633.813	60405.76
634.167	60368.02
634.521	60397.85
634.875	60454.57
635.229	60385.42
635.583	60257.51
635.937	60288.7
636.291	60356.04
636.645	60273.78
636.999	60190.17
637.352	60326.44
637.706	60123.73
638.06	60300.45
638.413	60172.54
638.767	60096.39
639.121	60178.64
639.474	60065.65
639.828	60118.98
640.181	60102.71
640.534	60150.62
640.888	60008.48
641.241	59920.12
641.594	59961.47
641.947	60069.49
642.301	59891.65
642.654	59988.82
643.007	59878.31
643.36	59966.45
643.713	59845.55
644.066	59940.91
644.419	59787.24
644.771	59509.73
645.124	59317.88
645.477	59256.63
645.83	59209.63
646.182	59220.25
646.535	59124.89
646.888	59128.95
647.24	59025.91
647.593	59262.51
647.945	59097.09
648.298	59002.18
648.65	58972.12
649.002	58865.68
649.355	58821.17
649.707	58751.34
650.059	58746.82
650.411	59073.81
650.763	59213.25
651.115	59519.9
651.467	59442.84
651.819	59416.86
652.171	59342.73
652.523	59272.9
652.875	59339.57
653.227	59210.99
653.578	59443.3
653.93	59257.99
654.282	59211.66
654.633	59138.45
654.985	59209.63
655.337	59240.14
655.688	59170.53
656.039	59247.37
656.391	59042.63
656.742	59118.33
657.094	59117.2
657.445	59192.68
657.796	59163.98
658.147	59048.28
658.498	59099.8
658.849	59095.51
659.2	59029.07
659.551	58963.08
659.902	59140.03
660.253	59126.02
660.604	59129.18
660.955	59018.22
661.306	59088.05
661.656	58997.88
662.007	58993.36
662.358	59047.6
662.708	59068.16
663.059	58980.94
663.409	58865.23
663.76	59028.62
664.11	58999.47
664.461	58992.91
664.811	59019.8
665.161	58999.01
665.511	58883.76
665.862	58992.91
666.212	59029.52
666.562	59024.1
666.912	59025
667.262	58926.02
667.612	58985.23
667.962	58990.65
668.312	58913.37
668.662	58988.39
669.011	58957.43
669.361	58910.65
669.711	58966.02
670.06	58912.91
670.41	58857.77
670.76	58849.64
671.109	58863.65
671.459	58871.33
671.808	58833.59
672.157	58951.78
672.507	58790.43
672.856	58769.87
673.205	58772.35
673.554	58846.93
673.904	58769.64
674.253	58959.92
674.602	58724.67
674.951	58512.25
675.3	58340.95
675.649	58762.18
675.998	58679.93
676.346	58745.01
676.695	58826.14
677.044	58673.15
677.393	58724.9
677.741	58813.48
678.09	58661.85
678.438	58554.51
678.787	58632.92
679.135	58626.14
679.484	58455.98
679.832	58549.76
680.181	58487.84
680.529	58562.41
680.877	58415.53
681.225	58358.58
681.573	58613.26
681.922	58381.18
682.27	58289.65
682.618	58352.48
682.966	58239.94
683.314	58345.92
683.661	58268.19
684.009	58123.56
684.357	58132.37
684.705	58061.19
685.053	58120.17
685.4	58004.69
685.748	57900.74
686.095	57936.89
686.443	57759.95
686.79	57753.85
687.138	57853.28
687.485	57757.92
687.832	57630.91
688.18	57674.08
688.527	57536
688.874	57494.87
689.221	57525.38
689.568	57365.61
689.915	57260.98
690.262	57338.49
690.609	57305.27
690.956	57129.01
691.303	57158.38
691.65	56990.7
691.997	56960.42
692.344	56892.85
692.69	56842.91
693.037	56778.28
693.383	56621.22
693.73	56668
694.077	56524.28
694.423	56503.71
694.769	56404.73
695.116	56331.74
695.462	56249.71
695.808	56149.6
696.155	56195.47
696.501	56017.85
696.847	56049.49
697.193	55750.29
697.539	55827.8
697.885	55646.11
698.231	55633.45
698.577	55649.5
698.923	55656.5
699.269	55427.13
699.614	55275.72
699.96	55220.81
700.306	55269.85
700.651	55138.78
700.997	55039.34
701.342	55026.69
701.688	54933.58
702.033	54841.83
702.379	54827.15
702.724	54638
703.069	54672.35
703.415	54401.39
703.76	54437.1
704.105	54472.13
704.45	54250.89
704.795	54196.43
705.14	54101.74
705.485	54151.91
705.83	53906.04
706.175	54023.1
706.52	53870.56
706.865	53790.79
707.209	53696.55
707.554	53648.65
707.899	53704.69
708.243	53607.52
708.588	53483.45
708.932	53294.76
709.277	53331.82
709.621	53238.26
709.966	53064.03
710.31	53116.68
710.654	52878.04
710.998	52941.32
711.342	52904.48
711.687	52830.14
712.031	52756.92
712.375	52618.39
712.719	52507.66
713.063	52628.56
713.407	52664.04
713.75	52386.31
714.094	52467.43
714.438	52346.99
714.782	52353.54
715.125	52128.23
715.469	52303.82
715.812	51975.47
716.156	51915.58
716.499	51846.21
716.843	52004.85
717.186	51815.7
717.53	51939.54
717.873	51897.73
718.216	51701.13
718.559	51590.62
718.902	51412.55
719.246	51454.81
719.589	51382.49
719.932	51226.56
720.275	51193.34
720.617	51254.13
720.96	51173.68
721.303	51122.38
721.646	51130.07
721.989	51049.62
722.331	51045.1
722.674	50889.62
723.016	50871.09
723.359	50659.57
723.701	50809.17
724.044	50589.07
724.386	50522.85
724.729	50624.54
725.071	50627.93
725.413	50544.09
725.755	50386.58
726.097	50392.69
726.439	50205.35
726.782	50169.42
727.124	50247.38
727.465	50211.22
727.807	50044.45
728.149	50150.88
728.491	50013.49
728.833	50036.54
729.175	49927.84
729.516	49815.75
729.858	49777.11
730.199	49824.11
730.541	49778.47
730.882	49696.21
731.224	49756.32
731.565	49565.59
731.906	49618.7
732.248	49658.02
732.589	49430.9
732.93	49425.93
733.271	49437.46
733.612	49438.36
733.953	49419.83
734.294	49159.5
734.635	49220.06
734.976	49328.31
735.317	48928.09
735.658	49089.44
735.999	49047.41
736.339	49078.6
736.68	49043.34
737.021	49009.9
737.361	48784.14
737.702	49010.8
738.042	48827.76
738.383	48914.31
738.723	48815.33
739.063	48574.88
739.404	48750.47
739.744	48648.78
740.084	48541.89
740.424	48568.78
740.764	48564.03
741.104	48641.55
741.444	48391.16
741.784	48310.03
742.124	48378.28
742.464	48204.04
742.804	48189.35
743.143	48072.75
743.483	48137.15
743.823	48022.13
744.162	47977.38
744.502	47999.98
744.841	47933.77
745.181	48074.1
745.52	47855.8
745.86	47902.36
746.199	47882.7
746.538	47774.22
746.877	47848.8
747.216	47776.03
747.556	47553.44
747.895	47703.94
748.234	47533.33
748.573	47485.87
748.911	47367.68
749.25	47516.38
749.589	47108.93
749.928	47339.21
750.267	47367.23
750.605	47071.64
750.944	47093.79
751.283	46965.88
751.621	47068.93
751.96	46896.96
752.298	46849.05
752.636	46880.46
752.975	46620.13
753.313	46539.91
753.651	46731.99
753.989	46487.93
754.327	46559.34
754.666	46233.25
755.004	46233.93
755.342	46322.51
