Data from 214_FLMS001491_007.txt Node
Date: Thu Apr 19 16:36:50 BST 2018
User: hsy
Spectrometer: FLMS00149
Trigger mode: 0
Integration Time (sec): 1.000000E-2
Scans to average: 10
Electric dark correction enabled: true
Nonlinearity correction enabled: false
Boxcar width: 0
XAxis mode: Wavelengths
Number of Pixels in Spectrum: 2048
>>>>>Begin Spectral Data<<<<<
341.393	-30.92
341.776	-30.92
342.16	-30.92
342.543	-53.06
342.927	-67.98
343.31	-74.53
343.693	-74.53
344.077	-53.29
344.46	-58.71
344.843	-57.81
345.226	-45.38
345.61	-31.37
345.993	-4.48
346.376	-12.61
346.759	9.08
347.142	19.48
347.525	38.01
347.908	64
348.291	67.39
348.674	81.17
349.057	133.6
349.44	128.4
349.823	129.3
350.206	158.91
350.588	230.09
350.971	242.52
351.354	266.02
351.737	282.52
352.119	305.12
352.502	291.11
352.884	283.2
353.267	319.81
353.65	303.31
354.032	328.17
354.414	344.21
354.797	358
355.179	356.64
355.562	379.47
355.944	357.77
356.326	382.41
356.709	380.37
357.091	345.8
357.473	376.76
357.855	382.63
358.238	374.72
358.62	380.82
359.002	368.17
359.384	383.31
359.766	399.35
360.148	393.03
360.53	372.91
360.912	390.54
361.294	379.24
361.676	358.45
362.057	365.91
362.439	369.3
362.821	398.9
363.203	374.95
363.584	384.89
363.966	376.3
364.348	357.55
364.729	374.5
365.111	374.5
365.493	378.34
365.874	372.91
366.256	367.72
366.637	368.17
367.019	370.43
367.4	377.66
367.781	371.78
368.163	384.89
368.544	377.21
368.925	374.5
369.306	376.08
369.688	386.02
370.069	367.72
370.45	383.76
370.831	358.23
371.212	363.87
371.593	371.33
371.974	370.65
372.355	396.19
372.736	386.92
373.117	365.91
373.498	359.58
373.879	381.28
374.26	379.24
374.641	358.23
375.021	372.91
375.402	389.18
375.783	401.61
376.163	411.11
376.544	423.31
376.925	415.62
377.305	416.53
377.686	415.85
378.066	390.99
378.447	410.2
378.827	405.23
379.208	403.65
379.588	416.3
379.968	417.66
380.349	446.13
380.729	416.75
381.109	430.77
381.489	413.14
381.87	438.22
382.25	439.8
382.63	420.37
383.01	432.35
383.39	433.48
383.77	423.76
384.15	454.04
384.53	433.48
384.91	439.35
385.29	439.58
385.67	451.78
386.049	469.63
386.429	463.31
386.809	473.48
387.189	470.54
387.568	476.19
387.948	466.02
388.328	460.6
388.707	490.2
389.087	471.67
389.466	467.6
389.846	473.93
390.225	490.42
390.605	489.75
390.984	485.68
391.363	490.65
391.743	501.05
392.122	495.85
392.501	479.8
392.881	508.73
393.26	527.94
393.639	509.63
394.018	517.54
394.397	520.93
394.776	497.66
395.155	537.66
395.534	543.53
395.913	519.8
396.292	565
396.671	565.23
397.05	541.72
397.429	547.37
397.808	578.11
398.186	561.16
398.565	570.87
398.944	580.59
399.323	568.39
399.701	558.67
400.08	570.2
400.458	582.63
400.837	600.03
401.215	581.04
401.594	610.87
401.972	608.61
402.351	602.96
402.729	604.77
403.107	611.55
403.486	612.46
403.864	623.08
404.242	630.31
404.62	634.6
404.999	650.19
405.377	655.39
405.755	663.3
406.133	642.74
406.511	662.4
406.889	685
407.267	676.63
407.645	687.26
408.023	680.02
408.401	690.42
408.779	701.94
409.156	734.03
409.534	720.7
409.912	748.05
410.29	728.84
410.667	749.85
411.045	751.66
411.422	737.65
411.8	749.63
412.178	776.97
412.555	802.73
412.933	777.2
413.31	793.92
413.687	811.77
414.065	809.96
414.442	814.94
414.819	828.5
415.197	827.37
415.574	859.91
415.951	867.14
416.328	877.08
416.705	868.27
417.082	912.56
417.46	868.27
417.837	897.87
418.214	902.39
418.591	935.61
418.967	927.93
419.344	921.83
419.721	942.39
420.098	919.79
420.475	959.79
420.852	984.65
421.228	970.64
421.605	979.9
421.982	970.64
422.358	985.78
422.735	1026.46
423.111	993.24
423.488	1016.51
423.864	1026
424.241	1043.63
424.617	1066.91
424.994	1063.07
425.37	1064.42
425.746	1080.24
426.123	1082.05
426.499	1093.8
426.875	1096.74
427.251	1137.19
427.627	1139.67
428.003	1147.81
428.379	1160.92
428.756	1176.73
429.132	1163.4
429.507	1190.07
429.883	1236.62
430.259	1233.23
430.635	1243.85
431.011	1238.65
431.387	1274.36
431.763	1272.55
432.138	1309.16
432.514	1302.61
432.89	1325.66
433.265	1352.55
433.641	1358.88
434.016	1380.8
434.392	1449.27
434.767	1440.68
435.143	1419.21
435.518	1439.78
435.894	1444.98
436.269	1481.81
436.644	1506.44
437.02	1522.49
437.395	1524.07
437.77	1512.32
438.145	1557.97
438.52	1563.84
438.895	1588.02
439.271	1566.1
439.646	1595.25
440.021	1647.46
440.395	1658.08
440.77	1590.96
441.145	1636.61
441.52	1655.37
441.895	1689.94
442.27	1701.47
442.645	1656.27
443.019	1720
443.394	1699.21
443.769	1674.35
444.143	1747.34
444.518	1749.15
444.892	1745.08
445.267	1751.86
445.641	1753.67
446.016	1757.06
446.39	1795.7
446.764	1797.74
447.139	1811.52
447.513	1828.02
447.887	1827.79
448.262	1848.58
448.636	1831.86
449.01	1851.29
449.384	1881.35
449.758	1869.6
450.132	1871.41
450.506	1879.77
450.88	1938.75
451.254	1969.26
451.628	1966.77
452.002	1983.04
452.376	2011.74
452.75	2016.71
453.123	2038.41
453.497	2072.08
453.871	2072.08
454.244	2108.01
454.618	2139.42
454.992	2139.65
455.365	2147.78
455.739	2215.58
456.112	2205.18
456.486	2244.28
456.859	2263.03
457.232	2292.64
457.606	2332.64
457.979	2308.68
458.352	2364.27
458.725	2403.14
459.099	2402.47
459.472	2423.03
459.845	2466.87
460.218	2478.4
460.591	2500.54
460.964	2538.28
461.337	2567.66
461.71	2577.15
462.083	2637.26
462.456	2646.53
462.829	2701.21
463.201	2684.72
463.574	2706.64
463.947	2718.16
464.32	2781.66
464.692	2787.77
465.065	2789.35
465.438	2790.93
465.81	2856.46
466.183	2882
466.555	2930.59
466.928	2949.34
467.3	2938.27
467.672	2976.01
468.045	3067.31
468.417	3084.93
468.789	3081.54
469.161	3115.67
469.534	3132.16
469.906	3155.67
470.278	3223.23
470.65	3255.1
471.022	3287.19
471.394	3305.04
471.766	3350.24
472.138	3412.83
472.51	3444.92
472.882	3475.21
473.253	3555.66
473.625	3572.83
473.997	3649.44
474.369	3682.88
474.74	3679.72
475.112	3750.45
475.484	3803.78
475.855	3843.11
476.227	3944.12
476.598	3984.57
476.97	4044.23
477.341	4087.84
477.713	4111.12
478.084	4179.59
478.455	4269.53
478.827	4279.03
479.198	4377.1
479.569	4363.54
479.94	4499.81
480.311	4540.26
480.682	4640.37
481.053	4735.74
481.424	4803.76
481.795	4861.16
482.166	4876.3
482.537	4987.48
482.908	5081.94
483.279	5161.49
483.65	5167.36
484.021	5306.57
484.391	5345.89
484.762	5378.66
485.133	5441.48
485.503	5542.72
485.874	5638.09
486.244	5696.16
486.615	5828.36
486.985	5874.69
487.356	5949.49
487.726	5997.85
488.097	6122.37
488.467	6166.89
488.837	6286.43
489.207	6349.03
489.578	6446.65
489.948	6507.44
490.318	6592.64
490.688	6601.45
491.058	6755.57
491.428	6809.13
491.798	6826.76
492.168	6968.22
492.538	7066.75
492.908	7102.68
493.278	7207.08
493.648	7221.55
494.017	7332.5
494.387	7389.68
494.757	7445.5
495.126	7545.61
495.496	7562.33
495.866	7600.97
496.235	7662.44
496.605	7764.13
496.974	7711.03
497.344	7812.72
497.713	7897.91
498.082	7966.16
498.452	7979.72
498.821	8078.47
499.19	8035.76
499.559	8140.62
499.928	8224.91
500.298	8252.03
500.667	8283.44
501.036	8330.22
501.405	8398.92
501.774	8366.83
502.143	8436.43
502.512	8450.22
502.88	8558.46
503.249	8528.63
503.618	8616.09
503.987	8625.13
504.356	8736.54
504.724	8774.5
505.093	8822.41
505.462	8838.68
505.83	8856.98
506.199	8824.67
506.567	8996.87
506.936	8983.31
507.304	9100.14
507.672	9131.33
508.041	9147.15
508.409	9183.53
508.777	9242.06
509.145	9384.43
509.514	9346.46
509.882	9447.93
510.25	9419.68
510.618	9470.98
510.986	9528.61
511.354	9683.18
511.722	9715.72
512.09	9820.35
512.458	9791.65
512.826	9808.6
513.193	9858.31
513.561	9902.83
513.929	9981.7
514.297	10020.34
514.664	10122.49
515.032	10190.96
515.4	10224.86
515.767	10205.42
516.135	10308.02
516.502	10283.16
516.869	10537.39
517.237	10510.27
517.604	10461.24
517.972	10669.59
518.339	10701.46
518.706	10762.7
519.073	10825.07
519.44	10851.51
519.808	11018.96
520.175	11047.89
520.542	11125.4
520.909	11277.94
521.276	11290.82
521.643	11429.57
522.009	11467.54
522.376	11533.75
522.743	11615.78
523.11	11743.69
523.477	11873.18
523.843	11874.98
524.21	11985.04
524.577	12225.03
524.943	12232.94
525.31	12368.08
525.676	12492.6
526.043	12552.93
526.409	12652.59
526.776	12831.57
527.142	12898.91
527.508	12908.4
527.874	13155.18
528.241	13165.12
528.607	13242.86
528.973	13452.12
529.339	13347.04
529.705	13570.98
530.071	13615.05
530.437	13721.72
530.803	13860.69
531.169	13965.1
531.535	13975.04
531.901	14129.84
532.267	14190.18
532.632	14314.24
532.998	14415.26
533.364	14504.97
533.73	14494.35
534.095	14651.18
534.461	14648.24
534.826	14748.81
535.192	14786.55
535.557	14977.5
535.923	14939.54
536.288	15082.36
536.653	15179.98
537.019	15132.07
537.384	15260.21
537.749	15351.73
538.114	15373.2
538.479	15412.74
538.845	15515.34
539.21	15454.1
539.575	15582.46
539.94	15631.72
540.305	15714.21
540.67	15813.41
541.034	15870.81
541.399	15917.82
541.764	15938.15
542.129	16094.31
542.494	16081.65
542.858	16021.99
543.223	16176.79
543.587	16261.31
543.952	16234.87
544.316	16181.76
544.681	16269.67
545.045	16422.89
545.41	16494.52
545.774	16411.14
546.138	16541.98
546.503	16629.21
546.867	16693.61
547.231	16752.37
547.595	16842.09
547.959	16924.8
548.324	16875.98
548.688	16939.48
549.052	17049.31
549.416	17053.61
549.779	16998.69
550.143	17078.46
550.507	17351
550.871	17332.92
551.235	17387.16
551.599	17603.65
551.962	17498.57
552.326	17499.02
552.689	17606.81
553.053	17618.34
553.417	17714.6
553.78	17845.67
554.143	17982.85
554.507	18063.52
554.87	18092
555.234	18201.6
555.597	18116.4
555.96	18363.4
556.323	18341.26
556.686	18448.37
557.05	18580.8
557.413	18554.81
557.776	18681.81
558.139	18889.94
558.502	18865.76
558.865	18962.26
559.228	19159.54
559.59	19300.1
559.953	19365.41
560.316	19618.51
560.679	19597.49
561.041	19707.32
561.404	19859.63
561.767	20203.35
562.129	19979.63
562.492	20279.96
562.854	20236.12
563.217	20386.62
563.579	20541.65
563.941	20793.62
564.304	20945.71
564.666	21133.5
565.028	21145.02
565.39	21286.71
565.753	21563.32
566.115	21643.54
566.477	21826.14
566.839	22030.2
567.201	22285.11
567.563	22290.76
567.925	22581.82
568.287	22481.71
568.648	22772.55
569.01	22944.98
569.372	23349.03
569.734	23342.71
570.095	23565.52
570.457	23826.99
570.819	23891.84
571.18	24043.7
571.542	24308.78
571.903	24295
572.265	24636.91
572.626	24812.95
572.987	24923.23
573.349	25188.98
573.71	25329.32
574.071	25535.87
574.432	25742.64
574.794	26029.41
575.155	25983.54
575.516	26160.03
575.877	26357.77
576.238	26390.99
576.599	26656.29
576.96	26718.44
577.32	26941.48
577.681	26989.62
578.042	27221.25
578.403	27296.05
578.763	27394.35
579.124	27547.57
579.485	27824.62
579.845	27975.58
580.206	28065.75
580.566	28187.78
580.927	28226.42
581.287	28664.6
581.648	28501.44
582.008	28831.83
582.368	28878.61
582.728	29036.79
583.089	29182.55
583.449	29326.28
583.809	29512.94
584.169	29750.67
584.529	29924.91
584.889	30322.18
585.249	30374.61
585.609	30435.85
585.969	30879.23
586.329	31109.28
586.688	31419.33
587.048	31648.7
587.408	31863.61
587.768	32045.98
588.127	32412.75
588.487	32627.43
588.846	33178.61
589.206	33330.01
589.565	33618.82
589.925	34156.88
590.284	34541.96
590.643	34860.14
591.003	35262.17
591.362	35816.95
591.721	36029.83
592.08	36449.03
592.44	37051.27
592.799	37413.75
593.158	37878.82
593.517	38093.96
593.876	38765.58
594.235	38980.26
594.593	39479.46
594.952	39912.67
595.311	40212.54
595.67	40893.88
596.029	41464.26
596.387	41916.45
596.746	42411.36
597.104	42495.65
597.463	43135.63
597.822	43624.66
598.18	43915.72
598.538	44363.62
598.897	45042.02
599.255	45198.18
599.613	46014.43
599.972	46239.05
600.33	46560.85
600.688	47015.98
601.046	47434.73
601.404	48045.11
601.762	48178.89
602.12	48817.06
602.478	49117.85
602.836	49463.37
603.194	49653.88
603.552	50044.83
603.91	50266.07
604.268	50630.8
604.625	51046.84
604.983	51318.24
605.341	51350.56
605.698	51902.86
606.056	52415.61
606.413	52358.67
606.771	52778.09
607.128	52952.32
607.485	53105.99
607.843	53372.2
608.2	53757.05
608.557	54023.25
608.914	54085.4
609.272	54473.86
609.629	54790.24
609.986	55018.26
610.343	55035.88
610.7	55436.1
611.057	55525.81
611.414	55613.72
611.771	55909.31
612.127	56051.9
612.484	56266.36
612.841	56434.04
613.198	56460.93
613.554	56538.44
613.911	56877.42
614.267	57049.39
614.624	57139.78
614.98	57268.14
615.337	57542.94
615.693	57591.3
616.05	57685.76
616.406	57868.35
616.762	57887.56
617.118	58006.88
617.475	58024.51
617.831	58288.91
618.187	58410.26
618.543	58442.12
618.899	58669.01
619.255	58653.42
619.611	58697.03
619.967	58967.31
620.323	59051.82
620.678	59047.3
621.034	59082.1
621.39	59088.88
621.746	59163.91
622.101	59478.03
622.457	59344.02
622.812	59485.48
623.168	59540.85
623.523	59592.37
623.879	59743.33
624.234	59645.71
624.589	59698.81
624.945	59772.48
625.3	59866.94
625.655	59933.61
626.01	59905.36
626.365	59991.91
626.72	59941.74
627.075	59924.12
627.43	60067.39
627.785	60063.77
628.14	60080.72
628.495	60086.37
628.85	60179.03
629.205	60104.45
629.559	60224.22
629.914	60106.71
630.269	60159.82
630.623	60092.02
630.978	60042.53
631.332	60210.89
631.687	60211.79
632.041	60195.3
632.396	60162.53
632.75	60108.74
633.104	60209.08
633.459	60079.37
633.813	60065.58
634.167	60075.3
634.521	60096.77
634.875	60086.15
635.229	60099.03
635.583	59962.99
635.937	59953.27
636.291	59925.92
636.645	59972.02
636.999	59899.94
637.352	60021.74
637.706	59820.62
638.06	59986.71
638.413	59899.94
638.767	59771.35
639.121	59849.99
639.474	59751.01
639.828	59767.28
640.181	59772.71
640.534	59811.13
640.888	59701.07
641.241	59588.31
641.594	59647.74
641.947	59716.21
642.301	59654.52
642.654	59663.11
643.007	59567.74
643.36	59590.11
643.713	59561.19
644.066	59645.71
644.419	59453.17
644.771	59240.29
645.124	58979.06
645.477	58938.83
645.83	58893.64
646.182	58865.39
646.535	58761.66
646.888	58876.69
647.24	58724.37
647.593	58914.43
647.945	58725.96
648.298	58712.85
648.65	58673.3
649.002	58556.92
649.355	58516.92
649.707	58514.21
650.059	58479.41
650.411	58813.64
650.763	58892.05
651.115	59195.77
651.467	59206.17
651.819	59171.37
652.171	59064.03
652.523	58970.47
652.875	59014.31
653.227	58901.32
653.578	59174.31
653.93	58969.79
654.282	58860.19
654.633	58876.23
654.985	58891.83
655.337	58917.59
655.688	58873.07
656.039	58971.6
656.391	58743.36
656.742	58762.11
657.094	58806.18
657.445	58814.99
657.796	58813.41
658.147	58719.4
658.498	58819.96
658.849	58806.41
659.2	58711.72
659.551	58687.09
659.902	58862.68
660.253	58701.32
660.604	58827.42
660.955	58675.34
661.306	58768.89
661.656	58693.19
662.007	58738.61
662.358	58714.88
662.708	58725.73
663.059	58721.44
663.409	58533.87
663.76	58720.76
664.11	58665.62
664.461	58778.16
664.811	58748.55
665.161	58676.01
665.511	58640.31
665.862	58680.31
666.212	58695.67
666.562	58700.42
666.912	58655
667.262	58645.96
667.612	58682.34
667.962	58702.91
668.312	58592.4
668.662	58751.49
669.011	58728.44
669.361	58621.1
669.711	58604.38
670.06	58560.76
670.41	58499.97
670.76	58481.44
671.109	58624.04
671.459	58613.87
671.808	58512.4
672.157	58582
672.507	58439.64
672.856	58510.37
673.205	58505.85
673.554	58530.71
673.904	58444.61
674.253	58693.41
674.602	58471.5
674.951	58161.45
675.3	58001.91
675.649	58485.51
675.998	58459.07
676.346	58470.14
676.695	58507.43
677.044	58305.4
677.393	58389.02
677.741	58451.61
678.09	58342.24
678.438	58253.2
678.787	58354.89
679.135	58338.17
679.484	58181.56
679.832	58268.57
680.181	58154.45
680.529	58247.55
680.877	58106.99
681.225	58067.67
681.573	58235.8
681.922	58117.61
682.27	58019.99
682.618	57957.84
682.966	57969.37
683.314	57920.1
683.661	57917.62
684.009	57864.96
684.357	57832.65
684.705	57723.04
685.053	57713.78
685.4	57605.31
685.748	57570.96
686.095	57612.54
686.443	57484.41
686.79	57437.4
687.138	57496.84
687.485	57455.48
687.832	57302.04
688.18	57359.66
688.527	57180.91
688.874	57201.93
689.221	57150.86
689.568	57061.59
689.915	56995.15
690.262	57013.91
690.609	56906.34
690.956	56852.11
691.303	56840.36
691.65	56646.01
691.997	56634.03
692.344	56502.96
692.69	56403.53
693.037	56547.03
693.383	56173.48
693.73	56340.48
694.077	56192.01
694.423	56147.72
694.769	56083.77
695.116	56034.05
695.462	55955.63
695.808	55934.39
696.155	55867.05
696.501	55626.6
696.847	55673.38
697.193	55554.51
697.539	55636.09
697.885	55426.16
698.231	55340.06
698.577	55347.29
698.923	55284.24
699.269	55089.89
699.614	55047.18
699.96	54874.98
700.306	54970.8
700.651	54790.01
700.997	54778.94
701.342	54657.14
701.688	54605.16
702.033	54553.86
702.379	54524.03
702.724	54386.41
703.069	54435.45
703.415	54095.34
703.76	54036.14
704.105	54056.25
704.45	54013.09
704.795	53908.23
705.14	53804.05
705.485	53857.38
705.83	53655.58
706.175	53679.31
706.52	53615.58
706.865	53487.9
707.209	53371.52
707.554	53355.93
707.899	53297.17
708.243	53195.25
708.588	53145.31
708.932	52843.62
709.277	53037.52
709.621	52877.52
709.966	52688.37
710.31	52727.47
710.654	52404.77
710.998	52643.18
711.342	52578.77
711.687	52460.36
712.031	52371.77
712.375	52163.42
712.719	52204.55
713.063	52135.62
713.407	52314.37
713.75	52105.56
714.094	51954.16
714.438	51796.87
714.782	51880.94
715.125	51696.31
715.469	51949.18
715.812	51588.52
716.156	51489.99
716.499	51553.04
716.843	51517.56
717.186	51341.52
717.53	51552.59
717.873	51397.79
718.216	51233.27
718.559	51214.29
718.902	50913.73
719.246	51098.59
719.589	50913.05
719.932	50793.06
720.275	50783.57
720.617	50866.5
720.96	50692.27
721.303	50741.08
721.646	50747.18
721.989	50472.16
722.331	50575.66
722.674	50463.35
723.016	50398.04
723.359	50338.38
723.701	50368.89
724.044	50302
724.386	50156.24
724.729	50284.37
725.071	50211.38
725.413	50138.61
725.755	50017.71
726.097	49885.28
726.439	49774.78
726.782	49840.31
727.124	49888.9
727.465	49840.31
727.807	49769.81
728.149	49805.06
728.491	49631.51
728.833	49608.46
729.175	49459.31
729.516	49461.57
729.858	49425.41
730.199	49592.64
730.541	49346.32
730.882	49352.19
731.224	49228.8
731.565	49083.5
731.906	49090.05
732.248	49124.4
732.589	49004.86
732.93	48874.01
733.271	48831.07
733.612	48757.63
733.953	48841.92
734.294	48767.57
734.635	48624.98
734.976	48841.92
735.317	48586.11
735.658	48582.72
735.999	48377.75
736.339	48323.52
736.68	48461.37
737.021	48398.09
737.361	48243.07
737.702	48507.02
738.042	48175.72
738.383	48369.17
738.723	48280.58
739.063	48087.37
739.404	48222.73
739.744	48105.22
740.084	47931.66
740.424	48063.64
740.764	47889.18
741.104	47928.5
741.444	47916.75
741.784	47764.21
742.124	47799.46
742.464	47709.3
742.804	47551.79
743.143	47620.94
743.483	47679.01
743.823	47643.31
744.162	47542.75
744.502	47570.09
744.841	47378.01
745.181	47557.89
745.52	47259.14
745.86	47358.12
746.199	47356.76
746.538	47153.15
746.877	47372.13
747.216	47210.78
747.556	47139.14
747.895	47131.23
748.234	46991.12
748.573	46974.85
748.911	46761.52
749.25	46839.04
749.589	46682.66
749.928	46710.9
750.267	46669.78
750.605	46576.22
750.944	46644.92
751.283	46568.31
751.621	46589.33
751.96	46443.79
752.298	46417.58
752.636	46457.13
752.975	46221.88
753.313	46204.7
753.651	46233.18
753.989	45925.16
754.327	46002.67
754.666	45573.31
755.004	45853.53
755.342	45829.57
755.679	45717.03
