Data from 214_FLMS001491_006.txt Node
Date: Thu Apr 19 16:36:48 BST 2018
User: hsy
Spectrometer: FLMS00149
Trigger mode: 0
Integration Time (sec): 1.000000E-2
Scans to average: 10
Electric dark correction enabled: true
Nonlinearity correction enabled: false
Boxcar width: 0
XAxis mode: Wavelengths
Number of Pixels in Spectrum: 2048
>>>>>Begin Spectral Data<<<<<
341.393	0.9
341.776	0.9
342.16	0.9
342.543	-64.86
342.927	-57.4
343.31	-81.81
343.693	-56.72
344.077	-85.42
344.46	-57.17
344.843	-47.23
345.226	-45.42
345.61	-31.19
345.993	-19.66
346.376	-28.25
346.759	-6.33
347.142	45.65
347.525	65.99
347.908	42.71
348.291	67.12
348.674	111.64
349.057	126.1
349.44	146.89
349.823	135.82
350.206	166.78
350.588	207.68
350.971	236.15
351.354	256.04
351.737	287
352.119	295.59
352.502	298.75
352.884	312.08
353.267	318.64
353.65	322.48
354.032	343.27
354.414	362.48
354.797	365.64
355.179	372.42
355.562	354.11
355.944	359.99
356.326	378.07
356.709	386.66
357.091	376.49
357.473	379.43
357.855	399.31
358.238	374
358.62	385.53
359.002	392.53
359.384	372.87
359.766	391.63
360.148	378.52
360.53	362.7
360.912	377.17
361.294	398.86
361.676	393.66
362.057	368.13
362.439	405.41
362.821	386.43
363.203	366.32
363.584	371.74
363.966	375.81
364.348	381.23
364.729	389.37
365.111	369.71
365.493	351.4
365.874	373.78
366.256	383.72
366.637	378.52
367.019	358.18
367.4	361.12
367.781	348.24
368.163	369.48
368.544	357.96
368.925	375.81
369.306	356.6
369.688	376.04
370.069	364.51
370.45	354.79
370.831	363.61
371.212	374.68
371.593	366.54
371.974	349.14
372.355	376.71
372.736	371.06
373.117	370.16
373.498	373.55
373.879	385.53
374.26	368.58
374.641	381.46
375.021	372.42
375.402	380.33
375.783	397.28
376.163	423.94
376.544	388.24
376.925	424.4
377.305	399.54
377.686	416.49
378.066	386.43
378.447	403.15
378.827	415.81
379.208	387.56
379.588	435.92
379.968	404.96
380.349	422.59
380.729	405.64
381.109	416.71
381.489	393.44
381.87	418.52
382.25	414.45
382.63	425.07
383.01	440.44
383.39	433.89
383.77	458.75
384.15	451.51
384.53	430.27
384.91	441.34
385.29	470.5
385.67	453.32
386.049	445.41
386.429	452.42
386.809	482.7
387.189	465.75
387.568	453.1
387.948	469.82
388.328	473.66
388.707	467.11
389.087	506.2
389.466	461.46
389.846	478.41
390.225	486.09
390.605	479.54
390.984	497.61
391.363	500.1
391.743	516.6
392.122	497.39
392.501	515.47
392.881	498.07
393.26	501.46
393.639	533.77
394.018	532.87
394.397	516.14
394.776	503.49
395.155	510.72
395.534	514.34
395.913	516.37
396.292	555.69
396.671	550.27
397.05	538.29
397.429	548.01
397.808	572.19
398.186	551.85
398.565	543.94
398.944	559.08
399.323	558.86
399.701	584.84
400.08	557.27
400.458	576.48
400.837	580.78
401.215	575.8
401.594	590.72
401.972	595.01
402.351	605.18
402.729	609.48
403.107	602.47
403.486	595.69
403.864	621
404.242	618.06
404.62	628.01
404.999	604.05
405.377	638.4
405.755	614.67
406.133	646.54
406.511	655.35
406.889	652.19
407.267	695.57
407.645	681.79
408.023	684.05
408.401	653.09
408.779	676.59
409.156	697.38
409.534	725.4
409.912	706.65
410.29	750.04
410.667	751.62
411.045	750.49
411.422	760.88
411.8	767.89
412.178	760.88
412.555	766.76
412.933	793.43
413.31	782.58
413.687	817.15
414.065	770.38
414.442	813.54
414.819	816.02
415.197	823.93
415.574	862.58
415.951	824.61
416.328	849.47
416.705	863.71
417.082	859.86
417.46	880.65
417.837	889.47
418.214	889.69
418.591	902.35
418.967	888.11
419.344	926.08
419.721	923.37
420.098	945.51
420.475	942.8
420.852	955.46
421.228	946.19
421.605	959.97
421.982	933.08
422.358	991.16
422.735	973.76
423.111	995
423.488	988.67
423.864	1019.41
424.241	1037.26
424.617	1056.92
424.994	1041.55
425.37	1031.84
425.746	1033.19
426.123	1101.89
426.499	1074.77
426.875	1060.76
427.251	1077.03
427.627	1155
428.003	1116.13
428.379	1148.44
428.756	1116.35
429.132	1154.77
429.507	1178.5
429.883	1188.22
430.259	1225.05
430.635	1219.63
431.011	1216.92
431.387	1255.56
431.763	1258.05
432.138	1300.76
432.514	1306.86
432.89	1287.65
433.265	1331.94
433.641	1354.54
434.016	1334.43
434.392	1367.87
434.767	1402
435.143	1377.14
435.518	1400.19
435.894	1435.22
436.269	1457.36
436.644	1458.49
437.02	1501.2
437.395	1493.97
437.77	1502.56
438.145	1519.96
438.52	1545.04
438.895	1549.79
439.271	1529.68
439.646	1570.81
440.021	1609
440.395	1624.14
440.77	1584.82
441.145	1601.99
441.52	1604.03
441.895	1616.91
442.27	1643.57
442.645	1654.42
443.019	1664.14
443.394	1658.94
443.769	1669.33
444.143	1680.18
444.518	1680.18
444.892	1711.14
445.267	1746.39
445.641	1719.73
446.016	1747.98
446.39	1751.14
446.764	1762.67
447.139	1748.43
447.513	1776.9
447.887	1755.43
448.262	1779.84
448.636	1808.31
449.01	1835.43
449.384	1826.17
449.758	1834.3
450.132	1875.66
450.506	1851.25
450.88	1912.04
451.254	1866.39
451.628	1936.22
452.002	1933.06
452.376	1919.72
452.75	1947.52
453.123	1987.97
453.497	2006.95
453.871	2025.94
454.244	2075.65
454.618	2040.4
454.992	2112.49
455.365	2090.34
455.739	2180.28
456.112	2143.67
456.486	2189.55
456.859	2163.78
457.232	2261.18
457.606	2224.8
457.979	2278.58
458.352	2299.6
458.725	2332.37
459.099	2357.45
459.472	2350.45
459.845	2414.4
460.218	2413.27
460.591	2454.62
460.964	2507.96
461.337	2487.84
461.71	2496.66
462.083	2528.97
462.456	2556.32
462.829	2545.02
463.201	2625.69
463.574	2620.72
463.947	2653.26
464.32	2672.92
464.692	2682.19
465.065	2748.18
465.438	2751.57
465.81	2768.74
466.183	2781.85
466.555	2827.04
466.928	2856.42
467.3	2854.39
467.672	2885.12
468.045	2952.46
468.417	2980.94
468.789	2977.77
469.161	2981.16
469.534	3034.95
469.906	3104.1
470.278	3110.2
470.65	3132.8
471.022	3199.01
471.394	3231.55
471.766	3240.37
472.138	3311.33
472.51	3370.98
472.882	3370.76
473.253	3436.75
473.625	3478.33
473.997	3525.11
474.369	3520.59
474.74	3594.03
475.112	3603.07
475.484	3670.19
475.855	3725.78
476.227	3760.13
476.598	3854.36
476.97	3883.29
477.341	3936.39
477.713	3973.91
478.084	4032.21
478.455	4084.64
478.827	4096.39
479.198	4231.3
479.569	4274.01
479.94	4352.88
480.311	4382.48
480.682	4485.98
481.053	4565.98
481.424	4659.09
481.795	4676.26
482.166	4783.38
482.537	4750.38
482.908	4885.75
483.279	4925.75
483.65	4984.28
484.021	5123.71
484.391	5173.88
484.762	5208.68
485.133	5280.54
485.503	5285.28
485.874	5440.53
486.244	5465.39
486.615	5579.97
486.985	5628.78
487.356	5752.84
487.726	5787.42
488.097	5884.37
488.467	5935.89
488.837	5986.74
489.207	6111.25
489.578	6158.48
489.948	6283.22
490.318	6292.26
490.688	6364.13
491.058	6374.3
491.428	6541.3
491.798	6602.09
492.168	6658.13
492.538	6768.64
492.908	6864.68
493.278	6915.98
493.648	6874.17
494.017	6964.34
494.387	7030.32
494.757	7071.9
495.126	7170.21
495.496	7193.03
495.866	7256.76
496.235	7308.51
496.605	7442.06
496.974	7442.06
497.344	7537.88
497.713	7563.42
498.082	7550.08
498.452	7606.81
498.821	7715.05
499.19	7755.05
499.559	7767.48
499.928	7827.36
500.298	7894.03
500.667	7912.11
501.036	7987.59
501.405	8023.97
501.774	8022.61
502.143	8095.38
502.512	8058.09
502.88	8114.36
503.249	8162.72
503.618	8251.08
503.987	8260.12
504.356	8317.52
504.724	8340.12
505.093	8364.07
505.462	8431.64
505.83	8479.1
506.199	8475.71
506.567	8569.04
506.936	8555.93
507.304	8662.6
507.672	8677.06
508.041	8658.08
508.409	8785.08
508.777	8893.78
509.145	8956.83
509.514	8878.18
509.882	8978.07
510.25	8950.5
510.618	9127.67
510.986	9070.5
511.354	9146.43
511.722	9239.08
512.09	9239.76
512.458	9270.94
512.826	9315.01
513.193	9484.95
513.561	9436.81
513.929	9474.78
514.297	9565.4
514.664	9635
515.032	9676.58
515.4	9723.81
515.767	9772.4
516.135	9817.14
516.502	9735.34
516.869	9925.39
517.237	9967.2
517.604	9907.99
517.972	10065.95
518.339	10174.2
518.706	10182.78
519.073	10188.43
519.44	10243.57
519.808	10421.19
520.175	10482.66
520.542	10546.84
520.909	10653.73
521.276	10674.3
521.643	10792.48
522.009	10880.84
522.376	11021.18
522.743	11006.94
523.11	11164.68
523.477	11286.26
523.843	11293.26
524.21	11409.42
524.577	11536.19
524.943	11543.43
525.31	11714.95
525.676	11789.07
526.043	11865
526.409	11907.94
526.776	12121.26
527.142	12121.72
527.508	12227.7
527.874	12389.5
528.241	12489.16
528.607	12503.63
528.973	12646.22
529.339	12644.19
529.705	12838.31
530.071	12961.69
530.437	13012.31
530.803	13092.76
531.169	13202.36
531.535	13130.28
531.901	13257.28
532.267	13346.32
532.632	13516.48
532.998	13622.01
533.364	13689.58
533.73	13681.67
534.095	13774.33
534.461	13902.01
534.826	13977.49
535.192	14059.29
535.557	14167.99
535.923	14142.68
536.288	14247.76
536.653	14346.52
537.019	14266.29
537.384	14393.75
537.749	14497.47
538.114	14469.68
538.479	14520.97
538.845	14634.64
539.21	14645.72
539.575	14809.1
539.94	14802.77
540.305	14892.04
540.67	14936.78
541.034	15017.91
541.399	15044.35
541.764	15059.27
542.129	15082.54
542.494	15175.19
542.858	15269.43
543.223	15244.12
543.587	15322.76
543.952	15405.47
544.316	15401.63
544.681	15466.71
545.045	15573.6
545.41	15641.62
545.774	15611.79
546.138	15572.92
546.503	15738.12
546.867	15795.97
547.231	15785.12
547.595	15830.32
547.959	15920.94
548.324	15945.8
548.688	15995.74
549.052	16128.39
549.416	16102.18
549.779	16130.2
550.143	16260.36
550.507	16287.71
550.871	16380.59
551.235	16408.38
551.599	16519.11
551.962	16584.87
552.326	16570.64
552.689	16661.93
553.053	16609.73
553.417	16709.17
553.78	16861.48
554.143	16896.96
554.507	16995.03
554.87	17095.82
555.234	17266.21
555.597	17127.23
555.96	17222.82
556.323	17405.87
556.686	17354.57
557.05	17581.01
557.413	17649.25
557.776	17663.04
558.139	17736.93
558.502	17864.16
558.865	17966.99
559.228	18122.69
559.59	18140.99
559.953	18283.81
560.316	18478.16
560.679	18421.21
561.041	18631.37
561.404	18782.11
561.767	18822.78
562.129	18773.07
562.492	19041.53
562.854	19212.38
563.217	19211.7
563.579	19408.08
563.941	19542.54
564.304	19649.2
564.666	19946.59
565.028	19932.36
565.39	20015.52
565.753	20243.76
566.115	20359.24
566.477	20555.62
566.839	20664.09
567.201	20874.71
567.563	20920.35
567.925	21144.75
568.287	21290.97
568.648	21457.06
569.01	21674.01
569.372	21877.16
569.734	21889.37
570.095	22241.45
570.457	22424.27
570.819	22376.36
571.18	22652.29
571.542	22897.48
571.903	22907.65
572.265	23281.65
572.626	23331.14
572.987	23445.49
573.349	23675.54
573.71	23893.38
574.071	24057.9
574.432	24192.36
574.794	24412.92
575.155	24525.68
575.516	24626.25
575.877	24780.14
576.238	24858.1
576.599	25149.4
576.96	25150.98
577.32	25325.44
577.681	25420.57
578.042	25784.41
578.403	25750.06
578.763	25968.81
579.124	25951.86
579.485	26308.01
579.845	26429.36
580.206	26479.98
580.566	26712.29
580.927	26703.03
581.287	26932.85
581.648	26952.51
582.008	27269.79
582.368	27388.43
582.728	27572.38
583.089	27760.17
583.449	27924.69
583.809	28137.34
584.169	28330.78
584.529	28284.23
584.889	28978.45
585.249	28931.67
585.609	28988.16
585.969	29409.17
586.329	29475.16
586.688	29940.91
587.048	30142.71
587.408	30511.97
587.768	30716.48
588.127	31161.44
588.487	31405.05
588.846	31952.83
589.206	31983.34
589.565	32329.32
589.925	33032.35
590.284	33061.73
590.643	33584.43
591.003	34046.11
591.362	34604.06
591.721	34857.84
592.08	35242.24
592.44	35856.01
592.799	36119.73
593.158	36489.66
593.517	37020.72
593.876	37611.67
594.235	37772.34
594.593	38362.83
594.952	38819.32
595.311	39228.8
595.67	39700.65
596.029	40263.8
596.387	40824.69
596.746	41364.11
597.104	41572.01
597.463	41991.21
597.822	42570.86
598.18	42895.6
598.538	43363.38
598.897	43934.21
599.255	44180.76
599.613	45135.31
599.972	45242.88
600.33	45736.65
600.688	46074.72
601.046	46604.42
601.404	47090.74
601.762	47476.72
602.12	47972.52
602.478	48226.3
602.836	48746.74
603.194	48822.9
603.552	49330.68
603.91	49468.08
604.268	49930.89
604.625	50161.62
604.983	50702.17
605.341	50612.45
605.698	51238.43
606.056	51642.26
606.413	51724.29
606.771	52117.73
607.128	52403.37
607.485	52497.38
607.843	52721.1
608.2	53175.78
608.557	53463.68
608.914	53605.14
609.272	53888.3
609.629	54282.87
609.986	54445.12
610.343	54509.53
610.7	54898.9
611.057	54978.67
611.414	55087.59
611.771	55393.35
612.127	55620.01
612.484	55771.41
612.841	55938.19
613.198	56017.51
613.554	56071.52
613.911	56461.34
614.267	56540.43
614.624	56617.95
614.98	56876.7
615.337	57092.06
615.693	57156.46
616.05	57231.04
616.406	57461.54
616.762	57520.75
617.118	57607.75
617.475	57697.24
617.831	57901.08
618.187	57939.49
618.543	58111.92
618.899	58269.43
619.255	58241.18
619.611	58299.03
619.967	58486.6
620.323	58633.49
620.678	58601.17
621.034	58577.67
621.39	58717.1
621.746	58704.67
622.101	59078.22
622.457	58910.54
622.812	59029.41
623.168	59156.64
623.523	59205.45
623.879	59286.12
624.234	59215.39
624.589	59288.38
624.945	59308.05
625.3	59407.03
625.655	59468.04
626.01	59469.62
626.365	59516.4
626.72	59546
627.075	59539.9
627.43	59604.31
627.785	59686.34
628.14	59691.09
628.495	59731.54
628.85	59765.43
629.205	59703.29
629.559	59855.15
629.914	59682.72
630.269	59772.44
630.623	59673.69
630.978	59680.46
631.332	59836.84
631.687	59813.12
632.041	59744.42
632.396	59818.77
632.75	59733.8
633.104	59835.71
633.459	59699
633.813	59751.42
634.167	59693.35
634.521	59767.69
634.875	59750.07
635.229	59701.26
635.583	59609.05
635.937	59621.26
636.291	59653.8
636.645	59642.73
636.999	59495.38
637.352	59602.73
637.706	59462.39
638.06	59556.4
638.413	59457.65
638.767	59459.68
639.121	59458.1
639.474	59409.29
639.828	59390.75
640.181	59370.19
640.534	59392.56
640.888	59273.92
641.241	59183.53
641.594	59302.85
641.947	59307.37
642.301	59254.04
642.654	59248.16
643.007	59199.12
643.36	59193.02
643.713	59161.38
644.066	59207.03
644.419	59087.49
644.771	58817.66
645.124	58584.67
645.477	58600.49
645.83	58472.13
646.182	58502.42
646.535	58379.48
646.888	58448.86
647.24	58357.79
647.593	58513.04
647.945	58367.05
648.298	58333.83
648.65	58188.98
649.002	58107.4
649.355	58021.75
649.707	58027.4
650.059	58072.6
650.411	58382.19
650.763	58418.12
651.115	58769.53
651.467	58683.65
651.819	58734.5
652.171	58640.04
652.523	58592.58
652.875	58618.12
653.227	58536.54
653.578	58701.06
653.93	58609.53
654.282	58451.8
654.633	58406.83
654.985	58494.73
655.337	58487.73
655.688	58451.8
656.039	58534.05
656.391	58359.14
656.742	58378.8
657.094	58330.9
657.445	58369.76
657.796	58444.11
658.147	58302.87
658.498	58390.1
658.849	58404.34
659.2	58333.38
659.551	58255.19
659.902	58431.68
660.253	58273.95
660.604	58318.69
660.955	58177.91
661.306	58342.42
661.656	58282.76
662.007	58305.59
662.358	58263.33
662.708	58364.12
663.059	58333.16
663.409	58125.25
663.76	58284.12
664.11	58274.4
664.461	58318.69
664.811	58277.56
665.161	58266.72
665.511	58156.44
665.862	58192.37
666.212	58239.82
666.562	58359.6
666.912	58243.67
667.262	58145.59
667.612	58188.53
667.962	58247.28
668.312	58212.48
668.662	58290.67
669.011	58240.5
669.361	58195.76
669.711	58164.57
670.06	58157.11
670.41	58097
670.76	58146.72
671.109	58226.49
671.459	58146.27
671.808	58152.6
672.157	58146.72
672.507	58061.07
672.856	58043.67
673.205	58058.13
673.554	58105.36
673.904	58036.21
674.253	58223.78
674.602	58076.89
674.951	57703.12
675.3	57593.74
675.649	58041.41
675.998	58007.06
676.346	57959.15
676.695	58034.18
677.044	57838.48
677.393	57948.31
677.741	58005.03
678.09	57946.27
678.438	57888.42
678.787	57911.02
679.135	57889.1
679.484	57744.92
679.832	57833.28
680.181	57756.45
680.529	57790.12
680.877	57718.71
681.225	57626.96
681.573	57826.5
681.922	57655.21
682.27	57587.64
682.618	57614.3
682.966	57507.64
683.314	57565.72
683.661	57464.48
684.009	57372.28
684.357	57325.05
684.705	57259.96
685.053	57287.99
685.4	57191.04
685.748	57149.46
686.095	57194.65
686.443	56991.04
686.79	57040.08
687.138	57099.29
687.485	57081.44
687.832	56964.6
688.18	56980.2
688.527	56831.27
688.874	56818.62
689.221	56730.03
689.568	56559.19
689.915	56561.68
690.262	56632.86
690.609	56489.14
690.956	56377.5
691.303	56382.92
691.65	56233.78
691.997	56227.9
692.344	56040.79
692.69	56118.98
693.037	56010.05
693.383	55850.06
693.73	55899.77
694.077	55733.45
694.423	55713.79
694.769	55606.67
695.116	55641.47
695.462	55569.61
695.808	55370.07
696.155	55457.75
696.501	55194.03
696.847	55310.41
697.193	55083.3
697.539	55154.48
697.885	54942.28
698.231	54876.75
698.577	54922.17
698.923	54865.45
699.269	54627.72
699.614	54618.68
699.96	54446.03
700.306	54553.14
700.651	54418
700.997	54266.14
701.342	54157.22
701.688	54191.57
702.033	53975.76
702.379	54017.34
702.724	53897.11
703.069	53950.67
703.415	53673.39
703.76	53577.57
704.105	53514.07
704.45	53596.33
704.795	53435.21
705.14	53307.75
705.485	53350.69
705.83	53015.1
706.175	53232.95
706.52	53020.53
706.865	52934.2
707.209	52848.55
707.554	52777.82
707.899	52856.46
708.243	52602.01
708.588	52667.54
708.932	52448.34
709.277	52498.05
709.621	52383.93
709.966	52148.01
710.31	52195.46
710.654	51976.26
710.998	52112.08
711.342	52111.62
711.687	51904.62
712.031	51740.79
712.375	51612.2
712.719	51610.62
713.063	51562.71
713.407	51656.27
713.75	51483.17
714.094	51484.07
714.438	51408.37
714.782	51358.42
715.125	51124.08
715.469	51275.94
715.812	51003.63
716.156	50979.9
716.499	50963.18
716.843	51033.23
717.186	50859
717.53	50919.11
717.873	50889.28
718.216	50720.47
718.559	50654.71
718.902	50441.39
719.246	50403.87
719.589	50448.62
719.932	50318.22
720.275	50229.87
720.617	50214.72
720.96	50042.75
721.303	50138.34
721.646	50193.93
721.989	49988.06
722.331	50113.03
722.674	49868.29
723.016	49852.7
723.359	49657.9
723.701	49760.5
724.044	49687.28
724.386	49569.54
724.729	49616.1
725.071	49556.44
725.413	49556.89
725.755	49401.86
726.097	49327.06
726.439	49195.99
726.782	49162.78
727.124	49381.3
727.465	49211.14
727.807	49084.81
728.149	49019.5
728.491	49054.76
728.833	49035.32
729.175	48876.91
729.516	48845.72
729.858	48752.62
730.199	48900.64
730.541	48765.5
730.882	48583.58
731.224	48624.94
731.565	48556.01
731.906	48576.12
732.248	48470.36
732.589	48248
732.93	48297.94
733.271	48321.89
733.612	48206.87
733.953	48331.61
734.294	48082.8
734.635	48097.27
734.976	48200.99
735.317	48096.14
735.658	48038.74
735.999	47842.36
736.339	47771.17
736.68	47949.7
737.021	47930.72
737.361	47620.22
737.702	47848.46
738.042	47650.05
738.383	47648.01
738.723	47783.6
739.063	47532.08
739.404	47749.93
739.744	47577.96
740.084	47480.56
740.424	47484.18
740.764	47330.05
741.104	47609.14
741.444	47187.69
741.784	47135.94
742.124	47324.18
742.464	47152.21
742.804	47194.01
743.143	46917.86
743.483	47069.72
743.823	46944.3
744.162	46926.22
744.502	47011.42
744.841	46760.8
745.181	46817.75
745.52	46733.69
745.86	46724.87
746.199	46607.81
746.538	46600.81
746.877	46634.48
747.216	46661.82
747.556	46433.58
747.895	46497.31
748.234	46290.08
748.573	46392.23
748.911	46286.69
749.25	46264.77
749.589	46071.33
749.928	46153.14
750.267	46042.41
750.605	46029.98
750.944	45959.7
751.283	45878.79
751.621	45785.69
751.96	45760.6
752.298	45724.45
752.636	45561.29
752.975	45417.34
753.313	45297.57
753.651	45618.01
753.989	45255.76
754.327	45344.8
754.666	45040.4
755.004	45145.93
755.342	45059.38
755.679	45036.33
756.017	44870.46
756.355	44977.8
