Data from 214_FLMS001491_009.txt Node
Date: Thu Apr 19 16:36:54 BST 2018
User: hsy
Spectrometer: FLMS00149
Trigger mode: 0
Integration Time (sec): 1.000000E-2
Scans to average: 10
Electric dark correction enabled: true
Nonlinearity correction enabled: false
Boxcar width: 0
XAxis mode: Wavelengths
Number of Pixels in Spectrum: 2048
>>>>>Begin Spectral Data<<<<<
341.393	-17.09
341.776	-17.09
342.16	-17.09
342.543	-82.85
342.927	-61.16
343.31	-63.42
343.693	-65.45
344.077	-70.65
344.46	-75.85
344.843	-40.59
345.226	-50.76
345.61	-35.17
345.993	-31.78
346.376	-6.47
346.759	-1.95
347.142	23.13
347.525	53.64
347.908	56.58
348.291	83.25
348.674	104.49
349.057	120.99
349.44	128.89
349.823	158.27
350.206	172.06
350.588	243.24
350.971	234.65
351.354	248.89
351.737	278.5
352.119	288.44
352.502	313.52
352.884	315.56
353.267	317.14
353.65	325.73
354.032	334.77
354.414	351.71
354.797	362.79
355.179	364.82
355.562	384.71
355.944	379.06
356.326	368.44
356.709	370.47
357.091	391.49
357.473	386.06
357.855	390.36
358.238	385.84
358.62	366.4
359.002	375.89
359.384	387.19
359.766	405.72
360.148	400.3
360.53	374.54
360.912	391.71
361.294	386.29
361.676	393.29
362.057	374.99
362.439	386.52
362.821	379.74
363.203	378.61
363.584	372.96
363.966	389.91
364.348	384.03
364.729	368.21
365.111	394.2
365.493	379.28
365.874	369.11
366.256	389.45
366.637	373.41
367.019	363.92
367.4	350.58
367.781	355.1
368.163	367.76
368.544	362.79
368.925	382.67
369.306	362.79
369.688	388.55
370.069	378.38
370.45	388.55
370.831	381.09
371.212	380.41
371.593	345.61
371.974	390.36
372.355	380.64
372.736	382.67
373.117	381.54
373.498	372.96
373.879	389.68
374.26	394.88
374.641	365.27
375.021	388.55
375.402	379.28
375.783	392.62
376.163	406.85
376.544	411.37
376.925	410.7
377.305	398.94
377.686	416.57
378.066	403.92
378.447	429
378.827	403.01
379.208	421.32
379.588	418.15
379.968	429.68
380.349	419.06
380.729	410.92
381.109	400.75
381.489	413.18
381.87	418.83
382.25	438.04
382.63	437.14
383.01	425.16
383.39	455.21
383.77	433.52
384.15	428.1
384.53	452.5
384.91	441.43
385.29	458.15
385.67	441.2
386.049	458.38
386.429	467.64
386.809	465.61
387.189	460.41
387.568	480.98
387.948	484.82
388.328	478.94
388.707	474.42
389.087	486.63
389.466	487.98
389.846	496.12
390.225	506.74
390.605	490.92
390.984	497.47
391.363	509.68
391.743	516.46
392.122	516.91
392.501	508.09
392.881	528.21
393.26	529.79
393.639	519.39
394.018	536.79
394.397	513.07
394.776	544.03
395.155	552.16
395.534	537.92
395.913	547.87
396.292	560.52
396.671	547.19
397.05	555.55
397.429	568.43
397.808	553.52
398.186	567.53
398.565	573.63
398.944	582.22
399.323	552.61
399.701	579.05
400.08	568.21
400.458	588.32
400.837	579.96
401.215	605.49
401.594	600.29
401.972	601.42
402.351	606.85
402.729	624.48
403.107	595.32
403.486	625.38
403.864	644.36
404.242	636.45
404.62	653.17
404.999	659.05
405.377	670.12
405.755	648.66
406.133	647.07
406.511	658.15
406.889	664.47
407.267	675.32
407.645	680.52
408.023	704.92
408.401	694.98
408.779	696.34
409.156	715.32
409.534	732.72
409.912	724.59
410.29	749.44
410.667	759.61
411.045	747.18
411.422	753.06
411.8	779.95
412.178	787.63
412.555	809.33
412.933	802.32
413.31	807.75
413.687	822.66
414.065	812.49
414.442	819.5
414.819	834.87
415.197	859.5
415.574	857.01
415.951	871.47
416.328	871.93
416.705	873.73
417.082	888.42
417.46	913.73
417.837	894.52
418.214	918.48
418.591	937.46
418.967	920.74
419.344	920.96
419.721	958.48
420.098	931.81
420.475	963.68
420.852	982.21
421.228	982.21
421.605	982.21
421.982	974.97
422.358	1010.23
422.735	1024.46
423.111	1002.77
423.488	1024.92
423.864	1013.62
424.241	1056.1
424.617	1053.62
424.994	1066.05
425.37	1070.34
425.746	1076.67
426.123	1089.55
426.499	1101.98
426.875	1109.66
427.251	1119.83
427.627	1173.39
428.003	1181.07
428.379	1166.61
428.756	1195.99
429.132	1164.35
429.507	1202.76
429.883	1239.15
430.259	1238.24
430.635	1264.01
431.011	1253.84
431.387	1286.38
431.763	1314.4
432.138	1331.35
432.514	1349.88
432.89	1337.9
433.265	1367.96
433.641	1370.9
434.016	1400.05
434.392	1424
434.767	1421.74
435.143	1442.53
435.518	1454.28
435.894	1472.81
436.269	1484.57
436.644	1518.24
437.02	1523.89
437.395	1550.55
437.77	1585.35
438.145	1547.61
438.52	1593.72
438.895	1575.64
439.271	1611.79
439.646	1605.01
440.021	1632.58
440.395	1652.02
440.77	1618.57
441.145	1670.32
441.52	1693.37
441.895	1686.82
442.27	1711.68
442.645	1692.02
443.019	1727.04
443.394	1707.38
443.769	1726.37
444.143	1731.34
444.518	1735.41
444.892	1774.05
445.267	1778.8
445.641	1762.98
446.016	1820.15
446.39	1801.62
446.764	1805.24
447.139	1829.64
447.513	1855.18
447.887	1815.86
448.262	1833.03
448.636	1838.45
449.01	1879.13
449.384	1902.41
449.758	1894.27
450.132	1927.49
450.506	1933.59
450.88	1955.06
451.254	1955.06
451.628	1948.06
452.002	1986.25
452.376	2006.81
452.75	2061.73
453.123	2042.52
453.497	2064.44
453.871	2076.19
454.244	2147.15
454.618	2136.07
454.992	2157.32
455.365	2149.41
455.739	2216.98
456.112	2237.77
456.486	2225.11
456.859	2255.62
457.232	2319.8
457.606	2319.57
457.979	2331.77
458.352	2412.45
458.725	2407.93
459.099	2448.83
459.472	2433.69
459.845	2497.87
460.218	2514.14
460.591	2508.95
460.964	2524.31
461.337	2604.31
461.71	2638.66
462.083	2648.38
462.456	2720.47
462.829	2666.23
463.201	2703.74
463.574	2723.4
463.947	2767.7
464.32	2788.94
464.692	2821.25
465.065	2796.4
465.438	2882.27
465.81	2880.69
466.183	2907.13
466.555	2954.36
466.928	3011.53
467.3	3010.4
467.672	3009.5
468.045	3081.36
468.417	3079.78
468.789	3109.16
469.161	3163.84
469.534	3180.57
469.906	3226.89
470.278	3270.51
470.65	3235.93
471.022	3379.2
471.394	3352.31
471.766	3403.39
472.138	3443.16
472.51	3502.82
472.882	3582.82
473.253	3562.02
473.625	3641.12
473.997	3647.9
474.369	3714.56
474.74	3733.32
475.112	3823.71
475.484	3855.35
475.855	3910.72
476.227	3921.79
476.598	4028
476.97	4060.09
477.341	4108
477.713	4177.38
478.084	4252.18
478.455	4328.33
478.827	4320.88
479.198	4470.7
479.569	4483.81
479.94	4573.07
480.311	4627.31
480.682	4733.29
481.053	4789.34
481.424	4923.57
481.795	4894.65
482.166	4973.29
482.537	5004.25
482.908	5119.72
483.279	5182.55
483.65	5321.98
484.021	5304.8
484.391	5405.37
484.762	5484.46
485.133	5535.76
485.503	5630.45
485.874	5740.95
486.244	5777.79
486.615	5856.2
486.985	5980.49
487.356	6086.7
487.726	6077.44
488.097	6234.27
488.467	6238.11
488.837	6410.54
489.207	6411.67
489.578	6589.29
489.948	6648.27
490.318	6716.07
490.688	6772.34
491.058	6882.84
491.428	6957.42
491.798	6970.07
492.168	7089.62
492.538	7131.87
492.908	7247.8
493.278	7277.41
493.648	7370.06
494.017	7463.84
494.387	7480.11
494.757	7529.38
495.126	7643.95
495.496	7690.73
495.866	7739.54
496.235	7781.12
496.605	7871.29
496.974	7912.42
497.344	7975.92
497.713	8102.7
498.082	8093.66
498.452	8116.03
498.821	8155.58
499.19	8264.95
499.559	8271.73
499.928	8284.16
500.298	8407.55
500.667	8439.41
501.036	8425.63
501.405	8490.71
501.774	8560.09
502.143	8570.03
502.512	8678.27
502.88	8708.1
503.249	8717.6
503.618	8794.2
503.987	8790.14
504.356	8834.2
504.724	8914.2
505.093	8967.08
505.462	9033.75
505.83	9019.28
506.199	9020.19
506.567	9168.88
506.936	9212.72
507.304	9285.49
507.672	9289.78
508.041	9309.67
508.409	9451.14
508.777	9482.55
509.145	9554.41
509.514	9543.11
509.882	9594.18
510.25	9593.96
510.618	9658.81
510.986	9661.75
511.354	9748.08
511.722	9890.45
512.09	9944.68
512.458	9948.98
512.826	10018.8
513.193	10023.78
513.561	10074.85
513.929	10154.85
514.297	10209.08
514.664	10311.45
515.032	10310.55
515.4	10498.57
515.767	10478
516.135	10536.76
516.502	10521.84
516.869	10668.28
517.237	10724.77
517.604	10699.01
517.972	10853.81
518.339	10948.5
518.706	10936.97
519.073	10975.16
519.44	11049.51
519.808	11174.48
520.175	11198.66
520.542	11277.98
520.909	11435.49
521.276	11402.5
521.643	11550.52
522.009	11612.66
522.376	11761.36
522.743	11801.36
523.11	11983.05
523.477	12100.11
523.843	12162.48
524.21	12400.21
524.577	12421.91
524.943	12439.76
525.31	12623.26
525.676	12708.23
526.043	12758.62
526.409	12903.93
526.776	12977.37
527.142	13004.49
527.508	13185.27
527.874	13306.4
528.241	13504.81
528.607	13436.12
528.973	13583.46
529.339	13632.95
529.705	13899.61
530.071	13998.13
530.437	14056.89
530.803	14121.52
531.169	14247.85
531.535	14284.91
531.901	14342.53
532.267	14453.26
532.632	14599.7
532.998	14651.45
533.364	14708.4
533.73	14745.01
534.095	14945.23
534.461	15011.89
534.826	15050.99
535.192	15188.16
535.557	15200.14
535.923	15309.29
536.288	15343.18
536.653	15390.64
537.019	15518.55
537.384	15577.98
537.749	15633.12
538.114	15710.41
538.479	15620.69
538.845	15845.32
539.21	15762.38
539.575	15880.35
539.94	15963.73
540.305	16028.59
540.67	16098.19
541.034	16173.67
541.399	16195.82
541.764	16309.26
542.129	16325.31
542.494	16430.84
542.858	16530.05
543.223	16524.4
543.587	16508.13
543.952	16514.9
544.316	16642.13
544.681	16648.69
545.045	16835.57
545.41	16731.85
545.774	16812.3
546.138	16881
546.503	16910.37
546.867	17045.06
547.231	17129.8
547.595	17201.89
547.959	17201.67
548.324	17268.56
548.688	17274.43
549.052	17386.75
549.416	17406.86
549.779	17325.96
550.143	17414.32
550.507	17612.5
550.871	17691.37
551.235	17687.76
551.599	17829.9
551.962	17782.22
552.326	17860.86
552.689	18038.71
553.053	17935.88
553.417	18101.3
553.78	18214.52
554.143	18325.03
554.507	18289.1
554.87	18360.51
555.234	18643.66
555.597	18472.14
555.96	18657.22
556.323	18664.23
556.686	18796.88
557.05	18901.28
557.413	19014.05
557.776	18956.2
558.139	19264.44
558.502	19269.86
558.865	19368.16
559.228	19504.43
559.59	19622.85
559.953	19585.33
560.316	19917.98
560.679	19878.21
561.041	20019.67
561.404	20187.8
561.767	20423.28
562.129	20377.63
562.492	20602.93
562.854	20648.36
563.217	20795.24
563.579	20928.12
563.941	21023.71
564.304	21241.11
564.666	21466.19
565.028	21544.6
565.39	21743.02
565.753	21814.65
566.115	21966.96
566.477	22161.99
566.839	22294.19
567.201	22595.87
567.563	22613.95
567.925	22830.22
568.287	22965.13
568.648	23171.68
569.01	23412.12
569.372	23584.32
569.734	23739.35
570.095	23839.68
570.457	24220.01
570.819	24341.37
571.18	24354.92
571.542	24702.71
571.903	24757.85
572.265	25057.05
572.626	25220.66
572.987	25273.09
573.349	25541.56
573.71	25757.37
574.071	25992.62
574.432	26189
574.794	26398.26
575.155	26482.1
575.516	26516.22
575.877	26765.71
576.238	26941.98
576.599	26960.51
576.96	27131.12
577.32	27305.36
577.681	27412.02
578.042	27726.14
578.403	27797.77
578.763	27817.43
579.124	27962.51
579.485	28161.83
579.845	28403.86
580.206	28541.26
580.566	28630.07
580.927	28641.37
581.287	28934.69
581.648	28936.27
582.008	29226.21
582.368	29476.82
582.728	29577.39
583.089	29799.75
583.449	29843.59
583.809	30013.08
584.169	30421.43
584.529	30385.95
584.889	30864.81
585.249	30925.15
585.609	31004.24
585.969	31453.27
586.329	31626.37
586.688	32022.97
587.048	32179.35
587.408	32445.79
587.768	32734.59
588.127	33129.61
588.487	33329.6
588.846	33958.97
589.206	33993.77
589.565	34180.43
589.925	34803.01
590.284	35167.07
590.643	35547.17
591.003	36102.86
591.362	36555.06
591.721	36868.04
592.08	37236.17
592.44	37815.81
592.799	38056.49
593.158	38428
593.517	38839.06
593.876	39503
594.235	39662.77
594.593	40066.15
594.952	40637.21
595.311	40930.31
595.67	41697.52
596.029	42145.87
596.387	42619.98
596.746	43091.16
597.104	43319.4
597.463	43756.67
597.822	44426.49
598.18	44600.27
598.538	45040.48
598.897	45775.38
599.255	45850.86
599.613	46758.63
599.972	46781.68
600.33	47304.15
600.688	47586.63
601.046	48010.8
601.404	48592.48
601.762	48802.87
602.12	49261.39
602.478	49593.58
602.836	49890.3
603.194	50052.55
603.552	50480.57
603.91	50730.73
604.268	51161.68
604.625	51230.38
604.983	51823.81
605.341	51843.47
605.698	52361.65
606.056	52742.43
606.413	52775.65
606.771	53132.25
607.128	53345.35
607.485	53435.06
607.843	53740.59
608.2	54092.22
608.557	54418.77
608.914	54490.4
609.272	54732.2
609.629	55031.63
609.986	55275.24
610.343	55380.1
610.7	55734.89
611.057	55778.51
611.414	55876.13
611.771	56122
612.127	56274.99
612.484	56442.67
612.841	56706.39
613.198	56710.91
613.554	56813.73
613.911	57163.78
614.267	57235.19
614.624	57283.32
614.98	57431.57
615.337	57728.51
615.693	57751.56
616.05	57890.99
616.406	58107.03
616.762	58074.72
617.118	58169.63
617.475	58300.7
617.831	58474.03
618.187	58569.39
618.543	58628.37
618.899	58810.29
619.255	58888.48
619.611	58838.76
619.967	59077.85
620.323	59193.56
620.678	59115.14
621.034	59201.69
621.39	59209.15
621.746	59269.71
622.101	59628.57
622.457	59438.75
622.812	59576.82
623.168	59659.98
623.523	59723.94
623.879	59797.38
624.234	59719.19
624.589	59888.45
624.945	59878.74
625.3	59988.11
625.655	60015.68
626.01	60056.81
626.365	60108.11
626.72	60046.64
627.075	60107.66
627.43	60136.36
627.785	60161.89
628.14	60200.76
628.495	60279.18
628.85	60279.86
629.205	60242.12
629.559	60318.72
629.914	60153.08
630.269	60282.57
630.623	60187.88
630.978	60205.06
631.332	60343.13
631.687	60347.65
632.041	60346.75
632.396	60273.98
632.75	60277.6
633.104	60262.68
633.459	60181.1
633.813	60224.72
634.167	60177.03
634.521	60193.3
634.875	60215.45
635.229	60196.02
635.583	60059.3
635.937	60105.85
636.291	60121.22
636.645	60114.89
636.999	59983.59
637.352	60138.62
637.706	59928.45
638.06	60058.17
638.413	59938.4
638.767	59875.35
639.121	59986.98
639.474	59815.46
639.828	59876.48
640.181	59812.52
640.534	59932.29
640.888	59832.86
641.241	59748.12
641.594	59778.63
641.947	59842.58
642.301	59688.23
642.654	59786.54
643.007	59632.64
643.36	59680.32
643.713	59681.23
644.066	59696.59
644.419	59557.61
644.771	59304.29
645.124	59096.84
645.477	59102.26
645.83	59022.49
646.182	58939.33
646.535	58873.11
646.888	58998.76
647.24	58857.97
647.593	58971.19
647.945	58887.35
648.298	58802.61
648.65	58675.6
649.002	58589.73
649.355	58544.31
649.707	58480.35
650.059	58534.59
650.411	58888.93
650.763	59002.38
651.115	59330.5
651.467	59194.69
651.819	59207.57
652.171	59133.45
652.523	59016.16
652.875	59125.99
653.227	58956.27
653.578	59176.83
653.93	59066.55
654.282	58921.25
654.633	58959.44
654.985	58992.21
655.337	58942.49
655.688	58939.55
656.039	59035.37
656.391	58755.38
656.742	58920.12
657.094	58880.8
657.445	58960.57
657.796	58907.24
658.147	58880.34
658.498	58867.46
658.849	58910.85
659.2	58820.23
659.551	58775.71
659.902	58929.83
660.253	58724.64
660.604	58830.18
660.955	58723.74
661.306	58879.89
661.656	58685.55
662.007	58791.76
662.358	58753.57
662.708	58780.46
663.059	58685.77
663.409	58572.33
663.76	58751.53
664.11	58728.71
664.461	58801.93
664.811	58807.35
665.161	58692.55
665.511	58649.39
665.862	58697.98
666.212	58727.81
666.562	58798.76
666.912	58725.55
667.262	58676.73
667.612	58670.86
667.962	58681.48
668.312	58629.5
668.662	58746.34
669.011	58770.52
669.361	58623.4
669.711	58649.84
670.06	58649.39
670.41	58618.88
670.76	58582.95
671.109	58726.45
671.459	58641.48
671.808	58601.71
672.157	58655.94
672.507	58489.85
672.856	58460.24
673.205	58516.96
673.554	58573.23
673.904	58539.79
674.253	58694.13
674.602	58546.57
674.951	58202.62
675.3	58050.31
675.649	58550.86
675.998	58539.11
676.346	58581.82
676.695	58504.99
677.044	58372.34
677.393	58500.24
677.741	58461.15
678.09	58385.67
678.438	58352.22
678.787	58400.36
679.135	58363.07
679.484	58213.7
679.832	58405.1
680.181	58305.9
680.529	58301.15
680.877	58139.57
681.225	58115.17
681.573	58387.93
681.922	58123.98
682.27	58093.25
682.618	58081.5
682.966	57935.74
683.314	58057.32
683.661	57931.22
684.009	57907.49
684.357	57806.93
684.705	57869.98
685.053	57860.71
685.4	57703.65
685.748	57603.09
686.095	57688.96
686.443	57477.44
686.79	57507.05
687.138	57530.32
687.485	57528.52
687.832	57413.72
688.18	57368.97
688.527	57309.76
688.874	57353.83
689.221	57225.02
689.568	57126.72
689.915	57057.12
690.262	57047.85
690.609	57032.71
690.956	56943.67
691.303	56890.34
691.65	56843.34
691.997	56688.99
692.344	56619.16
692.69	56591.59
693.037	56561.76
693.383	56323.58
693.73	56389.34
694.077	56249
694.423	56247.19
694.769	56142.11
695.116	56157.03
695.462	56048.33
695.808	55893.98
696.155	55950.93
696.501	55744.61
696.847	55775.79
697.193	55593.43
697.539	55623.48
697.885	55414.45
698.231	55360.66
698.577	55327.67
698.923	55320.21
699.269	55136.94
699.614	55078.86
699.96	54918.64
700.306	54981.01
700.651	54852.43
700.997	54764.52
701.342	54710.06
701.688	54658.31
702.033	54476.17
702.379	54533.11
702.724	54391.87
703.069	54435.94
703.415	54107.36
703.76	54155.72
704.105	54153.92
704.45	54019.91
704.795	53913.47
705.14	53823.53
705.485	53849.97
705.83	53602.97
706.175	53750.54
706.52	53611.33
706.865	53573.14
707.209	53351.9
707.554	53433.26
707.899	53325.91
708.243	53250.44
708.588	53179.93
708.932	53009.76
709.277	53087.95
709.621	52948.98
709.966	52742.65
710.31	52832.59
710.654	52622.2
710.998	52664.69
711.342	52679.83
711.687	52551.7
712.031	52425.37
712.375	52292.72
712.719	52310.35
713.063	52261.54
713.407	52419.72
713.75	52150.13
714.094	52106.06
714.438	51980.41
714.782	51955.55
715.125	51757.59
715.469	51998.94
715.812	51655.68
716.156	51558.5
716.499	51600.08
716.843	51649.35
717.186	51417.72
717.53	51601.67
717.873	51575.45
718.216	51423.59
718.559	51327.1
718.902	51024.05
719.246	51087.33
719.589	50956.94
719.932	50910.84
720.275	50916.94
720.617	50877.39
720.96	50765.98
721.303	50794.23
721.646	50818.41
721.989	50608.25
722.331	50743.61
722.674	50468.59
723.016	50499.77
723.359	50362.15
723.701	50523.95
724.044	50353.56
724.386	50261.14
724.729	50285.77
725.071	50147.92
725.413	50196.73
725.755	50164.87
726.097	49991.54
726.439	49887.81
726.782	49892.78
727.124	49983.63
727.465	49864.99
727.807	49726.01
728.149	49880.58
728.491	49514.72
728.833	49705.44
729.175	49561.27
729.516	49432.23
729.858	49479.24
730.199	49546.13
730.541	49444.43
730.882	49344.55
731.224	49379.13
731.565	49282.86
731.906	49255.74
732.248	49246.47
732.589	49111.34
732.93	48947.95
733.271	49004.9
733.612	48873.15
733.953	48989.53
734.294	48878.57
734.635	48778.01
734.976	48893.26
735.317	48619.6
735.658	48683.32
735.999	48535.98
736.339	48602.65
736.68	48475.65
737.021	48558.36
737.361	48350
737.702	48606.26
738.042	48186.16
738.383	48303.67
738.723	48379.38
739.063	48166.95
739.404	48360.85
739.744	48097.8
740.084	48011.03
740.424	48204.69
740.764	47925.15
741.104	48058.71
741.444	47717.47
741.784	47741.65
742.124	47948.2
742.464	47761.31
742.804	47722.45
743.143	47632.73
743.483	47740.3
743.823	47491.72
744.162	47571.26
744.502	47451.49
744.841	47520.42
745.181	47549.34
745.52	47424.37
745.86	47316.81
746.199	47319.29
746.538	47280.65
746.877	47477.71
747.216	47227.54
747.556	47115.46
747.895	47079.52
748.234	47091.05
748.573	46935.35
748.911	46885.86
749.25	46895.8
749.589	46814.22
749.928	46842.92
750.267	46911.39
750.605	46621.91
750.944	46669.59
751.283	46485.19
751.621	46684.73
751.96	46437.51
752.298	46424.17
752.636	46426.43
752.975	46335.36
753.313	46083.84
753.651	46412.2
753.989	45986.45
754.327	46106.22
754.666	45726.57
755.004	45858.31
755.342	45894.7
