Data from 214_FLMS001491_002.txt Node
Date: Thu Apr 19 16:36:39 BST 2018
User: hsy
Spectrometer: FLMS00149
Trigger mode: 0
Integration Time (sec): 1.000000E-2
Scans to average: 10
Electric dark correction enabled: true
Nonlinearity correction enabled: false
Boxcar width: 0
XAxis mode: Wavelengths
Number of Pixels in Spectrum: 2048
>>>>>Begin Spectral Data<<<<<
341.393	-6.06
341.776	-6.06
342.16	-6.06
342.543	-65.49
342.927	-74.08
343.31	-69.33
343.693	-74.08
344.077	-72.5
344.46	-49.45
344.843	-65.72
345.226	-45.83
345.61	-32.73
345.993	-16.23
346.376	3.66
346.759	21.96
347.142	19.48
347.525	63.09
347.908	49.08
348.291	69.87
348.674	76.88
349.057	121.85
349.44	129.08
349.823	141.73
350.206	153.03
350.588	239.13
350.971	225.12
351.354	256.76
351.737	257.21
352.119	282.29
352.502	291.11
352.884	313.48
353.267	329.07
353.65	335.17
354.032	344.21
354.414	342.63
354.797	334.04
355.179	354.16
355.562	387.6
355.944	367.49
356.326	381.73
356.709	365.23
357.091	399.58
357.473	402.52
357.855	363.2
358.238	387.38
358.62	395.74
359.002	371.56
359.384	352.12
359.766	383.76
360.148	369.07
360.53	383.31
360.912	395.29
361.294	379.69
361.676	370.65
362.057	383.31
362.439	373.14
362.821	371.33
363.203	370.2
363.584	358.23
363.966	385.57
364.348	366.81
364.729	374.5
365.111	369.75
365.493	357.77
365.874	373.59
366.256	362.97
366.637	389.41
367.019	372.24
367.4	360.71
367.781	371.78
368.163	376.08
368.544	374.27
368.925	375.85
369.306	358.45
369.688	355.74
370.069	393.48
370.45	394.61
370.831	391.44
371.212	384.67
371.593	378.11
371.974	377.66
372.355	366.13
372.736	377.43
373.117	391.22
373.498	372.69
373.879	375.85
374.26	386.7
374.641	366.81
375.021	381.73
375.402	392.12
375.783	416.08
376.163	393.03
376.544	414.95
376.925	416.08
377.305	389.41
377.686	396.64
378.066	385.79
378.447	408.39
378.827	421.05
379.208	420.14
379.588	408.17
379.968	415.85
380.349	420.82
380.729	438.67
381.109	404.1
381.489	420.6
381.87	453.36
382.25	421.27
382.63	434.16
383.01	430.99
383.39	448.62
383.77	443.19
384.15	450.88
384.53	446.81
384.91	448.39
385.29	423.31
385.67	427.83
386.049	466.02
386.429	459.92
386.809	455.4
387.189	453.14
387.568	492.46
387.948	454.27
388.328	479.13
388.707	490.42
389.087	494.94
389.466	485.68
389.846	501.72
390.225	489.97
390.605	492.01
390.984	511.44
391.363	499.92
391.743	497.66
392.122	508.28
392.501	523.64
392.881	501.5
393.26	541.95
393.639	518.67
394.018	526.81
394.397	506.02
394.776	515.96
395.155	552.57
395.534	544.66
395.913	554.83
396.292	555.96
396.671	558.67
397.05	546.92
397.429	544.89
397.808	569.07
398.186	587.37
398.565	579.69
398.944	569.29
399.323	597.54
399.701	585.11
400.08	583.53
400.458	569.74
400.837	614.26
401.215	585.34
401.594	590.31
401.972	604.55
402.351	613.13
402.729	608.84
403.107	610.87
403.486	615.39
403.864	611.1
404.242	615.39
404.62	630.99
404.999	656.07
405.377	647.71
405.755	620.14
406.133	677.76
406.511	657.2
406.889	674.6
407.267	680.25
407.645	665.34
408.023	699.91
408.401	698.78
408.779	713.7
409.156	740.36
409.534	717.54
409.912	712.34
410.29	763.41
410.667	756.63
411.045	764.54
411.422	770.42
411.8	764.54
412.178	809.29
412.555	797.08
412.933	819
413.31	830.3
413.687	813.13
414.065	852.22
414.442	840.92
414.819	847.25
415.197	843.41
415.574	866.01
415.951	914.14
416.328	896.06
416.705	884.76
417.082	909.62
417.46	879.12
417.837	935.61
418.214	928.61
418.591	967.02
418.967	920.24
419.344	916.18
419.721	961.37
420.098	968.15
420.475	977.42
420.852	994.59
421.228	978.55
421.605	1007.47
421.982	1024.65
422.358	1007.02
422.735	1020.13
423.111	1025.55
423.488	1037.3
423.864	1075.27
424.241	1076.4
424.617	1068.04
424.994	1078.43
425.37	1086.79
425.746	1070.3
426.123	1108.26
426.499	1132.44
426.875	1134.93
427.251	1147.81
427.627	1180.58
428.003	1176.06
428.379	1206.11
428.756	1197.3
429.132	1193.68
429.507	1231.42
429.883	1233
430.259	1249.73
430.635	1271.2
431.011	1291.08
431.387	1291.53
431.763	1336.28
432.138	1345.32
432.514	1348.71
432.89	1346.22
433.265	1391.87
433.641	1424.41
434.016	1408.14
434.392	1444.3
434.767	1470.51
435.143	1491.3
435.518	1505.09
435.894	1522.26
436.269	1527.46
436.644	1552.77
437.02	1568.59
437.395	1561.81
437.77	1586.22
438.145	1585.76
438.52	1598.42
438.895	1639.55
439.271	1615.37
439.646	1659.21
440.021	1673.9
440.395	1701.92
440.77	1673.67
441.145	1698.3
441.52	1724.06
441.895	1713.44
442.27	1744.86
442.645	1714.57
443.019	1743.5
443.394	1748.92
443.769	1772.2
444.143	1788.92
444.518	1784.18
444.892	1802.03
445.267	1802.03
445.641	1823.5
446.016	1795.48
446.39	1848.81
446.764	1854.68
447.139	1850.62
447.513	1866.66
447.887	1883.38
448.262	1871.86
448.636	1892.42
449.01	1917.96
449.384	1925.64
449.758	1943.72
450.132	1913.89
450.506	2001.12
450.88	2012.87
451.254	1995.47
451.628	2021.01
452.002	2047.9
452.376	2041.12
452.75	2040.89
453.123	2084.73
453.497	2137.16
453.871	2109.59
454.244	2199.31
454.618	2215.13
454.992	2224.39
455.365	2223.94
455.739	2265.29
456.112	2266.65
456.486	2292.19
456.859	2353.65
457.232	2371.51
457.606	2361.34
457.979	2380.09
458.352	2401.56
458.725	2454.89
459.099	2503.25
459.472	2519.3
459.845	2560.65
460.218	2557.72
460.591	2544.38
460.964	2605.85
461.337	2657.6
461.71	2663.02
462.083	2724.26
462.456	2675.68
462.829	2721.78
463.201	2765.85
463.574	2750.7
463.947	2806.07
464.32	2849.68
464.692	2871.15
465.065	2895.79
465.438	2895.11
465.81	2984.6
466.183	2955.9
466.555	2987.99
466.928	3033.86
467.3	3062.11
467.672	3084.26
468.045	3144.59
468.417	3138.94
468.789	3167.42
469.161	3173.97
469.534	3271.59
469.906	3275.44
470.278	3293.74
470.65	3287.41
471.022	3377.81
471.394	3444.7
471.766	3446.05
472.138	3515.43
472.51	3519.95
472.882	3565.15
473.253	3583.68
473.625	3647.4
473.997	3698.7
474.369	3732.6
474.74	3784.8
475.112	3824.35
475.484	3845.59
475.855	3980.28
476.227	3944.12
476.598	4057.11
476.97	4083.32
477.341	4169.2
477.713	4215.52
478.084	4239.25
478.455	4294.84
478.827	4354.5
479.198	4480.83
479.569	4509.53
479.94	4594.95
480.311	4625.01
480.682	4708.62
481.053	4822.97
481.424	4895.05
481.795	4907.71
482.166	5031.32
482.537	5107.25
482.908	5159.45
483.279	5266.12
483.65	5308.6
484.021	5350.41
484.391	5466.34
484.762	5491.2
485.133	5540.46
485.503	5607.8
485.874	5732.77
486.244	5798.08
486.615	5882.15
486.985	5947.46
487.356	6112.88
487.726	6100.45
488.097	6217.05
488.467	6289.82
488.837	6391.29
489.207	6502.02
489.578	6537.72
489.948	6641.22
490.318	6735.91
490.688	6748.34
491.058	6885.06
491.428	6922.35
491.798	7033.98
492.168	7109.01
492.538	7121.44
492.908	7247.99
493.278	7293.86
493.648	7348.32
494.017	7386.51
494.387	7485.72
494.757	7517.36
495.126	7562.56
495.496	7634.19
495.866	7708.09
496.235	7754.41
496.605	7823.57
496.974	7889.55
497.344	7993.96
497.713	7964.13
498.082	8016.78
498.452	8153.95
498.821	8142.88
499.19	8210.45
499.559	8223.55
499.928	8268.07
500.298	8284.57
500.667	8374.06
501.036	8401.18
501.405	8448.86
501.774	8471.01
502.143	8531.34
502.512	8585.58
502.88	8603.88
503.249	8580.16
503.618	8753.71
503.987	8689.76
504.356	8755.52
504.724	8822.64
505.093	8850.43
505.462	8830.77
505.83	8860.15
506.199	8972.91
506.567	9065.34
506.936	8996.42
507.304	9171.78
507.672	9188.28
508.041	9133.14
508.409	9265.56
508.777	9318.89
509.145	9341.27
509.514	9372.45
509.882	9406.8
510.25	9463.52
510.618	9542.39
510.986	9549.85
511.354	9669.62
511.722	9718.88
512.09	9784.42
512.458	9717.53
512.826	9927.01
513.193	9893.12
513.561	9909.39
513.929	10060.12
514.297	10084.97
514.664	10156.84
515.032	10187.8
515.4	10261.24
515.767	10283.84
516.135	10329.71
516.502	10320.67
516.869	10541.01
517.237	10538.07
517.604	10512.76
517.972	10739.65
518.339	10675.47
518.706	10795.01
519.073	10783.04
519.44	10872.3
519.808	11049.24
520.175	10985.74
520.542	11186.87
520.909	11225.06
521.276	11264.83
521.643	11417.14
522.009	11492.17
522.376	11595.67
522.743	11666.18
523.11	11763.35
523.477	11961.54
523.843	11934.87
524.21	12061.87
524.577	12203.11
524.943	12347.06
525.31	12300.96
525.676	12500.73
526.043	12608.07
526.409	12682.87
526.776	12881.96
527.142	12895.3
527.508	13001.73
527.874	13056.87
528.241	13178
528.607	13336.87
528.973	13426.36
529.339	13502.96
529.705	13606.92
530.071	13776.18
530.437	13803.3
530.803	13911.32
531.169	13987.7
531.535	14007.36
531.901	14072.44
532.267	14153.79
532.632	14286.67
532.998	14285.99
533.364	14503.39
533.73	14567.34
534.095	14657.74
534.461	14690.05
534.826	14754.91
535.192	14862.02
535.557	14950.61
535.923	14974.34
536.288	15097.95
536.653	15196.93
537.019	15132.3
537.384	15175.01
537.749	15344.72
538.114	15406.42
538.479	15422.01
538.845	15489.35
539.21	15600.31
539.575	15623.59
539.94	15606.41
540.305	15770.02
540.67	15761.21
541.034	15892.51
541.399	15931.83
541.764	16032.39
542.129	16079.17
542.494	16067.19
542.858	16203.23
543.223	16188.32
543.587	16303.34
543.952	16284.36
544.316	16408.88
544.681	16336.56
545.045	16422.66
545.41	16524.81
545.774	16582.88
546.138	16572.71
546.503	16663.56
546.867	16708.53
547.231	16790.34
547.595	16818.81
547.959	16956.66
548.324	17007.05
548.688	16999.37
549.052	17131.57
549.416	17136.54
549.779	17078.24
550.143	17190.78
550.507	17338.8
550.871	17299.25
551.235	17397.55
551.599	17524.1
551.962	17605.46
552.326	17598.45
552.689	17660.14
553.053	17565
553.417	17713.93
553.78	17907.59
554.143	17958.21
554.507	18033.24
554.87	18054.48
555.234	18218.32
555.597	18282.5
555.96	18280.47
556.323	18410.86
556.686	18561.36
557.05	18557.52
557.413	18698.31
557.776	18665.31
558.139	18894.23
558.502	18919.32
558.865	19106.21
559.228	19279.99
559.59	19267.11
559.953	19419.19
560.316	19554.78
560.679	19539.64
561.041	19686.76
561.404	19933.98
561.767	20185.73
562.129	20066.63
562.492	20227.76
562.854	20408.32
563.217	20464.14
563.579	20585.26
563.941	20771.25
564.304	20928.53
564.666	21192.03
565.028	21164.46
565.39	21375.53
565.753	21604.22
566.115	21739.81
566.477	21963.98
566.839	22014.83
567.201	22342.96
567.563	22341.6
567.925	22636.74
568.287	22716.96
568.648	22946.56
569.01	23111.07
569.372	23393.1
569.734	23445.3
570.095	23731.85
570.457	23875.8
570.819	23991.28
571.18	23986.76
571.542	24363.47
571.903	24489.12
572.265	24689.11
572.626	24896.11
572.987	25045.49
573.349	25176.56
573.71	25460.84
574.071	25622.19
574.432	25896.08
574.794	26142.63
575.155	26162.52
575.516	26267.37
575.877	26542.4
576.238	26607.7
576.599	26798.43
576.96	26901.93
577.32	27059.9
577.681	27234.13
578.042	27536.95
578.403	27528.13
578.763	27643.84
579.124	27741.46
579.485	28091.73
579.845	28189.58
580.206	28143.26
580.566	28402.01
580.927	28501.67
581.287	28662.79
581.648	28859.85
582.008	29150.24
582.368	29206.28
582.728	29340.29
583.089	29626.38
583.449	29793.16
583.809	29867.73
584.169	30147.72
584.529	30216.42
584.889	30700.7
585.249	30759.01
585.609	30850.98
585.969	31326
586.329	31345.43
586.688	31865.87
587.048	32052.53
587.408	32411.62
587.768	32496.82
588.127	32892.96
588.487	33214.99
588.846	33766.39
589.206	33804.8
589.565	34202.76
589.925	34736.98
590.284	35032.34
590.643	35565.89
591.003	35905.09
591.362	36474.56
591.721	36645.63
592.08	37054.89
592.44	37619.84
592.799	37968.54
593.158	38399.94
593.517	38786.14
593.876	39281.27
594.235	39620.7
594.593	40090.29
594.952	40538.19
595.311	41042.81
595.67	41605.5
596.029	42137.24
596.387	42487.51
596.746	43150.32
597.104	43370.2
597.463	43848.38
597.822	44475.26
598.18	44809.49
598.538	45142.58
598.897	45789.57
599.255	45840.87
599.613	46837
599.972	46995.64
600.33	47354.96
600.688	47735.96
601.046	48182.96
601.404	48731.87
601.762	49057.28
602.12	49397.39
602.478	49715.35
602.836	50070.36
603.194	50247.76
603.552	50587.19
603.91	50906.05
604.268	51354.62
604.625	51565.47
604.983	51977.66
605.341	51997.55
605.698	52524.76
606.056	52893.11
606.413	52915.26
606.771	53426.66
607.128	53569.48
607.485	53774.22
607.843	54003.59
608.2	54257.37
608.557	54541.66
608.914	54669.57
609.272	54982.55
609.629	55234.3
609.986	55471.35
610.343	55590.67
610.7	55907.72
611.057	56000.38
611.414	56088.74
611.771	56348.62
612.127	56504.09
612.484	56626.35
612.841	56848.49
613.198	56955.38
613.554	57019.56
613.911	57355.37
614.267	57481.47
614.624	57557.85
614.98	57679.88
615.337	57972.76
615.693	58007.56
616.05	58175.46
616.406	58363.48
616.762	58331.16
617.118	58480.31
617.475	58496.13
617.831	58753.98
618.187	58734.77
618.543	58863.35
618.899	59102.22
619.255	59102.9
619.611	59129.79
619.967	59295.21
620.323	59506.27
620.678	59405.71
621.034	59450.23
621.39	59508.76
621.746	59607.06
622.101	59922.76
622.457	59643.45
622.812	59901.07
623.168	59958.01
623.523	59936.77
623.879	60133.15
624.234	59985.36
624.589	60105.35
624.945	60181.06
625.3	60195.07
625.655	60249.31
626.01	60302.86
626.365	60336.08
626.72	60315.74
627.075	60229.42
627.43	60364.56
627.785	60403.2
628.14	60448.62
628.495	60423.31
628.85	60521.16
629.205	60405.69
629.559	60585.12
629.914	60449.53
630.269	60536.98
630.623	60412.92
630.978	60398.68
631.332	60575.4
631.687	60548.96
632.041	60568.85
632.396	60587.15
632.75	60555.96
633.104	60606.13
633.459	60477.55
633.813	60526.81
634.167	60442.52
634.521	60462.86
634.875	60510.54
635.229	60532.01
635.583	60425.12
635.937	60441.62
636.291	60403.2
636.645	60431.67
636.999	60301.06
637.352	60381.51
637.706	60274.16
638.06	60383.09
638.413	60268.97
638.767	60229.42
639.121	60263.99
639.474	60125.24
639.828	60148.52
640.181	60142.42
640.534	60171.57
640.888	60071.68
641.241	60014.74
641.594	59956.88
641.947	60054.73
642.301	59958.24
642.654	60047.5
643.007	60005.92
643.36	60022.42
643.713	59925.7
644.066	60038.92
644.419	59860.62
644.771	59562.09
645.124	59437.8
645.477	59344.47
645.83	59311.93
646.182	59290.91
646.535	59195.55
646.888	59295.21
647.24	59143.57
647.593	59372.27
647.945	59195.1
648.298	59102.67
648.65	58989.9
649.002	58933.63
649.355	58902.22
649.707	58801.21
650.059	58837.14
650.411	59133.85
650.763	59187.86
651.115	59653.84
651.467	59499.95
651.819	59538.59
652.171	59438.71
652.523	59331.36
652.875	59339.73
653.227	59185.6
653.578	59433.96
653.93	59368.65
654.282	59223.8
654.633	59140.41
654.985	59260.63
655.337	59247.07
655.688	59207.53
656.039	59276.68
656.391	59031.03
656.742	59116.23
657.094	59084.59
657.445	59140.18
657.796	59190.35
658.147	59068.32
658.498	59141.09
658.849	59149.9
659.2	59058.6
659.551	58974.99
659.902	59195.55
660.253	59006.63
660.604	59149.9
660.955	58999.4
661.306	59111.93
661.656	58963.24
662.007	59042.11
662.358	59069.22
662.708	59016.57
663.059	59051.15
663.409	58962.11
663.76	59026.74
664.11	59021.99
664.461	59040.07
664.811	59034.65
665.161	59087.75
665.511	58957.81
665.862	58969.57
666.212	58997.14
666.562	59040.3
666.912	58977.47
667.262	58900.64
667.612	58951.49
667.962	58993.52
668.312	58846.63
668.662	59034.2
669.011	58972.28
669.361	58931.15
669.711	58930.02
670.06	58825.16
670.41	58860.64
670.76	58855.22
671.109	59010.69
671.459	58860.42
671.808	58867.2
672.157	58959.85
672.507	58751.04
672.856	58787.65
673.205	58862
673.554	58962.33
673.904	58805.28
674.253	59006.4
674.602	58801.21
674.951	58469.92
675.3	58412.97
675.649	58829.23
675.998	58797.14
676.346	58824.48
676.695	58830.81
677.044	58723.24
677.393	58762.34
677.741	58785.84
678.09	58763.92
678.438	58675.56
678.787	58648.44
679.135	58711.72
679.484	58572.51
679.832	58712.17
680.181	58542.46
680.529	58592.63
680.877	58424.27
681.225	58519.18
681.573	58616.58
681.922	58498.39
682.27	58375.91
682.618	58369.36
682.966	58318.73
683.314	58400.09
683.661	58341.79
684.009	58242.58
684.357	58164.39
684.705	58052.75
685.053	58081.68
685.4	58034.22
685.748	57978.86
686.095	57926.43
686.443	57794.91
686.79	57807.79
687.138	57884.85
687.485	57838.75
687.832	57761.69
688.18	57628.36
688.527	57562.6
688.874	57528.02
689.221	57548.59
689.568	57404.41
689.915	57309.5
690.262	57399.44
690.609	57280.8
690.956	57201.7
691.303	57108.37
691.65	57053.91
691.997	57065.21
692.344	56905.66
692.69	56854.37
693.037	56889.17
693.383	56716.74
693.73	56784.99
694.077	56523.3
694.423	56529.18
694.769	56420.93
695.116	56387.03
695.462	56313.82
695.808	56185.23
696.155	56270.88
696.501	56046.7
696.847	56147.72
697.193	55955.86
697.539	55939.36
697.885	55775.52
698.231	55723.32
698.577	55661.86
698.923	55647.17
699.269	55378.25
699.614	55363.33
699.96	55337.8
700.306	55310.23
700.651	55218.03
700.997	55070.01
701.342	55061.65
701.688	54907.07
702.033	54883.8
702.379	54874.08
702.724	54755.21
703.069	54758.83
703.415	54449.68
703.76	54424.6
704.105	54452.17
704.45	54367.65
704.795	54233.87
705.14	54113.87
705.485	54135.12
705.83	53927.66
706.175	54081.56
706.52	53847.44
706.865	53739.65
707.209	53714.79
707.554	53691.74
707.899	53704.84
708.243	53540.78
708.588	53401.12
708.932	53337.62
709.277	53417.62
709.621	53274.35
709.966	53148.25
710.31	53148.25
710.654	52965.88
710.998	52974.69
711.342	53019.67
711.687	52785.1
712.031	52711.42
712.375	52669.17
712.719	52671.2
713.063	52519.34
713.407	52637.3
713.75	52444.31
714.094	52403.64
714.438	52242.96
714.782	52229.18
715.125	52023.53
715.469	52244.32
715.812	51906.25
716.156	51936.98
716.499	51879.36
716.843	52057.43
717.186	51718.46
717.53	51882.75
717.873	51752.13
718.216	51644.33
718.559	51589.87
718.902	51355.08
719.246	51374.74
719.589	51322.08
719.932	51196.89
720.275	51250.9
720.617	51115.31
720.96	51099.26
721.303	51071.92
721.646	51201.18
721.989	50930.23
722.331	50951.25
722.674	50921.87
723.016	50866.28
723.359	50734.98
723.701	50797.8
724.044	50562.33
724.386	50527.98
724.729	50710.12
725.071	50526.62
725.413	50526.17
725.755	50312.62
726.097	50274.65
726.439	50134.32
726.782	50155.11
727.124	50370.7
727.465	50177.93
727.807	50004.38
728.149	50021.33
728.491	49970.93
728.833	50042.34
729.175	49845.29
729.516	49755.8
729.858	49758.51
730.199	49787.43
730.541	49743.37
730.882	49594.22
731.224	49691.39
731.565	49537.72
731.906	49612.52
732.248	49620.66
732.589	49245.98
732.93	49285.3
733.271	49346.09
733.612	49187.9
733.953	49375.24
734.294	49226.32
734.635	49117.85
734.976	49243.95
735.317	48996.72
735.658	48943.61
735.999	48954.46
736.339	48931.41
736.68	48951.98
737.021	48860.9
737.361	48687.35
737.702	48900.68
738.042	48717.86
738.383	48777.52
738.723	48744.07
739.063	48643.06
739.404	48726.44
739.744	48578.65
740.084	48376.62
740.424	48519.22
740.764	48368.49
741.104	48505.43
741.444	48388.6
741.784	48331.2
742.124	48416.62
742.464	48199.45
742.804	48226.34
743.143	48130.75
743.483	48169.17
743.823	48032.23
744.162	47931.89
744.502	48088.04
744.841	47937.09
745.181	48047.59
745.52	47849.63
745.86	47841.95
746.199	47726.7
746.538	47690.09
746.877	47894.6
747.216	47806.02
747.556	47471.79
747.895	47685.57
748.234	47593.14
748.573	47434.05
748.911	47344.56
749.25	47277.9
749.589	47168.07
749.928	47302.3
750.267	47189.54
750.605	47125.13
750.944	47058.92
751.283	46983.21
751.621	47119.03
751.96	46760.39
752.298	46877.45
752.636	46824.8
752.975	46607.63
753.313	46570.12
753.651	46705.93
753.989	46387.75
754.327	46478.37
754.666	46156.12
755.004	46397.24
755.342	46345.94
755.679	46337.58
