Data from 214_FLMS001491_005.txt Node
Date: Thu Apr 19 16:36:46 BST 2018
User: hsy
Spectrometer: FLMS00149
Trigger mode: 0
Integration Time (sec): 1.000000E-2
Scans to average: 10
Electric dark correction enabled: true
Nonlinearity correction enabled: false
Boxcar width: 0
XAxis mode: Wavelengths
Number of Pixels in Spectrum: 2048
>>>>>Begin Spectral Data<<<<<
341.393	1.24
341.776	1.24
342.16	1.24
342.543	-65.87
342.927	-83.73
343.31	-54.8
343.693	-64.29
344.077	-73.33
344.46	-72.43
344.843	-58.19
345.226	-56.38
345.61	-43.05
345.993	-8.25
346.376	-0.56
346.759	29.94
347.142	34.69
347.525	47.57
347.908	65.2
348.291	59.09
348.674	79.21
349.057	115.59
349.44	110.17
349.823	142.93
350.206	170.28
350.588	236.26
350.971	233.1
351.354	271.07
351.737	290.95
352.119	291.86
352.502	300.67
352.884	299.31
353.267	314.91
353.65	328.01
354.032	343.61
354.414	334.34
354.797	342.02
355.179	348.35
355.562	350.39
355.944	390.84
356.326	373.89
356.709	396.94
357.091	374.34
357.473	393.1
357.855	394.68
358.238	381.12
358.62	390.61
359.002	392.87
359.384	393.1
359.766	376.6
360.148	394.23
360.53	397.84
360.912	396.71
361.294	377.73
361.676	403.72
362.057	385.41
362.439	392.87
362.821	401.46
363.203	362.59
363.584	385.87
363.966	367.79
364.348	377.96
364.729	368.24
365.111	384.74
365.493	374.11
365.874	379.09
366.256	382.93
366.637	387.45
367.019	361.91
367.4	363.04
367.781	376.37
368.163	383.83
368.544	375.24
368.925	386.32
369.306	386.32
369.688	372.76
370.069	378.41
370.45	398.29
370.831	402.14
371.212	380.22
371.593	397.16
371.974	368.69
372.355	367.33
372.736	390.61
373.117	420.44
373.498	384.06
373.879	366.88
374.26	389.26
374.641	387.45
375.021	379.54
375.402	388.8
375.783	401.01
376.163	413.89
376.544	406.66
376.925	420.89
377.305	410.95
377.686	400.78
378.066	412.53
378.447	402.14
378.827	400.78
379.208	433.1
379.588	423.6
379.968	433.32
380.349	422.25
380.729	427.9
381.109	411.63
381.489	427.9
381.87	436.26
382.25	443.27
382.63	441.68
383.01	432.87
383.39	443.04
383.77	461.12
384.15	466.99
384.53	455.69
384.91	443.72
385.29	461.57
385.67	472.19
386.049	465.64
386.429	473.55
386.809	470.84
387.189	478.74
387.568	476.71
387.948	475.35
388.328	474.68
388.707	488.24
389.087	490.27
389.466	505.86
389.846	472.19
390.225	509.7
390.605	528.46
390.984	503.38
391.363	513.32
391.743	517.39
392.122	496.82
392.501	491.17
392.881	518.97
393.26	521.46
393.639	519.87
394.018	542.7
394.397	521.46
394.776	521
395.155	543.38
395.534	563.71
395.913	546.09
396.292	547.44
396.671	543.83
397.05	554
397.429	575.92
397.808	575.01
398.186	572.98
398.565	593.54
398.944	562.81
399.323	575.47
399.701	581.34
400.08	572.53
400.458	582.02
400.837	599.42
401.215	592.87
401.594	577.5
401.972	609.14
402.351	605.97
402.729	613.43
403.107	622.24
403.486	636.71
403.864	644.39
404.242	640.32
404.62	644.62
404.999	644.62
405.377	671.96
405.755	675.8
406.133	669.93
406.511	659.53
406.889	679.87
407.267	709.7
407.645	718.51
408.023	721
408.401	692.3
408.779	718.06
409.156	757.61
409.534	752.64
409.912	753.54
410.29	760.09
410.667	757.61
411.045	766.87
411.422	792.41
411.8	778.4
412.178	803.48
412.555	807.32
412.933	824.72
413.31	830.15
413.687	856.14
414.065	849.81
414.442	837.15
414.819	864.05
415.197	877.83
415.574	877.83
415.951	898.85
416.328	882.35
416.705	897.94
417.082	923.03
417.46	928
417.837	949.92
418.214	946.3
418.591	944.04
418.967	930.26
419.344	957.15
419.721	993.76
420.098	951.05
420.475	975.91
420.852	996.7
421.228	997.83
421.605	1003.02
421.982	1022.01
422.358	1007.77
422.735	1042.57
423.111	1055.68
423.488	1093.42
423.864	1072.63
424.241	1078.05
424.617	1073.08
424.994	1080.54
425.37	1083.25
425.746	1109.69
426.123	1111.5
426.499	1105.39
426.875	1150.14
427.251	1149.69
427.627	1176.13
428.003	1199.63
428.379	1233.07
428.756	1227.43
429.132	1236.46
429.507	1226.07
429.883	1257.93
430.259	1273.3
430.635	1297.25
431.011	1296.12
431.387	1299.74
431.763	1366.63
432.138	1331.83
432.514	1386.07
432.89	1379.51
433.265	1412.73
433.641	1433.52
434.016	1416.12
434.392	1446.18
434.767	1487.08
435.143	1466.52
435.518	1489.57
435.894	1514.88
436.269	1526.17
436.644	1552.84
437.02	1560.52
437.395	1588.55
437.77	1608.88
438.145	1639.17
438.52	1619.73
438.895	1644.14
439.271	1640.97
439.646	1678.03
440.021	1661.76
440.395	1706.28
440.77	1674.19
441.145	1703.8
441.52	1760.52
441.895	1738.82
442.27	1764.13
442.645	1758.71
443.019	1758.03
443.394	1770.69
443.769	1770.91
444.143	1765.72
444.518	1803
444.892	1813.4
445.267	1810.69
445.641	1829.22
446.016	1855.43
446.39	1859.05
446.764	1852.27
447.139	1854.53
447.513	1903.34
447.887	1859.5
448.262	1893.4
448.636	1915.32
449.01	1941.08
449.384	1957.58
449.758	1984.69
450.132	1994.18
450.506	2001.64
450.88	2020.85
451.254	1990.8
451.628	2050.91
452.002	2086.39
452.376	2071.02
452.75	2093.84
453.123	2113.96
453.497	2119.15
453.871	2146.05
454.244	2171.36
454.618	2234.63
454.992	2231.92
455.365	2250.9
455.739	2316.89
456.112	2294.29
456.486	2341.75
456.859	2334.74
457.232	2384.01
457.606	2416.32
457.979	2393.5
458.352	2443.21
458.725	2453.16
459.099	2476.88
459.472	2535.41
459.845	2572.7
460.218	2572.25
460.591	2615.41
460.964	2634.17
461.337	2658.57
461.71	2676.88
462.083	2730.21
462.456	2707.84
462.829	2712.13
463.201	2791.45
463.574	2804.56
463.947	2825.35
464.32	2848.4
464.692	2892.24
465.065	2908.74
465.438	2971.56
465.81	2971.33
466.183	2986.25
466.555	3046.36
466.928	3070.54
467.3	3077.77
467.672	3082.97
468.045	3206.13
468.417	3174.27
468.789	3180.14
469.161	3227.15
469.534	3270.54
469.906	3321.16
470.278	3368.39
470.65	3383.53
471.022	3424.66
471.394	3487.25
471.766	3483.41
472.138	3538.33
472.51	3624.42
472.882	3642.05
473.253	3639.57
473.625	3720.02
473.997	3791.2
474.369	3805.44
474.74	3761.6
475.112	3888.6
475.484	3923.85
475.855	3983.29
476.227	4062.83
476.598	4094.69
476.97	4164.07
477.341	4290.4
477.713	4274.8
478.084	4296.95
478.455	4416.49
478.827	4506.66
479.198	4551.41
479.569	4569.94
479.94	4652.19
480.311	4697.16
480.682	4826.43
481.053	4949.14
481.424	4987.55
481.795	5019.87
482.166	5082.47
482.537	5137.61
482.908	5222.57
483.279	5334.89
483.65	5437.26
484.021	5517.93
484.391	5560.87
484.762	5615.33
485.133	5705.27
485.503	5741.66
485.874	5892.61
486.244	5939.84
486.615	6085.38
486.985	6112.95
487.356	6175.77
487.726	6249.21
488.097	6426.16
488.467	6409.21
488.837	6565.14
489.207	6626.38
489.578	6694.85
489.948	6757.9
490.318	6889.42
490.688	6883.1
491.058	6985.92
491.428	7117.44
491.798	7095.52
492.168	7248.51
492.538	7326.47
492.908	7410.99
493.278	7464.55
493.648	7516.3
494.017	7587.48
494.387	7591.33
494.757	7739.8
495.126	7770.98
495.496	7876.97
495.866	7921.94
496.235	7980.47
496.605	8044.87
496.974	8071.77
497.344	8124.65
497.713	8220.91
498.082	8247.81
498.452	8348.37
498.821	8386.11
499.19	8402.38
499.559	8503.17
499.928	8507.01
500.298	8574.35
500.667	8576.84
501.036	8605.99
501.405	8646.67
501.774	8682.82
502.143	8791.52
502.512	8839.43
502.88	8857.96
503.249	8863.61
503.618	8928.69
503.987	8966.2
504.356	9015.7
504.724	9130.04
505.093	9072.64
505.462	9208.01
505.83	9191.96
506.199	9257.04
506.567	9409.58
506.936	9343.82
507.304	9424.05
507.672	9490.71
508.041	9538.17
508.409	9576.13
508.777	9602.12
509.145	9749.46
509.514	9716.92
509.882	9753.75
510.25	9820.65
510.618	9901.1
510.986	9942.22
511.354	9980.19
511.722	10033.52
512.09	10163.24
512.458	10137.02
512.826	10183.12
513.193	10264.48
513.561	10271.26
513.929	10304.02
514.297	10527.29
514.664	10507.86
515.032	10585.6
515.4	10638.7
515.767	10704.24
516.135	10681.87
516.502	10664.47
516.869	10876.44
517.237	10928.87
517.604	10926.15
517.972	11040.05
518.339	11138.58
518.706	11194.17
519.073	11247.73
519.44	11231.91
519.808	11399.14
520.175	11512.13
520.542	11612.46
520.909	11619.69
521.276	11750.76
521.643	11845.23
522.009	11941.72
522.376	11987.37
522.743	12059.68
523.11	12311.2
523.477	12367.92
523.843	12474.59
524.21	12639.33
524.577	12693.56
524.943	12846.33
525.31	12873.67
525.676	13021.69
526.043	13068.7
526.409	13255.36
526.776	13349.37
527.142	13452.64
527.508	13606.76
527.874	13695.8
528.241	13804.5
528.607	13830.26
528.973	14010.14
529.339	13963.59
529.705	14161.1
530.071	14277.93
530.437	14414.88
530.803	14521.54
531.169	14512.05
531.535	14608.99
531.901	14778.03
532.267	14898.7
532.632	14968.53
532.998	15031.81
533.364	15064.35
533.73	15197.45
534.095	15324.46
534.461	15402.42
534.826	15507.5
535.192	15512.7
535.557	15732.35
535.923	15677.67
536.288	15759.92
536.653	15901.39
537.019	15917.66
537.384	16011.44
537.749	16141.16
538.114	16125.56
538.479	16116.53
538.845	16283.3
539.21	16312
539.575	16367.37
539.94	16432.45
540.305	16539.57
540.67	16531.88
541.034	16658.88
541.399	16728.49
541.764	16815.72
542.129	16787.24
542.494	16854.36
542.858	16983.17
543.223	17027.69
543.587	17071.3
543.952	17072.43
544.316	17201.47
544.681	17223.16
545.045	17332.99
545.41	17317.4
545.774	17376.61
546.138	17369.15
546.503	17603.04
546.867	17585.41
547.231	17697.5
547.595	17721.68
547.959	17728.46
548.324	17783.83
548.688	17927.78
549.052	18043.03
549.416	18014.1
549.779	17961.22
550.143	18127.09
550.507	18235.79
550.871	18236.24
551.235	18316.47
551.599	18466.52
551.962	18516.01
552.326	18619.96
552.689	18692.5
553.053	18572.51
553.417	18719.85
553.78	18957.13
554.143	18970.01
554.507	19050.91
554.87	19077.13
555.234	19273.96
555.597	19111.25
555.96	19331.81
556.323	19497.91
556.686	19594.17
557.05	19717.56
557.413	19681.63
557.776	19796.2
558.139	19964.33
558.502	20022.41
558.865	20055.86
559.228	20277.55
559.59	20395.28
559.953	20467.82
560.316	20768.15
560.679	20785.1
561.041	20828.04
561.404	21112.78
561.767	21278.42
562.129	21250.4
562.492	21484.52
562.854	21575.82
563.217	21768.81
563.579	21898.97
563.941	22110.49
564.304	22257.38
564.666	22535.34
565.028	22542.12
565.39	22727.88
565.753	22972.16
566.115	23083.35
566.477	23285.38
566.839	23577.12
567.201	23796.1
567.563	23912.7
567.925	24166.94
568.287	24318.8
568.648	24455.74
569.01	24661.61
569.372	25060.47
569.734	24948.84
570.095	25295.49
570.457	25545.43
570.819	25724.18
571.18	25820.45
571.542	26092.99
571.903	26173.44
572.265	26496.14
572.626	26773.19
572.987	26770.03
573.349	26983.36
573.71	27256.12
574.071	27418.38
574.432	27653.85
574.794	28038.47
575.155	28142.65
575.516	28189.65
575.877	28522.75
576.238	28617.89
576.599	28732.69
576.96	28917.09
577.32	29214.71
577.681	29244.99
578.042	29506.91
578.403	29577.64
578.763	29614.93
579.124	29811.08
579.485	30155.48
579.845	30292.2
580.206	30221.69
580.566	30404.74
580.927	30594.56
581.287	30965.63
581.648	30952.75
582.008	31234.77
582.368	31270.48
582.728	31488.1
583.089	31700.75
583.449	31870.69
583.809	31913.17
584.169	32153.62
584.529	32183.45
584.889	32720.83
585.249	32773.71
585.609	32881.73
585.969	33292.8
586.329	33312.23
586.688	33822.27
587.048	33903.85
587.408	34180.68
587.768	34391.3
588.127	34777.28
588.487	35029.93
588.846	35767.31
589.206	35674.66
589.565	36137.24
589.925	36628.98
590.284	36818.81
590.643	37275.29
591.003	37698.1
591.362	38263.06
591.721	38538.53
592.08	38865.53
592.44	39429.13
592.799	39624.38
593.158	40031.6
593.517	40450.12
593.876	40970.11
594.235	41241.29
594.593	41683.54
594.952	42331.66
595.311	42437.19
595.67	43123.5
596.029	43624.5
596.387	44094.77
596.746	44708.32
597.104	44825.83
597.463	45139.27
597.822	45970.2
598.18	46100.82
598.538	46588.72
598.897	47248.81
599.255	47193.67
599.613	48135.8
599.972	48177.83
600.33	48609.46
600.688	48961.31
601.046	49430.23
601.404	49899.37
601.762	50102.52
602.12	50561.27
602.478	50878.78
602.836	51095.04
603.194	51242.61
603.552	51647.12
603.91	51885.98
604.268	52235.35
604.625	52538.62
604.983	52979.51
605.341	52887.76
605.698	53442.78
606.056	53755.08
606.413	53831.92
606.771	54198.91
607.128	54318.23
607.485	54460.15
607.843	54685.45
608.2	54992.79
608.557	55320.47
608.914	55419.67
609.272	55663.28
609.629	55970.62
609.986	56127.22
610.343	56228.69
610.7	56567.21
611.057	56600.88
611.414	56734.44
611.771	56942.8
612.127	57144.15
612.484	57248.1
612.841	57468.21
613.198	57490.35
613.554	57546.4
613.911	57821.42
614.267	57969.66
614.624	58050.56
614.98	58232.71
615.337	58478.58
615.693	58479.25
616.05	58643.77
616.406	58792.92
616.762	58844.89
617.118	58997.66
617.475	58983.65
617.831	59179.8
618.187	59213.02
618.543	59369.85
618.899	59576.85
619.255	59551.99
619.611	59576.85
619.967	59759.9
620.323	59906.11
620.678	59840.57
621.034	59853.91
621.39	59933
621.746	60012.77
622.101	60375.7
622.457	60126.67
622.812	60290.05
623.168	60382.71
623.523	60355.81
623.879	60475.13
624.234	60410.95
624.589	60584.28
624.945	60631.29
625.3	60679.65
625.655	60688.23
626.01	60777.95
626.365	60822.24
626.72	60742.24
627.075	60777.27
627.43	60800.77
627.785	60819.76
628.14	60803.26
628.495	60862.47
628.85	60917.38
629.205	60871.96
629.559	60968
629.914	60878.74
630.269	60970.94
630.623	60922.13
630.978	60884.16
631.332	61049.36
631.687	60980.88
632.041	60948.34
632.396	60960.09
632.75	60970.04
633.104	60994.89
633.459	60888.91
633.813	60878.29
634.167	60920.77
634.521	60924.39
634.875	60914.9
635.229	60904.05
635.583	60811.85
635.937	60812.3
636.291	60830.83
636.645	60835.12
636.999	60726.65
637.352	60754.9
637.706	60641
638.06	60810.27
638.413	60711.06
638.767	60634.9
639.121	60732.75
639.474	60588.8
639.828	60572.08
640.181	60579.09
640.534	60614.56
640.888	60488.92
641.241	60355.81
641.594	60436.94
641.947	60468.58
642.301	60384.29
642.654	60463.61
643.007	60342.93
643.36	60467.68
643.713	60323.5
644.066	60443.27
644.419	60293.89
644.771	60051.64
645.124	59806.9
645.477	59782.72
645.83	59684.42
646.182	59730.97
646.535	59640.35
646.888	59715.83
647.24	59617.3
647.593	59729.16
647.945	59614.82
648.298	59514.93
648.65	59457.08
649.002	59326.91
649.355	59327.37
649.707	59229.29
650.059	59196.75
650.411	59571.88
650.763	59721.48
651.115	60025.88
651.467	59961.47
651.819	59924.41
652.171	59905.2
652.523	59794.92
652.875	59842.16
653.227	59749.05
653.578	59945.88
653.93	59797.41
654.282	59647.81
654.633	59738.88
654.985	59738.43
655.337	59676.06
655.688	59669.28
656.039	59751.08
656.391	59506.8
656.742	59570.98
657.094	59610.75
657.445	59643.29
657.796	59607.13
658.147	59536.17
658.498	59617.08
658.849	59593.8
659.2	59556.97
659.551	59489.17
659.902	59656.85
660.253	59538.66
660.604	59567.81
660.955	59501.15
661.306	59599
661.656	59507.7
662.007	59497.31
662.358	59551.99
662.708	59573.46
663.059	59586.12
663.409	59339.57
663.76	59570.07
664.11	59503.41
664.461	59558.55
664.811	59523.75
665.161	59507.25
665.511	59428.15
665.862	59495.05
666.212	59525.33
666.562	59558.1
666.912	59440.36
667.262	59442.62
667.612	59433.8
667.962	59504.76
668.312	59390.19
668.662	59562.61
669.011	59509.28
669.361	59437.19
669.711	59469.51
670.06	59415.05
670.41	59345.67
670.76	59328.04
671.109	59415.05
671.459	59361.94
671.808	59359.91
672.157	59413.01
672.507	59235.39
672.856	59300.93
673.205	59325.33
673.554	59285.56
673.904	59241.04
674.253	59438.78
674.602	59269.06
674.951	58909.75
675.3	58905.23
675.649	59259.8
675.998	59264.54
676.346	59239.23
676.695	59242.85
677.044	59102.74
677.393	59234.71
677.741	59243.53
678.09	59147.26
678.438	59041.27
678.787	59171.44
679.135	59147.48
679.484	58977.77
679.832	59063.19
680.181	58960.37
680.529	59016.19
680.877	58879.92
681.225	58946.81
681.573	59025.23
681.922	58874.95
682.27	58808.28
682.618	58800.83
682.966	58756.76
683.314	58738.23
683.661	58714.95
684.009	58599.25
684.357	58548.86
684.705	58484.45
685.053	58570.32
685.4	58426.83
685.748	58425.47
686.095	58357.45
686.443	58324.23
686.79	58253.72
687.138	58331.01
687.485	58302.08
687.832	58155.42
688.18	58164.46
688.527	58054.41
688.874	58016.67
689.221	58014.86
689.568	57866.61
689.915	57780.06
690.262	57817.12
690.609	57813.06
690.956	57646.51
691.303	57651.48
691.65	57526.06
691.997	57479.73
692.344	57393.41
692.69	57285.39
693.037	57354.09
693.383	57117.93
693.73	57156.12
694.077	57040.42
694.423	57004.26
694.769	56910.48
695.116	56943.7
695.462	56813.31
695.808	56636.59
696.155	56772.41
696.501	56528.8
696.847	56639.98
697.193	56378.07
697.539	56436.37
697.885	56259.2
698.231	56235.7
698.577	56188.24
698.923	56182.36
699.269	55947.12
699.614	55853.11
699.96	55797.97
700.306	55902.6
700.651	55721.59
700.997	55660.34
701.342	55520.91
701.688	55524.08
702.033	55427.58
702.379	55386.45
702.724	55275.04
703.069	55362.05
703.415	55046.35
703.76	54967.71
704.105	55023.07
704.45	54897.43
704.795	54761.38
705.14	54726.13
705.485	54767.26
705.83	54509.41
706.175	54702.86
706.52	54525.68
706.865	54348.74
707.209	54371.34
707.554	54283.66
707.899	54256.54
708.243	54139.71
708.588	54041.86
708.932	53915.31
709.277	54036.21
709.621	53897.45
709.966	53701.53
710.31	53819.26
710.654	53585.6
710.998	53504.47
711.342	53644.35
711.687	53505.15
712.031	53435.77
712.375	53293.85
712.719	53268.77
713.063	53232.61
713.407	53337.24
713.75	53080.53
714.094	53044.37
714.438	52920.98
714.782	52910.13
715.125	52746.07
715.469	52894.99
715.812	52578.39
716.156	52546.53
716.499	52559.18
716.843	52573.65
717.186	52379.07
717.53	52546.08
717.873	52457.04
718.216	52355.8
718.559	52312.86
718.902	51995.58
719.246	52145.18
719.589	51948.13
719.932	51815.93
720.275	51942.25
720.617	52019.76
720.96	51762.82
721.303	51791.97
721.646	51793.78
721.989	51512.88
722.331	51647.57
722.674	51566.21
723.016	51507.23
723.359	51337.97
723.701	51499.55
724.044	51304.98
724.386	51126.68
724.729	51241.48
725.071	51268.82
725.413	51186.11
725.755	51042.16
726.097	51034.7
726.439	50915.84
726.782	50794.26
727.124	51063.18
727.465	50920.13
727.807	50745.45
728.149	50790.87
728.491	50642.17
728.833	50729.85
729.175	50592.68
729.516	50522.17
729.858	50532.34
730.199	50528.28
730.541	50360.6
730.882	50315.17
731.224	50325.34
731.565	50114.73
731.906	50206.93
732.248	50364.89
732.589	49996.09
732.93	49989.99
733.271	50031.34
733.612	49918.8
733.953	50068.85
734.294	49872.02
734.635	49831.12
734.976	49979.59
735.317	49698.24
735.658	49721.97
735.999	49623.21
736.339	49684
736.68	49657.79
737.021	49580.5
737.361	49431.13
737.702	49713.38
738.042	49436.33
738.383	49567.4
738.723	49563.1
739.063	49256.67
739.404	49488.3
739.744	49236.11
740.084	49211.25
740.424	49115.21
740.764	49070.91
741.104	49257.57
741.444	48936.45
741.784	48911.14
742.124	49051.93
742.464	48920.63
742.804	48874.08
743.143	48800.86
743.483	48822.11
743.823	48781.43
744.162	48736.46
744.502	48750.7
744.841	48723.13
745.181	48724.71
745.52	48461.21
745.86	48573.07
746.199	48538.27
746.538	48477.71
746.877	48486.52
747.216	48379.18
747.556	48312.74
747.895	48323.59
748.234	48167.21
748.573	48239.07
748.911	48075.46
749.25	48067.78
749.589	47896.71
749.928	47924.73
750.267	47991.17
750.605	47762.25
750.944	47704.62
751.283	47727.22
751.621	47856.71
751.96	47531.97
752.298	47577.62
752.636	47391.86
752.975	47468.02
753.313	47217.4
753.651	47469.37
753.989	47307.12
754.327	47204.52
754.666	46981.48
755.004	47068.71
755.342	47112.77
755.679	47037.97
