Data from 214_FLMS001491_003.txt Node
Date: Thu Apr 19 16:36:41 BST 2018
User: hsy
Spectrometer: FLMS00149
Trigger mode: 0
Integration Time (sec): 1.000000E-2
Scans to average: 10
Electric dark correction enabled: true
Nonlinearity correction enabled: false
Boxcar width: 0
XAxis mode: Wavelengths
Number of Pixels in Spectrum: 2048
>>>>>Begin Spectral Data<<<<<
341.393	0.07
341.776	0.07
342.16	0.07
342.543	-41.74
342.927	-54.17
343.31	-67.5
343.693	-75.86
344.077	-62.53
344.46	-55.97
344.843	-50.55
345.226	-23.88
345.61	-45.58
345.993	-5.58
346.376	-1.06
346.759	9.56
347.142	16.34
347.525	36
347.908	54.98
348.291	72.39
348.674	91.37
349.057	107.86
349.44	120.75
349.823	150.35
350.206	175.21
350.588	229.44
350.971	259.27
351.354	256.56
351.737	266.5
352.119	271.93
352.502	291.81
352.884	323.9
353.267	314.64
353.65	321.64
354.032	347.63
354.414	350.57
354.797	345.6
355.179	327.29
355.562	358.25
355.944	375.65
356.326	383.56
356.709	390.12
357.091	365.94
357.473	372.04
357.855	378.37
358.238	383.11
358.62	374.3
359.002	390.79
359.384	375.2
359.766	378.37
360.148	395.99
360.53	374.3
360.912	397.8
361.294	399.61
361.676	370
362.057	394.64
362.439	374.52
362.821	370.91
363.203	367.97
363.584	398.7
363.966	376.56
364.348	386.28
364.729	375.43
365.111	365.48
365.493	386.28
365.874	364.58
366.256	367.07
366.637	355.32
367.019	381.53
367.4	379.04
367.781	376.78
368.163	366.16
368.544	379.04
368.925	391.02
369.306	380.17
369.688	380.17
370.069	381.3
370.45	371.13
370.831	366.84
371.212	367.52
371.593	364.81
371.974	383.11
372.355	384.47
372.736	410.68
373.117	392.6
373.498	393.05
373.879	403.22
374.26	403.22
374.641	352.38
375.021	395.77
375.402	395.77
375.783	395.77
376.163	408.42
376.544	413.17
376.925	394.18
377.305	380.4
377.686	411.36
378.066	423.79
378.447	419.27
378.827	392.83
379.208	405.71
379.588	384.92
379.968	407.74
380.349	418.14
380.729	415.65
381.109	424.24
381.489	410.91
381.87	428.53
382.25	432.38
382.63	428.31
383.01	450.68
383.39	435.99
383.77	461.3
384.15	434.41
384.53	447.97
384.91	445.03
385.29	463.56
385.67	459.27
386.049	461.08
386.429	456.78
386.809	446.61
387.189	441.64
387.568	457.91
387.948	482.32
388.328	454.3
388.707	468.08
389.087	475.99
389.466	499.27
389.846	480.51
390.225	499.27
390.605	510.79
390.984	475.31
391.363	504.92
391.743	495.42
392.122	486.39
392.501	512.15
392.881	530.45
393.26	518.93
393.639	539.94
394.018	528.87
394.397	536.78
394.776	516.67
395.155	533.84
395.534	541.07
395.913	530.45
396.292	541.98
396.671	552.37
397.05	553.95
397.429	546.5
397.808	530.9
398.186	580.62
398.565	569.77
398.944	578.36
399.323	577.46
399.701	574.74
400.08	585.37
400.458	579.72
400.837	551.47
401.215	591.02
401.594	589.89
401.972	601.86
402.351	616.78
402.729	589.21
403.107	599.6
403.486	621.98
403.864	638.47
404.242	628.98
404.62	620.17
404.999	650.45
405.377	641.86
405.755	654.52
406.133	651.58
406.511	655.42
406.889	664.23
407.267	689.77
407.645	704.23
408.023	696.55
408.401	694.52
408.779	705.59
409.156	720.73
409.534	698.58
409.912	731.58
410.29	738.81
410.667	750.33
411.045	740.62
411.422	758.92
411.8	754.63
412.178	773.38
412.555	792.37
412.933	800.95
413.31	801.18
413.687	810.67
414.065	829.88
414.442	827.39
414.819	842.53
415.197	835.98
415.574	842.31
415.951	847.05
416.328	841.4
416.705	890.22
417.082	875.53
417.46	882.08
417.837	898.13
418.214	900.16
418.591	919.82
418.967	920.95
419.344	895.41
419.721	931.35
420.098	925.92
420.475	951.23
420.852	966.37
421.228	960.72
421.605	974.28
421.982	976.54
422.358	991.68
422.735	995.3
423.111	988.29
423.488	1021.29
423.864	1027.84
424.241	1002.53
424.617	1037.78
424.994	1040.04
425.37	1073.49
425.746	1044.56
426.123	1080.49
426.499	1075.52
426.875	1110.78
427.251	1105.35
427.627	1134.28
428.003	1116.2
428.379	1150.32
428.756	1147.84
429.132	1160.49
429.507	1216.76
429.883	1197.33
430.259	1211.11
430.635	1254.05
431.011	1245.91
431.387	1256.99
431.763	1264.44
432.138	1299.47
432.514	1301.51
432.89	1314.61
433.265	1341.05
433.641	1380.83
434.016	1364.1
434.392	1378.34
434.767	1399.58
435.143	1403.65
435.518	1412.46
435.894	1437.77
436.269	1451.78
436.644	1461.5
437.02	1495.62
437.395	1490.65
437.77	1503.31
438.145	1543.76
438.52	1533.59
438.895	1578.11
439.271	1550.09
439.646	1588.96
440.021	1596.86
440.395	1601.16
440.77	1602.97
441.145	1575.17
441.52	1645.68
441.895	1646.81
442.27	1674.83
442.645	1655.85
443.019	1634.6
443.394	1696.52
443.769	1673.92
444.143	1687.48
444.518	1720.93
444.892	1720.48
445.267	1739.69
445.641	1729.74
446.016	1756.18
446.39	1750.76
446.764	1743.3
447.139	1789.63
447.513	1747.37
447.887	1789.18
448.262	1772.91
448.636	1804.77
449.01	1838.21
449.384	1849.51
449.758	1847.48
450.132	1856.74
450.506	1888.16
450.88	1916.18
451.254	1891.55
451.628	1915.95
452.002	1932.22
452.376	1962.05
452.75	1964.31
453.123	1976.97
453.497	1992.11
453.871	2020.58
454.244	2036.18
454.618	2060.81
454.992	2093.12
455.365	2124.31
455.739	2153.01
456.112	2154.82
456.486	2178.54
456.859	2195.27
457.232	2265.55
457.606	2279.11
457.979	2233.01
458.352	2343.51
458.725	2357.75
459.099	2369.73
459.472	2362.95
459.845	2450.85
460.218	2449.5
460.591	2449.72
460.964	2481.81
461.337	2509.84
461.71	2558.87
462.083	2569.27
462.456	2576.27
462.829	2565.88
463.201	2628.93
463.574	2610.17
463.947	2676.16
464.32	2717.06
464.692	2699.66
465.065	2720.23
465.438	2734.46
465.81	2767.68
466.183	2791.18
466.555	2878.41
466.928	2900.33
467.3	2832.76
467.672	2896.72
468.045	2968.13
468.417	2967
468.789	2965.87
469.161	3038.86
469.534	3094.9
469.906	3126.99
470.278	3121.12
470.65	3106.43
471.022	3240.89
471.394	3256.93
471.766	3264.17
472.138	3306.2
472.51	3322.02
472.882	3371.28
473.253	3440.66
473.625	3452.86
473.997	3534.67
474.369	3515.91
474.74	3560.43
475.112	3649.01
475.484	3680.88
475.855	3778.73
476.227	3764.94
476.598	3894.21
476.97	3878.39
477.341	3956.8
477.713	3995.9
478.084	4046.29
478.455	4154.09
478.827	4180.98
479.198	4265.27
479.569	4270.92
479.94	4363.8
480.311	4415.1
480.682	4499.39
481.053	4534.64
481.424	4642.89
481.795	4719.72
482.166	4792.49
482.537	4834.97
482.908	4951.35
483.279	4940.96
483.65	5068.41
484.021	5155.64
484.391	5195.64
484.762	5241.06
485.133	5271.12
485.503	5365.58
485.874	5483.32
486.244	5499.36
486.615	5672.92
486.985	5690.09
487.356	5714.5
487.726	5827.49
488.097	5932.8
488.467	5917.43
488.837	6092.79
489.207	6174.82
489.578	6229.06
489.948	6296.63
490.318	6416.85
490.688	6385.89
491.058	6517.19
491.428	6656.84
491.798	6687.58
492.168	6816.16
492.538	6813.22
492.908	6866.33
493.278	6988.59
493.648	7038.08
494.017	7111.75
494.387	7177.28
494.757	7179.99
495.126	7286.43
495.496	7291.63
495.866	7376.6
496.235	7404.17
496.605	7514.45
496.974	7535.69
497.344	7632.64
497.713	7742.92
498.082	7789.24
498.452	7841.45
498.821	7876.93
499.19	7938.39
499.559	7956.92
499.928	7944.04
500.298	8039.41
500.667	8089.35
501.036	8058.39
501.405	8124.83
501.774	8140.2
502.143	8234.88
502.512	8273.98
502.88	8382.68
503.249	8316.91
503.618	8405.27
503.987	8480.3
504.356	8454.76
504.724	8440.07
505.093	8558.94
505.462	8573.63
505.83	8642.33
506.199	8632.61
506.567	8795.77
506.936	8760.74
507.304	8811.59
507.672	8876
508.041	8923.9
508.409	8998.03
508.777	9038.93
509.145	9118.47
509.514	9085.48
509.882	9132.71
510.25	9203.22
510.618	9238.25
510.986	9235.31
511.354	9323.89
511.722	9426.49
512.09	9485.02
512.458	9450.22
512.826	9554.17
513.193	9555.07
513.561	9574.51
513.929	9618.12
514.297	9788.29
514.664	9811.11
515.032	9856.99
515.4	10036.87
515.767	9948.06
516.135	10058.11
516.502	10050.2
516.869	10229.63
517.237	10219.24
517.604	10154.61
517.972	10393.7
518.339	10436.63
518.706	10451.32
519.073	10510.08
519.44	10572.9
519.808	10596.18
520.175	10691.99
520.542	10790.97
520.909	10795.94
521.276	10896.51
521.643	11027.13
522.009	11155.71
522.376	11280.68
522.743	11285.42
523.11	11432.76
523.477	11546.89
523.843	11563.16
524.21	11758.41
524.577	11791.62
524.943	11898.06
525.31	11941.68
525.676	12162.01
526.043	12232.97
526.409	12311.16
526.776	12399.52
527.142	12512.51
527.508	12554.99
527.874	12747.08
528.241	12757.48
528.607	12795.44
528.973	12959.28
529.339	13069.33
529.705	13160.63
530.071	13319.95
530.437	13458.25
530.803	13501.86
531.169	13624.57
531.535	13621.41
531.901	13717
532.267	13813.72
532.632	13915.86
532.998	13985.69
533.364	14131
533.73	14127.83
534.095	14228.85
534.461	14310.43
534.826	14286.93
535.192	14513.36
535.557	14502.51
535.923	14604.88
536.288	14691.21
536.653	14759.46
537.019	14783.18
537.384	14883.3
537.749	14934.37
538.114	15011.2
538.479	15027.7
538.845	15136.85
539.21	15141.82
539.575	15229.95
539.94	15338.88
540.305	15409.61
540.67	15377.07
541.034	15491.87
541.399	15626.33
541.764	15542.71
542.129	15617.74
542.494	15589.27
542.858	15775.02
543.223	15708.81
543.587	15780.45
543.952	15857.51
544.316	15941.12
544.681	15938.41
545.045	16092.53
545.41	16193.54
545.774	16150.61
546.138	16206.42
546.503	16321.68
546.867	16236.03
547.231	16423.59
547.595	16413.88
547.959	16470.6
548.324	16597.37
548.688	16535.46
549.052	16667.88
549.416	16721.21
549.779	16704.94
550.143	16776.35
550.507	17010.7
550.871	16923.47
551.235	16915.11
551.599	17189.68
551.962	17237.36
552.326	17220.41
552.689	17266.74
553.053	17291.82
553.417	17336.34
553.78	17586.27
554.143	17595.54
554.507	17686.16
554.87	17820.62
555.234	17950.56
555.597	17821.52
555.96	18015.87
556.323	18121.85
556.686	18149.2
557.05	18287.27
557.413	18325.01
557.776	18387.84
558.139	18579.47
558.502	18618.11
558.865	18683.2
559.228	18820.82
559.59	18936.52
559.953	18986.01
560.316	19172.67
560.679	19303.74
561.041	19330.86
561.404	19565.43
561.767	19739.21
562.129	19686.33
562.492	20031.63
562.854	20075.25
563.217	20251.06
563.579	20276.37
563.941	20435.24
564.304	20668.45
564.666	20855.12
565.028	20886.53
565.39	21136.46
565.753	21214.43
566.115	21404.93
566.477	21561.31
566.839	21813.06
567.201	22012.15
567.563	22076.55
567.925	22310.44
568.287	22441.29
568.648	22671.34
569.01	22836.53
569.372	23098.67
569.734	23197.43
570.095	23515.61
570.457	23592.44
570.819	23687.36
571.18	23929.61
571.542	24114.92
571.903	24271.75
572.265	24412.31
572.626	24820.89
572.987	24783.37
573.349	24955.12
573.71	25213.87
574.071	25316.92
574.432	25545.16
574.794	25958.03
575.155	25943.57
575.516	26073.51
575.877	26249.55
576.238	26455.65
576.599	26550.78
576.96	26751.46
577.32	26956.88
577.681	27025.8
578.042	27259.69
578.403	27456.3
578.763	27483.19
579.124	27593.92
579.485	27887.7
579.845	28084.3
580.206	28120.01
580.566	28195.94
580.927	28373.11
581.287	28571.97
581.648	28690.16
582.008	28936.48
582.368	29039.08
582.728	29159.3
583.089	29353.2
583.449	29576.69
583.809	29730.36
584.169	30081.54
584.529	30040.41
584.889	30560.85
585.249	30629.77
585.609	30752.26
585.969	31101.85
586.329	31248.97
586.688	31651.67
587.048	31932.11
587.408	32262.05
587.768	32396.96
588.127	32830.85
588.487	33040.11
588.846	33611.39
589.206	33677.38
589.565	33950.14
589.925	34620.86
590.284	34910.57
590.643	35171.58
591.003	35707.15
591.362	36345.56
591.721	36560.24
592.08	36989.15
592.44	37515.02
592.799	37854.22
593.158	38322.68
593.517	38522.9
593.876	39152.49
594.235	39449.88
594.593	39849.87
594.952	40404.43
595.311	40834.03
595.67	41250.51
596.029	42044.84
596.387	42405.96
596.746	43010.01
597.104	43233.74
597.463	43730.22
597.822	44356.19
598.18	44472.35
598.538	44792.79
598.897	45591.87
599.255	45770.62
599.613	46706.41
599.972	46806.3
600.33	47203.58
600.688	47526.96
601.046	47978.24
601.404	48584.1
601.762	48859.58
602.12	49370.52
602.478	49659.78
602.836	49927.8
603.194	50177.96
603.552	50635.58
603.91	50865.4
604.268	51252.96
604.625	51513.74
604.983	51906.28
605.341	51942.21
605.698	52520.95
606.056	52793.48
606.413	52833.48
606.771	53344.66
607.128	53417.2
607.485	53609.06
607.843	53888.37
608.2	54269.6
608.557	54446.77
608.914	54636.37
609.272	54833.66
609.629	55220.99
609.986	55423.02
610.343	55557.48
610.7	55844.25
611.057	55951.82
611.414	56057.81
611.771	56358.14
612.127	56458.02
612.484	56653.5
612.841	56852.81
613.198	56900.72
613.554	56953.83
613.911	57302.07
614.267	57434.04
614.624	57450.99
614.98	57644.2
615.337	57905.44
615.693	57980.02
616.05	58079.9
616.406	58296.62
616.762	58260.23
617.118	58375.94
617.475	58449.61
617.831	58629.72
618.187	58775.7
618.543	58826.09
618.899	59024.51
619.255	59019.54
619.611	59086.43
619.967	59292.97
620.323	59381.56
620.678	59376.81
621.034	59444.61
621.39	59479.86
621.746	59537.49
622.101	59821.77
622.457	59622.46
622.812	59869.23
623.168	59848.89
623.523	59860.87
623.879	60012.96
624.234	59963.92
624.589	60042.79
624.945	60127.3
625.3	60181.77
625.655	60191.71
626.01	60229.22
626.365	60300.41
626.72	60248.2
627.075	60245.94
627.43	60324.36
627.785	60431.48
628.14	60351.03
628.495	60437.58
628.85	60447.07
629.205	60449.33
629.559	60602.54
629.914	60433.96
630.269	60471.02
630.623	60396.22
630.978	60356.9
631.332	60509.44
631.687	60561.19
632.041	60485.03
632.396	60504.02
632.75	60483.45
633.104	60526.84
633.459	60427.63
633.813	60419.5
634.167	60423.57
634.521	60468.54
634.875	60473.06
635.229	60415.21
635.583	60339.95
635.937	60351.7
636.291	60371.14
636.645	60340.4
636.999	60253.63
637.352	60365.94
637.706	60205.95
638.06	60275.1
638.413	60253.63
638.767	60174.08
639.121	60185.61
639.474	60112.39
639.828	60113.52
640.181	60092.5
640.534	60137.25
640.888	60080.07
641.241	59994.43
641.594	60010.92
641.947	60089.11
642.301	59977.93
642.654	60028.1
643.007	59911.49
643.36	59946.74
643.713	59958.49
644.066	60000.07
644.419	59790.59
644.771	59563.7
645.124	59316.25
645.477	59341.11
645.83	59294.1
646.182	59260.21
646.535	59208.68
646.888	59187.21
647.24	59174.33
647.593	59274.44
647.945	59137.95
648.298	59091.85
648.65	58974.79
649.002	58841.46
649.355	58902.25
649.707	58706.78
650.059	58789.71
650.411	59111.74
650.763	59148.35
651.115	59598.96
651.467	59447.55
651.819	59408.68
652.171	59271.96
652.523	59318.96
652.875	59255.01
653.227	59176.14
653.578	59455.46
653.93	59265.86
654.282	59191.28
654.633	59213.65
654.985	59220.21
655.337	59216.37
655.688	59224.28
656.039	59259.3
656.391	59095.01
656.742	59110.38
657.094	59101.57
657.445	59042.13
657.796	59130.04
658.147	59073.09
658.498	59178.18
658.849	59151.74
659.2	59030.83
659.551	59030.38
659.902	59170.72
660.253	59014.34
660.604	59120.78
660.955	58994.68
661.306	59101.79
661.656	59018.18
662.007	59004.85
662.358	59001.46
662.708	59026.77
663.059	58975.47
663.409	58835.81
663.76	59035.13
664.11	59009.82
664.461	59062.92
664.811	59034.9
665.161	59013.21
665.511	58904.06
665.862	58929.14
666.212	58977.5
666.562	58988.35
666.912	58935.7
667.262	58910.16
667.612	58929.14
667.962	58989.93
668.312	58933.21
668.662	59014.34
669.011	59007.56
669.361	58966.66
669.711	58967.33
670.06	58866.32
670.41	58859.99
670.76	58847.79
671.109	58962.81
671.459	58857.05
671.808	58890.27
672.157	58963.27
672.507	58789.71
672.856	58813.67
673.205	58785.19
673.554	58878.52
673.904	58810.73
674.253	58951.06
674.602	58840.33
674.951	58523.73
675.3	58339.33
675.649	58863.16
675.998	58734.8
676.346	58803.72
676.695	58809.82
677.044	58647.57
677.393	58702.26
677.741	58834.91
678.09	58712.65
678.438	58675.36
678.787	58688.02
679.135	58625.65
679.484	58504.75
679.832	58595.14
680.181	58557.17
680.529	58566.44
680.877	58413.9
681.225	58439.89
681.573	58627.91
681.922	58391.76
682.27	58397.86
682.618	58304.98
682.966	58329.16
683.314	58276.73
683.661	58166.68
684.009	58166.45
684.357	58125.1
684.705	58055.95
685.053	58137.07
685.4	57952.22
685.748	57883.29
686.095	57994.7
686.443	57737.31
686.79	57783.64
687.138	57828.83
687.485	57779.12
687.832	57596.52
688.18	57642.62
688.527	57589.97
688.874	57571.66
689.221	57522.63
689.568	57383.87
689.915	57232.01
690.262	57377.32
690.609	57272.01
690.956	57164.67
691.303	57152.47
691.65	57046.71
691.997	57045.12
692.344	56792.7
692.69	56814.85
693.037	56797.45
693.383	56616.89
693.73	56717.22
694.077	56533.95
694.423	56514.52
694.769	56398.14
695.116	56434.52
695.462	56311.36
695.808	56187.97
696.155	56341.87
696.501	56035.66
696.847	56066.17
697.193	55885.61
697.539	55969.9
697.885	55761.99
698.231	55638.16
698.577	55654.65
698.923	55590.25
699.269	55334.89
699.614	55321.33
699.96	55212.63
700.306	55349.58
700.651	55128.56
700.997	55011.51
701.342	54974.9
701.688	54914.78
702.033	54805.18
702.379	54854.22
702.724	54648.58
703.069	54675.47
703.415	54371.07
703.76	54420.33
704.105	54360.22
704.45	54312.54
704.795	54247.46
705.14	54096.05
705.485	54094.02
705.83	53945.09
706.175	54045.88
706.52	53897.86
706.865	53852.67
707.209	53644.54
707.554	53753.01
707.899	53742.16
708.243	53568.15
708.588	53480.25
708.932	53409.74
709.277	53299.01
709.621	53212.91
709.966	53000.26
710.31	53172.01
710.654	52874.61
710.998	52998
711.342	52991.22
711.687	52786.71
712.031	52778.12
712.375	52594.17
712.719	52542.64
713.063	52517.33
713.407	52631
713.75	52467.84
714.094	52489.99
714.438	52346.49
714.782	52264.01
715.125	52153.95
715.469	52304.01
715.812	51970.68
716.156	51916.67
716.499	51911.7
716.843	52028.31
717.186	51708.32
717.53	51884.36
717.873	51850.46
718.216	51677.13
718.559	51610.92
718.902	51326.63
719.246	51509
719.589	51382.9
719.932	51234.2
720.275	51360.53
720.617	51301.77
720.96	51174.09
721.303	51212.06
721.646	51202.57
721.989	51005.51
722.331	51052.29
722.674	50871.28
723.016	50928.45
723.359	50826.3
723.701	50859.75
724.044	50745.85
724.386	50671.51
724.729	50735.91
725.071	50666.54
725.413	50574.79
725.755	50442.59
726.097	50320.1
726.439	50297.51
726.782	50126.66
727.124	50336.6
727.465	50269.71
727.807	50081.69
728.149	50236.72
728.491	49987.91
728.833	50007.57
729.175	49914.01
729.516	49863.62
729.858	49859.78
730.199	49876.73
730.541	49809.16
730.882	49767.35
731.224	49779.78
731.565	49595.6
731.906	49533.91
732.248	49662.04
732.589	49357.19
732.93	49332.11
733.271	49348.83
733.612	49251.43
733.953	49393.35
734.294	49277.87
734.635	49038.56
734.976	49297.98
735.317	49139.8
735.658	49093.92
735.999	48982.51
736.339	48994.04
736.68	49004.88
737.021	48935.28
737.361	48689.86
737.702	48988.84
738.042	48766.92
738.383	48838.79
738.723	48749.75
739.063	48615.52
739.404	48723.99
739.744	48539.59
740.084	48328.52
740.424	48595.63
740.764	48378.01
741.104	48518.57
741.444	48370.55
741.784	48241.06
742.124	48321.06
742.464	48288.07
742.804	48122.42
743.143	48151.8
743.483	48141.63
743.823	47996.77
744.162	48044.01
744.502	48104.79
744.841	47810.34
745.181	48063.67
745.52	47905.93
745.86	47865.7
746.199	47771.92
746.538	47665.26
746.877	47902.09
747.216	47795.42
747.556	47608.31
747.895	47644.47
748.234	47678.59
748.573	47481.53
748.911	47507.52
749.25	47425.72
749.589	47258.04
749.928	47329.67
750.267	47294.87
750.605	47060.75
750.944	47044.71
751.283	46978.27
751.621	47052.17
751.96	46780.54
752.298	46908.89
752.636	46738.5
752.975	46741.89
753.313	46546.87
753.651	46752.97
753.989	46487.21
754.327	46614.21
754.666	46168.8
755.004	46399.75
755.342	46271.85
755.679	46350.72
