Data from 214_FLMS001491_001.txt Node
Date: Thu Apr 19 16:36:35 BST 2018
User: hsy
Spectrometer: FLMS00149
Trigger mode: 0
Integration Time (sec): 1.000000E-2
Scans to average: 10
Electric dark correction enabled: true
Nonlinearity correction enabled: false
Boxcar width: 0
XAxis mode: Wavelengths
Number of Pixels in Spectrum: 2048
>>>>>Begin Spectral Data<<<<<
341.393	-20.96
341.776	-20.96
342.16	-20.96
342.543	-59.83
342.927	-68.87
343.31	-75.87
343.693	-54.41
344.077	-79.04
344.46	-46.72
344.843	-47.63
345.226	-44.91
345.61	-35.65
345.993	-19.15
346.376	-12.15
346.759	-10.56
347.142	4.58
347.525	54.29
347.908	80.73
348.291	94.97
348.674	73.95
349.057	117.57
349.44	134.06
349.823	131.35
350.206	163.67
350.588	221.75
350.971	253.38
351.354	267.85
351.737	283.44
352.119	292.25
352.502	278.47
352.884	316.88
353.267	349.65
353.65	303.33
354.032	339.03
354.414	340.61
354.797	344.45
355.179	345.81
355.562	347.17
355.944	369.54
356.326	385.81
356.709	379.03
357.091	373.38
357.473	407.28
357.855	371.57
358.238	376.32
358.62	371.35
359.002	405.7
359.384	393.04
359.766	409.09
360.148	391.01
360.53	406.15
360.912	388.75
361.294	377.67
361.676	372.7
362.057	358.24
362.439	381.29
362.821	383.55
363.203	374.06
363.584	373.15
363.966	367.5
364.348	376.54
364.729	365.24
365.111	377
365.493	383.32
365.874	353.95
366.256	363.44
366.637	349.43
367.019	363.89
367.4	387.84
367.781	366.83
368.163	385.13
368.544	379.71
368.925	378.58
369.306	380.84
369.688	349.88
370.069	389.42
370.45	398.69
370.831	361.4
371.212	377.67
371.593	394.4
371.974	389.42
372.355	379.26
372.736	396.88
373.117	395.07
373.498	380.84
373.879	361.85
374.26	364.57
374.641	371.8
375.021	375.87
375.402	402.08
375.783	407.96
376.163	397.33
376.544	404.34
376.925	401.63
377.305	405.24
377.686	403.21
378.066	392.59
378.447	416.54
378.827	420.84
379.208	420.38
379.588	416.99
379.968	420.38
380.349	425.13
380.729	404.57
381.109	416.32
381.489	408.63
381.87	438.46
382.25	430.33
382.63	428.52
383.01	444.11
383.39	428.75
383.77	435.53
384.15	418.35
384.53	445.24
384.91	451.34
385.29	428.75
385.67	469.2
386.049	452.02
386.429	466.71
386.809	453.15
387.189	471.68
387.568	466.94
387.948	482.98
388.328	461.74
388.707	475.07
389.087	481.4
389.466	489.31
389.846	480.5
390.225	470.33
390.605	496.99
390.984	466.71
391.363	499.93
391.743	498.12
392.122	495.86
392.501	496.99
392.881	504
393.26	513.72
393.639	522.3
394.018	516.43
394.397	508.52
394.776	530.44
395.155	511.23
395.534	514.39
395.913	526.6
396.292	542.64
396.671	562.98
397.05	548.06
397.429	551.91
397.808	562.98
398.186	548.06
398.565	566.37
398.944	572.92
399.323	575.86
399.701	561.85
400.08	574.5
400.458	568.18
400.837	578.12
401.215	586.03
401.594	589.87
401.972	608.18
402.351	597.1
402.729	585.8
403.107	613.6
403.486	610.66
403.864	619.48
404.242	619.7
404.62	631.9
404.999	660.38
405.377	662.64
405.755	623.77
406.133	651.56
406.511	645.69
406.889	657.89
407.267	693.6
407.645	663.54
408.023	679.59
408.401	698.8
408.779	702.18
409.156	707.61
409.534	724.11
409.912	727.04
410.29	711.9
410.667	757.55
411.045	751.45
411.422	773.14
411.8	764.1
412.178	780.6
412.555	797.78
412.933	798.91
413.31	804.1
413.687	830.54
414.065	803.88
414.442	843.42
414.819	852.92
415.197	842.97
415.574	861.28
415.951	852.01
416.328	879.36
416.705	870.54
417.082	877.32
417.46	903.31
417.837	890.65
418.214	925.46
418.591	926.13
418.967	903.76
419.344	925
419.721	913.48
420.098	942.4
420.475	959.58
420.852	941.5
421.228	961.16
421.605	973.82
421.982	978.56
422.358	1011.78
422.735	977.88
423.111	1028.28
423.488	1018.33
423.864	1034.15
424.241	1045.68
424.617	1024.21
424.994	1052.68
425.37	1093.59
425.746	1061.5
426.123	1095.17
426.499	1081.16
426.875	1080.25
427.251	1134.26
427.627	1126.58
428.003	1148.27
428.379	1146.69
428.756	1162.96
429.132	1209.29
429.507	1172.46
429.883	1201.83
430.259	1229.18
430.635	1240.02
431.011	1247.71
431.387	1286.12
431.763	1281.38
432.138	1325.67
432.514	1339.68
432.89	1319.12
433.265	1342.62
433.641	1372.9
434.016	1335.61
434.392	1433.47
434.767	1461.26
435.143	1416.97
435.518	1444.54
435.894	1488.38
436.269	1456.74
436.644	1530.41
437.02	1529.51
437.395	1530.19
437.77	1508.04
438.145	1570.86
438.52	1579.45
438.895	1603.18
439.271	1595.49
439.646	1630.07
440.021	1627.58
440.395	1602.73
440.77	1610.86
441.145	1635.72
441.52	1681.82
441.895	1650.63
442.27	1695.83
442.645	1688.83
443.019	1718.43
443.394	1715.04
443.769	1704.87
444.143	1720.46
444.518	1715.94
444.892	1721.37
445.267	1721.37
445.641	1741.93
446.016	1746.9
446.39	1742.38
446.764	1766.56
447.139	1786.68
447.513	1777.18
447.887	1824.87
448.262	1832.1
448.636	1846.11
449.01	1865.32
449.384	1878.65
449.758	1898.54
450.132	1885.43
450.506	1934.24
450.88	1923.62
451.254	1936.95
451.628	1967.46
452.002	1983.73
452.376	2017.63
452.75	2011.98
453.123	2017.18
453.497	2037.29
453.871	2029.83
454.244	2069.15
454.618	2113
454.992	2124.75
455.365	2146.21
455.739	2178.3
456.112	2215.37
456.486	2209.72
456.859	2228.25
457.232	2265.31
457.606	2288.13
457.979	2280.9
458.352	2337.62
458.725	2355.02
459.099	2374.23
459.472	2391.18
459.845	2434.79
460.218	2442.25
460.591	2450.16
460.964	2507.56
461.337	2528.13
461.71	2575.81
462.083	2596.15
462.456	2590.95
462.829	2625.98
463.201	2624.85
463.574	2677.95
463.947	2683.83
464.32	2726.76
464.692	2715.01
465.065	2748.91
465.438	2787.33
465.81	2799.98
466.183	2814.45
466.555	2856.7
466.928	2923.14
467.3	2901.68
467.672	2944.61
468.045	2968.57
468.417	2997.49
468.789	2992.97
469.161	3041.11
469.534	3087.66
469.906	3132.86
470.278	3164.49
470.65	3190.26
471.022	3250.82
471.394	3276.81
471.766	3288.11
472.138	3335.34
472.51	3401.55
472.882	3446.07
473.253	3473.64
473.625	3476.35
473.997	3554.54
474.369	3584.37
474.74	3615.78
475.112	3653.75
475.484	3739.39
475.855	3765.83
476.227	3809.22
476.598	3848.77
476.97	3922.44
477.341	3985.49
477.713	4037.92
478.084	4055.54
478.455	4126.28
478.827	4130.34
479.198	4281.75
479.569	4268.87
479.94	4379.15
480.311	4415.08
480.682	4509.54
481.053	4591.57
481.424	4635.64
481.795	4712.7
482.166	4769.42
482.537	4790.21
482.908	4901.17
483.279	4966.71
483.65	5070.88
484.021	5136.42
484.391	5187.49
484.762	5274.27
485.133	5330.54
485.503	5385
485.874	5490.99
486.244	5512.23
486.615	5660.47
486.985	5685.33
487.356	5733.69
487.726	5803.75
488.097	5943.86
488.467	5901.14
488.837	6025.21
489.207	6134.36
489.578	6234.24
489.948	6261.13
490.318	6379.1
490.688	6392.88
491.058	6479.21
491.428	6466.33
491.798	6629.26
492.168	6752.87
492.538	6818.41
492.908	6803.72
493.278	6906.99
493.648	6889.14
494.017	7009.59
494.387	7103.82
494.757	7136.14
495.126	7200.09
495.496	7264.27
495.866	7281.45
496.235	7314.44
496.605	7420.43
496.974	7389.92
497.344	7491.84
497.713	7565.28
498.082	7621.78
498.452	7694.77
498.821	7663.36
499.19	7658.16
499.559	7795.33
499.928	7894.76
500.298	7797.82
500.667	7935.89
501.036	7941.77
501.405	7950.36
501.774	8019.73
502.143	8031.94
502.512	8085.72
502.88	8169.79
503.249	8159.84
503.618	8270.8
503.987	8266.05
504.356	8307.86
504.724	8334.3
505.093	8375.66
505.462	8407.07
505.83	8430.57
506.199	8529.78
506.567	8585.82
506.936	8566.84
507.304	8632.6
507.672	8656.1
508.041	8734.52
508.409	8753.95
508.777	8823.55
509.145	8806.38
509.514	8893.83
509.882	8874.85
510.25	8939.93
510.618	9019.93
510.986	9051.34
511.354	9080.72
511.722	9198.01
512.09	9256.99
512.458	9226.93
512.826	9274.39
513.193	9384.67
513.561	9380.6
513.929	9457.66
514.297	9511.9
514.664	9549.64
515.032	9555.06
515.4	9702.4
515.767	9749.4
516.135	9828.72
516.502	9778.78
516.869	9964.09
517.237	9982.84
517.604	9957.76
517.972	10134.93
518.339	10171.54
518.706	10235.95
519.073	10284.08
519.44	10280.46
519.808	10435.71
520.175	10480.91
520.542	10555.71
520.909	10590.29
521.276	10682.71
521.643	10805.87
522.009	10908.24
522.376	11052.42
522.743	11101.46
523.11	11215.58
523.477	11312.3
523.843	11351.85
524.21	11474.11
524.577	11603.14
524.943	11644.27
525.31	11725.17
525.676	11803.36
526.043	11979.63
526.409	11988.44
526.776	12116.8
527.142	12228.21
527.508	12322.67
527.874	12452.38
528.241	12519.95
528.607	12592.95
528.973	12751.13
529.339	12791.58
529.705	12914.97
530.071	13045.59
530.437	13137.11
530.803	13201.74
531.169	13263.66
531.535	13289.88
531.901	13434.51
532.267	13477.44
532.632	13547.27
532.998	13692.58
533.364	13724.89
533.73	13875.62
534.095	13957.43
534.461	13980.71
534.826	14146.13
535.192	14177.54
535.557	14257.31
535.923	14250.53
536.288	14449.39
536.653	14426.57
537.019	14499.34
537.384	14588.37
537.749	14692.1
538.114	14721.93
538.479	14653.68
538.845	14784.75
539.21	14740.91
539.575	14899.78
539.94	14925.99
540.305	15110.85
540.67	15059.1
541.034	15150.17
541.399	15196.04
541.764	15236.72
542.129	15324.17
542.494	15357.17
542.858	15373.66
543.223	15476.94
543.587	15527.11
543.952	15466.54
544.316	15610.04
544.681	15610.95
545.045	15765.07
545.41	15839.64
545.774	15753.31
546.138	15828.79
546.503	15984.27
546.867	16017.04
547.231	16041.44
547.595	16094.1
547.959	16152.4
548.324	16202.57
548.688	16319.63
549.052	16272.85
549.416	16263.13
549.779	16339.74
550.143	16515.1
550.507	16591.26
550.871	16597.36
551.235	16600.07
551.599	16714.42
551.962	16725.49
552.326	16819.95
552.689	16932.04
553.053	16833.06
553.417	16862.66
553.78	17179.04
554.143	17108.08
554.507	17209.32
554.87	17371.35
555.234	17607.28
555.597	17402.76
555.96	17497.45
556.323	17624.45
556.686	17682.53
557.05	17840.49
557.413	17870.55
557.776	17903.31
558.139	18134.04
558.502	18108.73
558.865	18264.21
559.228	18505.11
559.59	18425.33
559.953	18592.56
560.316	18889.5
560.679	18804.99
561.041	18986
561.404	19137.18
561.767	19329.27
562.129	19383.5
562.492	19615.59
562.854	19671.4
563.217	19707.56
563.579	19867.33
563.941	20096.03
564.304	20246.53
564.666	20355.45
565.028	20437.26
565.39	20720.42
565.753	20985.27
566.115	20993.4
566.477	21158.14
566.839	21276.79
567.201	21589.77
567.563	21745.47
567.925	21923.55
568.287	22024.34
568.648	22123.99
569.01	22417.09
569.372	22724.2
569.734	22669.06
570.095	23060.24
570.457	23231.99
570.819	23418.42
571.18	23459.1
571.542	23866.32
571.903	23835.81
572.265	24184.73
572.626	24351.73
572.987	24446.65
573.349	24629.92
573.71	24930.47
574.071	24993.3
574.432	25248.21
574.794	25552.6
575.155	25545.6
575.516	25672.15
575.877	25866.72
576.238	25888.19
576.599	26190.55
576.96	26311.91
577.32	26536.31
577.681	26726.36
578.042	26899.01
578.403	26989.18
578.763	27107.82
579.124	27196.63
579.485	27475.94
579.845	27639.1
580.206	27699.67
580.566	27788.93
580.927	27953.67
581.287	28128.81
581.648	28215.36
582.008	28507.33
582.368	28574.45
582.728	28778.96
583.089	28959.52
583.449	29077.48
583.809	29372.17
584.169	29519.51
584.529	29666.85
584.889	30093.05
585.249	30001.3
585.609	30069.32
585.969	30535.52
586.329	30752.47
586.688	30987.94
587.048	31199.24
587.408	31516.29
587.768	31778.66
588.127	32158.98
588.487	32249.15
588.846	33015.01
589.206	32908.57
589.565	33335.23
589.925	33858.83
590.284	34224.47
590.643	34641.18
591.003	35068.06
591.362	35476.86
591.721	35809.74
592.08	36239.33
592.44	36642.48
592.799	36971.51
593.158	37458.73
593.517	37792.51
593.876	38371.7
594.235	38602.21
594.593	39079.25
594.952	39494.16
595.311	39813.92
595.67	40469.05
596.029	41126.66
596.387	41576.36
596.746	42274.65
597.104	42376.8
597.463	42727.29
597.822	43480.27
598.18	43844.33
598.538	44146.24
598.897	44861.7
599.255	45092.88
599.613	45850.15
599.972	46009.24
600.33	46561.77
600.688	46764.02
601.046	47326.95
601.404	47889.87
601.762	48060.94
602.12	48676.06
602.478	49019.56
602.836	49377.74
603.194	49467
603.552	49914.9
603.91	50127.33
604.268	50534.77
604.625	50749.23
604.983	51313.28
605.341	51277.8
605.698	51793.95
606.056	52240.72
606.413	52224.67
606.771	52783.75
607.128	52850.64
607.485	53094.48
607.843	53306
608.2	53645.43
608.557	53982.14
608.914	54004.96
609.272	54372.41
609.629	54606.98
609.986	54929.01
610.343	55045.39
610.7	55304.37
611.057	55419.84
611.414	55457.36
611.771	55823.22
612.127	56027.96
612.484	56180.95
612.841	56365.81
613.198	56430.44
613.554	56516.08
613.911	56779.35
614.267	56865.68
614.624	56996.3
614.98	57221.15
615.337	57407.36
615.693	57503.18
616.05	57564.19
616.406	57823.85
616.762	57870.17
617.118	57965.99
617.475	58048.7
617.831	58155.82
618.187	58298.86
618.543	58444.4
618.899	58662.24
619.255	58651.17
619.611	58642.81
619.967	58880.77
620.323	58999.41
620.678	58982.46
621.034	59002.35
621.39	59064.72
621.746	59124.6
622.101	59483.01
622.457	59215.67
622.812	59497.7
623.168	59528.89
623.523	59549.23
623.879	59664.25
624.234	59612.5
624.589	59644.36
624.945	59780.41
625.3	59852.49
625.655	59863.12
626.01	59952.38
626.365	59977.69
626.72	59910.35
627.075	59960.06
627.43	59981.53
627.785	60029.66
628.14	60073.05
628.495	60154.86
628.85	60124.35
629.205	60090.23
629.559	60209.55
629.914	60101.98
630.269	60210.68
630.623	60047.74
630.978	60069.89
631.332	60209.32
631.687	60231.69
632.041	60192.15
632.396	60221.75
632.75	60130.68
633.104	60212.94
633.459	60107.18
633.813	60165.25
634.167	60119.38
634.521	60154.41
634.875	60168.19
635.229	60115.99
635.583	60009.1
635.937	60017.69
636.291	60017.46
636.645	60029.66
636.999	59877.58
637.352	60002.32
637.706	59843.45
638.06	59956.9
638.413	59886.62
638.767	59820.63
639.121	59875.77
639.474	59772.72
639.828	59718.26
640.181	59774.3
640.534	59816.79
640.888	59680.97
641.241	59593.97
641.594	59647.3
641.947	59721.2
642.301	59624.25
642.654	59679.84
643.007	59565.04
643.36	59684.36
643.713	59596
644.066	59707.19
644.419	59479.17
644.771	59281.44
645.124	59073.76
645.477	59067.2
645.83	58929.58
646.182	58928.9
646.535	58970.26
646.888	58944.95
647.24	58844.84
647.593	58960.77
647.945	58827.89
648.298	58747.89
648.65	58733.43
649.002	58543.38
649.355	58527.11
649.707	58537.05
650.059	58520.78
650.411	58841.67
650.763	58843.26
651.115	59295.9
651.467	59061.55
651.819	59102.23
652.171	59017.04
652.523	59001.22
652.875	59024.04
653.227	58897.49
653.578	59118.95
653.93	59047.09
654.282	58927.77
654.633	58838.96
654.985	58889.58
655.337	58871.5
655.688	58876.47
656.039	58965.74
656.391	58708.8
656.742	58800.77
657.094	58849.13
657.445	58756.48
657.796	58812.3
658.147	58773.88
658.498	58812.97
658.849	58827.21
659.2	58747.44
659.551	58681.23
659.902	58846.64
660.253	58724.84
660.604	58819.07
660.955	58643.49
661.306	58792.63
661.656	58687.1
662.007	58733.2
662.358	58691.39
662.708	58696.82
663.059	58712.19
663.409	58568.69
663.76	58699.08
664.11	58779.75
664.461	58715.8
664.811	58687.55
665.161	58760.09
665.511	58662.47
665.862	58671.51
666.212	58699.3
666.562	58742.69
666.912	58655.69
667.262	58520.55
667.612	58594
667.962	58600.78
668.312	58567.33
668.662	58784.95
669.011	58670.83
669.361	58616.59
669.711	58629.02
670.06	58615.69
670.41	58545.86
670.76	58515.58
671.109	58648.01
671.459	58567.78
671.808	58604.62
672.157	58568.91
672.507	58491.63
672.856	58462.7
673.205	58477.84
673.554	58519.2
673.904	58447.79
674.253	58601
674.602	58439.42
674.951	58134.57
675.3	58043.05
675.649	58461.8
675.998	58422.48
676.346	58501.12
676.695	58484.17
677.044	58337.28
677.393	58375.7
677.741	58438.07
678.09	58401.23
678.438	58291.63
678.787	58333.44
679.135	58383.15
679.484	58194.91
679.832	58276.72
680.181	58180.22
680.529	58250.95
680.877	58139.54
681.225	58113.1
681.573	58240.11
681.922	58076.27
682.27	57968.25
682.618	57980.68
682.966	57972.77
683.314	57955.14
683.661	57962.6
684.009	57848.03
684.357	57769.38
684.705	57699.33
685.053	57736.84
685.4	57645.77
685.748	57602.16
686.095	57587.92
686.443	57517.19
686.79	57395.84
687.138	57484.42
687.485	57454.37
687.832	57389.51
688.18	57356.51
688.527	57267.7
688.874	57236.07
689.221	57187.03
689.568	57055.51
689.915	56979.35
690.262	57039.69
690.609	56965.56
690.956	56868.84
691.303	56881.5
691.65	56769.86
691.997	56722.86
692.344	56570.77
692.69	56556.54
693.037	56575.29
693.383	56262.76
693.73	56479.02
694.077	56251.23
694.423	56260.27
694.769	56186.38
695.116	56124.46
695.462	55983.9
695.808	55921.52
696.155	56042.2
696.501	55722.89
696.847	55795.88
697.193	55670.91
697.539	55695.54
697.885	55394.53
698.231	55328.09
698.577	55363.57
698.923	55330.81
699.269	55159.06
699.614	55118.38
699.96	54948.22
700.306	54986.86
700.651	54862.34
700.997	54712.29
701.342	54634.55
701.688	54585.06
702.033	54634.1
702.379	54545.06
702.724	54417.61
703.069	54437.95
703.415	54176.03
703.76	54101.01
704.105	54244.51
704.45	54016.04
704.795	53903.27
705.14	53825.53
705.485	53821.24
705.83	53603.62
706.175	53692.66
706.52	53587.12
706.865	53459.22
707.209	53334.25
707.554	53422.83
707.899	53403.62
708.243	53268.71
708.588	53171.31
708.932	53033.69
709.277	53062.16
709.621	52896.07
709.966	52700.82
710.31	52758.9
710.654	52515.96
710.998	52605.23
711.342	52527.04
711.687	52517.32
712.031	52348.28
712.375	52271.22
712.719	52265.12
713.063	52128.18
713.407	52307.61
713.75	52063.55
714.094	52059.03
714.438	52010.89
714.782	51856.09
715.125	51720.28
715.469	51926.15
715.812	51642.77
716.156	51542.2
716.499	51604.58
716.843	51633.73
717.186	51371.59
717.53	51548.98
717.873	51499.04
718.216	51366.62
718.559	51275.09
718.902	50957.13
719.246	51043.46
719.589	50965.95
719.932	50832.39
720.275	50895.67
720.617	50848.66
720.96	50748.55
721.303	50854.54
721.646	50870.81
721.989	50634.66
722.331	50741.1
722.674	50525.28
723.016	50533.42
723.359	50361.9
723.701	50470.37
724.044	50266.31
724.386	50128.68
724.729	50361.22
725.071	50263.37
725.413	50256.59
725.755	50036.48
726.097	49905.41
726.439	49929.82
726.782	49682.14
727.124	49965.97
727.465	49775.7
727.807	49727.34
728.149	49833.77
728.491	49618.19
728.833	49714.23
729.175	49567.79
729.516	49561.01
729.858	49508.13
730.199	49664.74
730.541	49529.38
730.882	49287.12
731.224	49335.26
731.565	49194.92
731.906	49288.93
732.248	49305.43
732.589	49134.13
732.93	49005.1
733.271	49043.29
733.612	48984.31
733.953	49010.97
734.294	48955.38
734.635	48765.1
734.976	49128.48
735.317	48850.07
735.658	48848.49
735.999	48684.88
736.339	48655.27
736.68	48716.97
737.021	48601.72
737.361	48432.46
737.702	48604.88
738.042	48445.56
738.383	48449.18
738.723	48554.03
739.063	48262.52
739.404	48422.51
739.744	48153.59
740.084	48099.58
740.424	48193.82
740.764	48039.25
741.104	48120.83
741.444	48048.28
741.784	47808.52
742.124	48133.71
742.464	47964.22
742.804	47881.96
743.143	47812.13
743.483	47773.26
743.823	47607.17
744.162	47742.3
744.502	47749.99
744.841	47497.34
745.181	47643.78
745.52	47433.39
745.86	47468.86
746.199	47395.87
746.538	47452.59
746.877	47591.35
747.216	47347.29
747.556	47151.81
747.895	47205.82
748.234	47151.59
748.573	47147.97
748.911	46944.58
749.25	47003.11
749.589	46807.87
749.928	46895.77
750.267	46834.98
750.605	46745.04
750.944	46702.11
751.283	46609.68
751.621	46666.85
751.96	46422.79
752.298	46415.33
752.636	46398.16
752.975	46315.22
753.313	46160.42
753.651	46379.4
753.989	46124.49
754.327	46141.44
754.666	45739.87
755.004	45927.89
755.342	45909.58
755.679	45724.73
