Data from 277_FLMS001491_007.txt Node
Date: Thu Apr 19 16:45:12 BST 2018
User: hsy
Spectrometer: FLMS00149
Trigger mode: 0
Integration Time (sec): 1.000000E-2
Scans to average: 10
Electric dark correction enabled: true
Nonlinearity correction enabled: false
Boxcar width: 0
XAxis mode: Wavelengths
Number of Pixels in Spectrum: 2048
>>>>>Begin Spectral Data<<<<<
341.393	-1.64
341.776	-1.64
342.16	-1.64
342.543	-65.59
342.927	-88.64
343.31	-46.83
343.693	-69.66
344.077	-64.01
344.46	-78.92
344.843	-49.09
345.226	-65.14
345.61	-38.47
345.993	-17.46
346.376	-5.25
346.759	5.37
347.142	46.27
347.525	15.31
347.908	76.33
348.291	77.23
348.674	105.7
349.057	108.64
349.44	114.29
349.823	146.83
350.206	166.94
350.588	209.66
350.971	242.87
351.354	273.61
351.737	255.08
352.119	270.67
352.502	284.46
352.884	320.39
353.267	304.34
353.65	343.66
354.032	324.23
354.414	357
354.797	342.31
355.179	332.14
355.562	357.9
355.944	348.18
356.326	376.43
356.709	356.77
357.091	380.5
357.473	379.37
357.855	394.51
358.238	384.57
358.62	375.53
359.002	362.87
359.384	364
359.766	361.97
360.148	368.07
360.53	377.56
360.912	369.65
361.294	357.67
361.676	382.98
362.057	387.28
362.439	368.52
362.821	359.03
363.203	380.95
363.584	365.81
363.966	357.45
364.348	365.13
364.729	359.71
365.111	369.88
365.493	381.63
365.874	363.1
366.256	365.36
366.637	362.42
367.019	362.19
367.4	383.66
367.781	374.85
368.163	351.57
368.544	364
368.925	349.76
369.306	373.72
369.688	381.85
370.069	373.72
370.45	371.01
370.831	364.23
371.212	373.27
371.593	380.5
371.974	381.4
372.355	359.48
372.736	409.42
373.117	374.85
373.498	367.17
373.879	376.66
374.26	372.14
374.641	374.62
375.021	359.93
375.402	383.66
375.783	406.49
376.163	384.34
376.544	398.35
376.925	392.48
377.305	404.68
377.686	391.35
378.066	390.67
378.447	390.89
378.827	390.89
379.208	407.16
379.588	391.35
379.968	428.86
380.349	401.74
380.729	397
381.109	392.7
381.489	395.19
381.87	397.67
382.25	426.82
382.63	417.11
383.01	431.8
383.39	441.51
383.77	438.12
384.15	449.88
384.53	422.08
384.91	463.43
385.29	456.88
385.67	476.77
386.049	459.37
386.429	470.44
386.809	450.33
387.189	465.02
387.568	470.21
387.948	484
388.328	480.38
388.707	476.77
389.087	475.64
389.466	498.01
389.846	490.1
390.225	497.78
390.605	507.27
390.984	514.05
391.363	503.66
391.743	526.26
392.122	528.07
392.501	526.03
392.881	538.23
393.26	540.95
393.639	544.34
394.018	526.48
394.397	556.77
394.776	549.08
395.155	549.31
395.534	549.76
395.913	574.17
396.292	574.62
396.671	557.22
397.05	592.24
397.429	571.91
397.808	592.92
398.186	586.37
398.565	592.47
398.944	609.42
399.323	619.14
399.701	620.04
400.08	617.78
400.458	609.64
400.837	646.48
401.215	638.34
401.594	664.11
401.972	664.56
402.351	680.6
402.729	666.59
403.107	683.99
403.486	690.77
403.864	688.06
404.242	707.95
404.62	728.51
404.999	732.81
405.377	713.6
405.755	755.63
406.133	757.44
406.511	779.58
406.889	784.78
407.267	804.67
407.645	826.36
408.023	828.4
408.401	837.21
408.779	855.97
409.156	861.62
409.534	862.52
409.912	911.33
410.29	901.16
410.667	901.84
411.045	954.27
411.422	954.49
411.8	973.25
412.178	987.26
412.555	1010.09
412.933	1020.26
413.31	1043.08
413.687	1072.23
414.065	1088.28
414.442	1087.6
414.819	1136.18
415.197	1112
415.574	1161.27
415.951	1182.51
416.328	1186.58
416.705	1203.98
417.082	1198.78
417.46	1215.96
417.837	1233.81
418.214	1247.14
418.591	1275.62
418.967	1299.8
419.344	1319.23
419.721	1326.01
420.098	1345.9
420.475	1355.84
420.852	1362.17
421.228	1390.19
421.605	1402.17
421.982	1435.61
422.358	1467.7
422.735	1454.59
423.111	1472.22
423.488	1486.23
423.864	1507.7
424.241	1518.32
424.617	1563.29
424.994	1575.27
425.37	1610.75
425.746	1625.66
426.123	1627.47
426.499	1655.95
426.875	1679.9
427.251	1689.39
427.627	1722.16
428.003	1748.37
428.379	1781.59
428.756	1811.42
429.132	1847.58
429.507	1832.21
429.883	1883.96
430.259	1892.1
430.635	1957.18
431.011	1962.38
431.387	1969.16
431.763	2011.19
432.138	2039.89
432.514	2052.32
432.89	2073.79
433.265	2179.55
433.641	2160.56
434.016	2220.45
434.392	2296.15
434.767	2299.54
435.143	2297.28
435.518	2310.39
435.894	2383.38
436.269	2424.06
436.644	2453.66
437.02	2459.31
437.395	2466.09
437.77	2523.72
438.145	2581.8
438.52	2592.64
438.895	2626.54
439.271	2632.87
439.646	2684.39
440.021	2700.21
440.395	2748.12
440.77	2717.16
441.145	2794.22
441.52	2804.39
441.895	2808.68
442.27	2822.69
442.645	2837.38
443.019	2882.81
443.394	2901.56
443.769	2949.24
444.143	2937.04
444.518	2991.28
444.892	2961.22
445.267	3010.94
445.641	3048.9
446.016	3078.28
446.39	3090.94
446.764	3113.08
447.139	3103.36
447.513	3160.99
447.887	3139.75
448.262	3191.27
448.636	3222.91
449.01	3271.04
449.384	3277.6
449.758	3322.12
450.132	3350.14
450.506	3371.61
450.88	3412.28
451.254	3383.36
451.628	3448.21
452.002	3503.81
452.376	3505.39
452.75	3582.9
453.123	3649.79
453.497	3656.12
453.871	3660.64
454.244	3773.86
454.618	3799.62
454.992	3836.68
455.365	3890.69
455.739	3965.04
456.112	4026.5
456.486	4078.25
456.859	4097.01
457.232	4167.74
457.606	4191.47
457.979	4238.7
458.352	4320.28
458.725	4383.56
459.099	4400.51
459.472	4479.15
459.845	4590.78
460.218	4634.17
460.591	4628.97
460.964	4666.04
461.337	4768.63
461.71	4885.92
462.083	4940.38
462.456	4968.17
462.829	4952.36
463.201	5090.21
463.574	5085.23
463.947	5182.63
464.32	5172.24
464.692	5283.42
465.065	5366.58
465.438	5367.26
465.81	5482.06
466.183	5549.85
466.555	5655.61
466.928	5649.06
467.3	5703.75
467.672	5771.77
468.045	5911.43
468.417	5900.35
468.789	6037.52
469.161	6084.53
469.534	6137.41
469.906	6269.38
470.278	6271.42
470.65	6330.4
471.022	6511.41
471.394	6579.88
471.766	6628.47
472.138	6811.29
472.51	6853.32
472.882	6931.51
473.253	7035.24
473.625	7099.19
473.997	7287.21
474.369	7284.05
474.74	7388.22
475.112	7538.05
475.484	7622.57
475.855	7744.82
476.227	7867.99
476.598	8015.55
476.97	8087.41
477.341	8302.1
477.713	8385.49
478.084	8504.58
478.455	8701.41
478.827	8735.08
479.198	8991.57
479.569	9060.27
479.94	9241.51
480.311	9425.46
480.682	9623.65
481.053	9806.92
481.424	9880.14
481.795	9939.12
482.166	10127.59
482.537	10297.3
482.908	10493.9
483.279	10649.16
483.65	10914.46
484.021	11024.29
484.391	11140.44
484.762	11270.38
485.133	11329.82
485.503	11593.99
485.874	11869.69
486.244	11856.35
486.615	12062.68
486.985	12280.52
487.356	12407.98
487.726	12577.24
488.097	12882.54
488.467	12872.83
488.837	13139.26
489.207	13300.38
489.578	13530.89
489.948	13708.51
490.318	13794.16
490.688	13773.14
491.058	14033.7
491.428	14289.29
491.798	14394.37
492.168	14628.49
492.538	14692.89
492.908	14849.5
493.278	15105.99
493.648	15098.08
494.017	15351.4
494.387	15489.25
494.757	15569.25
495.126	15618.52
495.496	15766.99
495.866	15944.16
496.235	16073.19
496.605	16077.49
496.974	16226.18
497.344	16338.27
497.713	16499.4
498.082	16544.37
498.452	16658.71
498.821	16824.81
499.19	16857.58
499.559	17099.83
499.928	17129.66
500.298	17134.41
500.667	17286.27
501.036	17307.06
501.405	17443.33
501.774	17484.91
502.143	17604.68
502.512	17668.63
502.88	17880.83
503.249	17908.63
503.618	17976.65
503.987	18119.92
504.356	18113.82
504.724	18243.08
505.093	18347.03
505.462	18404.21
505.83	18554.26
506.199	18669.74
506.567	18862.72
506.936	18793.12
507.304	19031.31
507.672	19097.29
508.041	19119.67
508.409	19249.83
508.777	19432.43
509.145	19551.75
509.514	19481.24
509.882	19636.72
510.25	19670.61
510.618	19859.99
510.986	19862.47
511.354	20150.15
511.722	20230.6
512.09	20404.83
512.458	20302.69
512.826	20526.64
513.193	20636.46
513.561	20701.09
513.929	20872.84
514.297	20996
514.664	21057.69
515.032	21166.62
515.4	21319.16
515.767	21493.16
516.135	21504.24
516.502	21387.63
516.869	21812.48
517.237	21813.16
517.604	21708.75
517.972	22156.2
518.339	22229.87
518.706	22334.27
519.073	22379.69
519.44	22382.63
519.808	22634.83
520.175	22779.91
520.542	23053.12
520.909	23133.8
521.276	23175.15
521.643	23471.64
522.009	23503.96
522.376	23617.63
522.743	23784.18
523.11	23996.15
523.477	24180.55
523.843	24173.09
524.21	24582.8
524.577	24719.97
524.943	24845.17
525.31	24853.3
525.676	25252.39
526.043	25410.57
526.409	25441.53
526.776	25704.13
527.142	25720.62
527.508	25835.2
527.874	26081.97
528.241	26102.08
528.607	26206.03
528.973	26482.86
529.339	26515.63
529.705	26729.64
530.071	26889.18
530.437	26931.66
530.803	27101.38
531.169	27271.09
531.535	27146.57
531.901	27380.69
532.267	27403.52
532.632	27604.87
532.998	27635.38
533.364	27837.18
533.73	27724.41
534.095	27965.31
534.461	28023.84
534.826	28027.91
535.192	28177.28
535.557	28426.77
535.923	28316.04
536.288	28474.68
536.653	28511.96
537.019	28560.55
537.384	28542.02
537.749	28499.31
538.114	28728.23
538.479	28650.72
538.845	28663.37
539.21	28629.7
539.575	28767.77
539.94	28852.97
540.305	29050.03
540.67	28810.94
541.034	28938.17
541.399	28994.66
541.764	29035.79
542.129	28921.67
542.494	29090.25
542.858	29126.18
543.223	28966.41
543.587	29108.1
543.952	29137.93
544.316	29225.39
544.681	29121.21
545.045	29302.22
545.41	29268.33
545.774	29205.96
546.138	29163.02
546.503	29252.28
546.867	29276.91
547.231	29492.5
547.595	29390.81
547.959	29276.24
548.324	29379.51
548.688	29369.34
549.052	29453.41
549.416	29361.66
549.779	29315.56
550.143	29499.51
550.507	29590.35
550.871	29473.07
551.235	29368.66
551.599	29678.94
551.962	29666.06
552.326	29650.69
552.689	29738.82
553.053	29438.94
553.417	29573.86
553.78	29810.46
554.143	29683.68
554.507	29746.28
554.87	29841.87
555.234	30038.02
555.597	29884.58
555.96	29779.73
556.323	29843.23
556.686	29946.5
557.05	30033.96
557.413	29988.99
557.776	30005.93
558.139	30075.08
558.502	30155.08
558.865	30130.45
559.228	30275.53
559.59	30371.57
559.953	30356.66
560.316	30652.7
560.679	30615.86
561.041	30536.77
561.404	30683.88
561.767	30858.57
562.129	30722.53
562.492	30965.68
562.854	30952.12
563.217	30795.97
563.579	31068.96
563.941	31137.43
564.304	31229.4
564.666	31536.74
565.028	31474.6
565.39	31523.86
565.753	31698.77
566.115	31478.89
566.477	31754.81
566.839	31734.93
567.201	32080.23
567.563	31957.97
567.925	32135.37
568.287	32248.36
568.648	32172.43
569.01	32352.77
569.372	32538.75
569.734	32407.23
570.095	32627.33
570.457	32793.88
570.819	32785.97
571.18	32902.36
571.542	33040.66
571.903	33127.21
572.265	33196.36
572.626	33328.78
572.987	33178.73
573.349	33398.61
573.71	33412.17
574.071	33591.6
574.432	33693.97
574.794	33929.9
575.155	33867.75
575.516	33838.38
575.877	33924.93
576.238	33999.95
576.599	34129.44
576.96	34207.86
577.32	34126.28
577.681	34275.43
578.042	34507.28
578.403	34554.29
578.763	34539.15
579.124	34600.84
579.485	34708.64
579.845	34753.83
580.206	34783.44
580.566	34665.92
580.927	34812.14
581.287	35072.24
581.648	34939.36
582.008	35302.74
582.368	35101.62
582.728	35162.18
583.089	35171.45
583.449	35326.7
583.809	35347.26
584.169	35432.46
584.529	35428.62
584.889	35687.59
585.249	35423.87
585.609	35374.38
585.969	35662.06
586.329	35589.52
586.688	35750.19
587.048	35715.61
587.408	35801.26
587.768	35847.14
588.127	35935.27
588.487	35888.94
588.846	36220.01
589.206	35866.12
589.565	36123.29
589.925	36373
590.284	36105.66
590.643	36181.59
591.003	36434.01
591.362	36479.89
591.721	36524.86
592.08	36534.8
592.44	36694.8
592.799	36630.84
593.158	36692.31
593.517	36742.03
593.876	37005.3
594.235	36754.46
594.593	36918.52
594.952	36906.32
595.311	36943.83
595.67	37065.41
596.029	37227.89
596.387	37263.6
596.746	37417.72
597.104	37248.68
597.463	37233.99
597.822	37491.16
598.18	37445.74
598.538	37396.47
598.897	37717.82
599.255	37462.91
599.613	38128.43
599.972	37639.63
600.33	37828.78
600.688	37819.29
601.046	37894.31
601.404	38260.41
601.762	38201.2
602.12	38231.93
602.478	38396
602.836	38417.46
603.194	38107.87
603.552	38309.44
603.91	38267.64
604.268	38423.11
604.625	38444.81
604.983	38803.44
605.341	38523.45
605.698	38704.24
606.056	38840.05
606.413	38845.7
606.771	39005.7
607.128	38988.75
607.485	38880.5
607.843	38996.43
608.2	39249.31
608.557	39199.82
608.914	39297.67
609.272	39557.77
609.629	39679.8
609.986	39712.8
610.343	39618.79
610.7	40092.67
611.057	39967.03
611.414	39816.98
611.771	40163.63
612.127	40224.65
612.484	40162.28
612.841	40351.65
613.198	40317.98
613.554	40299.9
613.911	40547.58
614.267	40663.28
614.624	40728.36
614.98	40750.96
615.337	40984.18
615.693	40921.58
616.05	40909.38
616.406	41143.04
616.762	41046.77
617.118	40980.79
617.475	40988.24
617.831	41421.45
618.187	41223.72
618.543	41379.42
618.899	41604.95
619.255	41610.37
619.611	41508.91
619.967	41842.01
620.323	41849.69
620.678	41606.53
621.034	41648.79
621.39	41791.61
621.746	41695.34
622.101	42193.64
622.457	41807.66
622.812	42105.05
623.168	42109.12
623.523	42124.71
623.879	42235.9
624.234	41985.05
624.589	42224.37
624.945	42127.65
625.3	42170.81
625.655	42194.99
626.01	42231.83
626.365	42289.68
626.72	42286.29
627.075	42140.53
627.43	42228.66
627.785	42310.47
628.14	42273.41
628.495	42248.32
628.85	42217.82
629.205	42181.66
629.559	42328.55
629.914	42168.1
630.269	42208.78
630.623	41966.07
630.978	42049.46
631.332	42146.41
631.687	42183.47
632.041	42129.68
632.396	42072.74
632.75	42020.31
633.104	42214.88
633.459	41881.33
633.813	41849.46
634.167	42013.75
634.521	41945.06
634.875	41844.72
635.229	41753.42
635.583	41787.55
635.937	41684.72
636.291	41630.71
636.645	41513.43
636.999	41392.75
637.352	41679.07
637.706	41320.44
638.06	41568.12
638.413	41348.01
638.767	41390.27
639.121	41440.21
639.474	41281.57
639.828	41250.61
640.181	41342.59
640.534	41404.5
640.888	41239.31
641.241	41056.72
641.594	41117.96
641.947	41337.16
642.301	41197.96
642.654	41321.12
643.007	41094
643.36	41293.55
643.713	41125.19
644.066	41245.64
644.419	41065.76
644.771	40618.54
645.124	40339.67
645.477	40263.74
645.83	40124.54
646.182	40121.15
646.535	39979.23
646.888	40019.23
647.24	39993.47
647.593	40253.35
647.945	40130.41
648.298	40073.01
648.65	39828.05
649.002	39725.68
649.355	39734.94
649.707	39649.75
650.059	39766.81
650.411	40262.61
650.763	40464.42
651.115	40993.89
651.467	40809.49
651.819	40941.92
652.171	40790.74
652.523	40590.51
652.875	40710.51
653.227	40544.19
653.578	40872.54
653.93	40740.34
654.282	40611.08
654.633	40677.74
654.985	40748.93
655.337	40726.78
655.688	40748.25
656.039	40814.69
656.391	40657.41
656.742	40658.08
657.094	40685.43
657.445	40816.72
657.796	40731.53
658.147	40762.49
658.498	40880.9
658.849	40980.56
659.2	40883.84
659.551	40784.18
659.902	41106.43
660.253	40862.37
660.604	41050.16
660.955	40844.75
661.306	41127.45
661.656	41040.22
662.007	40895.59
662.358	41000.9
662.708	41104.4
663.059	41161.35
663.409	40876.16
663.76	41220.33
664.11	41137.17
664.461	41251.06
664.811	41098.07
665.161	41154.79
665.511	41099.65
665.862	41132.2
666.212	41239.99
666.562	41498.51
666.912	41250.61
667.262	41182.14
667.612	41098.3
667.962	41122.7
668.312	41168.8
668.662	41261.68
669.011	41354.56
669.361	41213.78
669.711	41164.28
670.06	41181.69
670.41	41108.02
670.76	41130.16
671.109	41227.79
671.459	41191.85
671.808	41091.52
672.157	41097.85
672.507	40968.13
672.856	40978.75
673.205	41067.34
673.554	41039.09
673.904	40977.17
674.253	41128.58
674.602	40830.51
674.951	40517.3
675.3	40281.6
675.649	40985.08
675.998	40912.09
676.346	40991.63
676.695	41027.11
677.044	40614.69
677.393	40712.32
677.741	40945.99
678.09	40876.16
678.438	40541.48
678.787	40678.2
679.135	40661.25
679.484	40515.71
679.832	40574.02
680.181	40392.55
680.529	40410.41
680.877	40283.86
681.225	40199.11
681.573	40666.22
681.922	40136.06
682.27	40070.08
682.618	40064.2
682.966	40036.4
683.314	40039.12
683.661	39943.98
684.009	39780.59
684.357	39550.99
684.705	39613.37
685.053	39600.71
685.4	39443.65
685.748	39363.65
686.095	39302.41
686.443	39100.61
686.79	39107.84
687.138	39118.46
687.485	39078.92
687.832	38889.99
688.18	38950.33
688.527	38733.39
688.874	38781.3
689.221	38513.73
689.568	38284.13
689.915	38331.37
690.262	38295.43
690.609	38021.32
690.956	37984.71
691.303	37882.34
691.65	37722.79
691.997	37539.3
692.344	37447.32
692.69	37396.47
693.037	37370.49
693.383	37069.03
693.73	37137.5
694.077	36897.96
694.423	36924.17
694.769	36755.14
695.116	36583.39
695.462	36442.38
695.808	36314.47
696.155	36226.11
696.501	35973.46
696.847	35915.38
697.193	35736.86
697.539	35711.32
697.885	35349.07
698.231	35287.38
698.577	35214.38
698.923	35197.66
699.269	34827.28
699.614	34824.11
699.96	34584.57
700.306	34681.52
700.651	34533.95
700.997	34258.03
701.342	34211.47
701.688	34184.58
702.033	33922.44
702.379	34013.51
702.724	33716.12
703.069	33921.31
703.415	33397.03
703.76	33386.86
704.105	33393.64
704.45	33282.23
704.795	33093.54
705.14	32889.93
705.485	32917.04
705.83	32818.74
706.175	32809.25
706.52	32763.83
706.865	32523.38
707.209	32510.5
707.554	32380.34
707.899	32278.19
708.243	32159.1
708.588	32094.24
708.932	31903.29
709.277	32077.74
709.621	31873.68
709.966	31651.99
710.31	31700.58
710.654	31500.36
710.998	31540.36
711.342	31472.34
711.687	31415.39
712.031	31382.62
712.375	31154.38
712.719	31157.32
713.063	31110.54
713.407	31198.22
713.75	31045.68
714.094	31078
714.438	30985.12
714.782	30898.11
715.125	30747.84
715.469	30858.57
715.812	30591
716.156	30528.86
716.499	30702.64
716.843	30708.29
717.186	30565.02
717.53	30745.8
717.873	30751
718.216	30393.27
718.559	30500.84
718.902	30275.76
719.246	30364.34
719.589	30419.93
719.932	30331.12
720.275	30341.74
720.617	30376.55
720.96	30273.5
721.303	30238.24
721.646	30337.68
721.989	30287.73
722.331	30373.61
722.674	30125.93
723.016	30344.46
723.359	30118.7
723.701	30181.52
724.044	30173.61
724.386	30033.28
724.729	30082.32
725.071	30242.54
725.413	30146.72
725.755	30025.82
726.097	30100.85
726.439	29973.17
726.782	30092.26
727.124	30167.29
727.465	30217.68
727.807	30113.95
728.149	30094.97
728.491	29999.83
728.833	30130.22
729.175	30139.72
729.516	29998.93
729.858	30186.04
730.199	30228.53
730.541	30190.56
730.882	30086.84
731.224	30208.41
731.565	30191.24
731.906	30304.23
732.248	30311.24
732.589	30228.08
732.93	30241.41
733.271	30243.67
733.612	30254.74
733.953	30391.46
734.294	30353.95
734.635	30348.07
734.976	30509.42
735.317	30556.43
735.658	30526.15
735.999	30532.47
736.339	30630.1
736.68	30732.24
737.021	30753.94
737.361	30574.73
737.702	30863.99
738.042	30706.03
738.383	30906.93
738.723	30950.77
739.063	30915.06
739.404	31070.31
739.744	31126.13
740.084	31058.34
740.424	31270.99
740.764	31204.77
741.104	31462.62
741.444	31363.64
741.784	31304.43
742.124	31601.6
742.464	31506.46
742.804	31619
743.143	31636.17
743.483	31928.14
743.823	31909.16
744.162	31989.61
744.502	32234.12
744.841	32091.08
745.181	32295.82
745.52	32226.44
745.86	32489.03
746.199	32543.27
746.538	32692.19
746.877	32861.68
747.216	32966.31
747.556	32886.76
747.895	33088.34
748.234	33263.7
748.573	33303.7
748.911	33399.74
749.25	33597.93
749.589	33517.03
749.928	33790.24
750.267	33959.73
750.605	34145.71
750.944	34253.96
751.283	34299.61
751.621	34565.36
751.96	34500.28
752.298	34764.45
752.636	34966.93
752.975	34987.95
753.313	35010.32
