Data from 277_FLMS001491_008.txt Node
Date: Thu Apr 19 16:45:14 BST 2018
User: hsy
Spectrometer: FLMS00149
Trigger mode: 0
Integration Time (sec): 1.000000E-2
Scans to average: 10
Electric dark correction enabled: true
Nonlinearity correction enabled: false
Boxcar width: 0
XAxis mode: Wavelengths
Number of Pixels in Spectrum: 2048
>>>>>Begin Spectral Data<<<<<
341.393	-24.84
341.776	-24.84
342.16	-24.84
342.543	-49.25
342.927	-59.87
343.31	-74.79
343.693	-79.98
344.077	-70.72
344.46	-59.87
344.843	-37.5
345.226	-45.63
345.61	-24.62
345.993	-17.39
346.376	-2.02
346.759	13.35
347.142	11.99
347.525	36.4
347.908	54.93
348.291	79.56
348.674	111.42
349.057	104.87
349.44	116.62
349.823	133.57
350.206	170.63
350.588	231.19
350.971	246.79
351.354	253.79
351.737	285.43
352.119	294.24
352.502	298.76
352.884	304.19
353.267	318.2
353.65	308.03
354.032	339.89
354.414	341.93
354.797	350.97
355.179	350.29
355.562	350.74
355.944	347.12
356.326	375.15
356.709	375.37
357.091	373.79
357.473	378.99
357.855	372.43
358.238	370.63
358.62	367.24
359.002	386.67
359.384	374.02
359.766	364.75
360.148	372.43
360.53	379.67
360.912	383.05
361.294	378.99
361.676	371.98
362.057	382.6
362.439	362.94
362.821	381.7
363.203	386.44
363.584	358.42
363.966	372.66
364.348	369.95
364.729	358.87
365.111	369.04
365.493	371.98
365.874	376.73
366.256	364.98
366.637	378.31
367.019	368.37
367.4	371.3
367.781	374.02
368.163	365.88
368.544	364.52
368.925	332.89
369.306	369.04
369.688	379.89
370.069	380.57
370.45	350.74
370.831	372.21
371.212	359.55
371.593	359.55
371.974	373.79
372.355	383.28
372.736	387.12
373.117	371.98
373.498	383.28
373.879	371.76
374.26	388.03
374.641	397.74
375.021	369.72
375.402	377.18
375.783	383.73
376.163	411.98
376.544	389.38
376.925	416.27
377.305	391.87
377.686	381.02
378.066	374.69
378.447	387.12
378.827	412.43
379.208	416.27
379.588	389.83
379.968	398.42
380.349	419.21
380.729	408.36
381.109	410.4
381.489	408.14
381.87	435.26
382.25	417.18
382.63	416.5
383.01	447.01
383.39	439.55
383.77	434.35
384.15	442.94
384.53	440
384.91	441.58
385.29	465.09
385.67	457.63
386.049	473
386.429	448.36
386.809	481.13
387.189	470.28
387.568	462.83
387.948	474.58
388.328	483.17
388.707	468.02
389.087	480.45
389.466	487.91
389.846	484.3
390.225	508.7
390.605	506.22
390.984	500.11
391.363	515.25
391.743	510.51
392.122	517.29
392.501	511.19
392.881	527.91
393.26	520.23
393.639	535.14
394.018	550.51
394.397	521.81
394.776	561.36
395.155	540.56
395.534	548.7
395.913	564.97
396.292	567.46
396.671	562.03
397.05	580.11
397.429	572.2
397.808	575.59
398.186	599.77
398.565	596.83
398.944	590.51
399.323	616.5
399.701	601.81
400.08	600
400.458	611.52
400.837	625.53
401.215	653.78
401.594	646.55
401.972	661.69
402.351	670.73
402.729	687.23
403.107	688.36
403.486	651.75
403.864	667.79
404.242	693.78
404.62	698.07
404.999	710.73
405.377	727
405.755	765.87
406.133	735.36
406.511	762.25
406.889	778.07
407.267	783.72
407.645	788.24
408.023	817.17
408.401	804.51
408.779	851.52
409.156	874.34
409.534	861.91
409.912	879.31
410.29	919.31
410.667	927.67
411.045	948.69
411.422	960.89
411.8	967.22
412.178	1003.38
412.555	1009.71
412.933	1042.92
413.31	1059.42
413.687	1064.62
414.065	1080.66
414.442	1127.44
414.819	1110.95
415.197	1127.22
415.574	1177.38
415.951	1192.98
416.328	1231.39
416.705	1240.21
417.082	1241.56
417.46	1236.37
417.837	1269.59
418.214	1287.89
418.591	1305.52
418.967	1293.77
419.344	1324.5
419.721	1353.2
420.098	1383.71
420.475	1384.84
420.852	1411.05
421.228	1398.62
421.605	1416.93
421.982	1474.55
422.358	1473.2
422.735	1505.74
423.111	1509.35
423.488	1594.1
423.864	1544.61
424.241	1559.52
424.617	1591.16
424.994	1601.78
425.37	1634.55
425.746	1637.94
426.123	1689.91
426.499	1699.18
426.875	1719.74
427.251	1729.91
427.627	1777.14
428.003	1841.1
428.379	1810.59
428.756	1855.56
429.132	1844.03
429.507	1882.9
429.883	1923.13
430.259	1948.66
430.635	1996.35
431.011	1989.79
431.387	2050.58
431.763	2071.6
432.138	2089.9
432.514	2131.03
432.89	2113.63
433.265	2210.35
433.641	2210.58
434.016	2220.29
434.392	2307.3
434.767	2344.36
435.143	2355.66
435.518	2378.03
435.894	2373.51
436.269	2452.61
436.644	2504.13
437.02	2494.19
437.395	2517.24
437.77	2586.61
438.145	2619.38
438.52	2660.96
438.895	2703.67
439.271	2707.51
439.646	2741.41
440.021	2775.76
440.395	2798.36
440.77	2798.58
441.145	2857.34
441.52	2888.75
441.895	2884.01
442.27	2912.93
442.645	2889.66
443.019	2939.15
443.394	2913.16
443.769	2958.35
444.143	3003.1
444.518	3037
444.892	3060.72
445.267	3047.62
445.641	3091.46
446.016	3133.27
446.39	3128.52
446.764	3185.02
447.139	3199.93
447.513	3196.31
447.887	3215.75
448.262	3235.86
448.636	3241.06
449.01	3308.18
449.384	3337.55
449.758	3351.34
450.132	3419.59
450.506	3449.41
450.88	3482.41
451.254	3429.53
451.628	3501.17
452.002	3601.28
452.376	3601.95
452.75	3655.96
453.123	3702.74
453.497	3722.18
453.871	3741.16
454.244	3840.59
454.618	3837.65
454.992	3966.01
455.365	3921.94
455.739	4001.72
456.112	4095.27
456.486	4071.55
456.859	4142.28
457.232	4239.68
457.606	4274.7
457.979	4358.32
458.352	4426.79
458.725	4417.3
459.099	4491.2
459.472	4511.53
459.845	4665.43
460.218	4675.6
460.591	4705.65
460.964	4777.97
461.337	4861.13
461.71	4933.22
462.083	4970.05
462.456	5011.86
462.829	5057.73
463.201	5193.32
463.574	5118.98
463.947	5253.21
464.32	5356.71
464.692	5404.17
465.065	5433.09
465.438	5489.36
465.81	5580.21
466.183	5570.04
466.555	5743.14
466.928	5791.27
467.3	5765.29
467.672	5817.49
468.045	6079.4
468.417	6016.13
468.789	6057.48
469.161	6142.23
469.534	6245.5
469.906	6330.02
470.278	6370.92
470.65	6503.57
471.022	6587.19
471.394	6715.77
471.766	6729.78
472.138	6846.16
472.51	6887.29
472.882	7065.14
473.253	7131.58
473.625	7190.56
473.997	7406.15
474.369	7468.29
474.74	7492.92
475.112	7659.47
475.484	7773.37
475.855	7943.99
476.227	7979.24
476.598	8176.07
476.97	8305.33
477.341	8426.46
477.713	8493.12
478.084	8627.13
478.455	8825.54
478.827	8862.15
479.198	9185.31
479.569	9129.27
479.94	9387.11
480.311	9456.94
480.682	9756.37
481.053	9947.32
481.424	10060.54
481.795	10206.75
482.166	10320.42
482.537	10429.12
482.908	10685.38
483.279	10832.95
483.65	11024.81
484.021	11236.78
484.391	11291.24
484.762	11403.56
485.133	11572.37
485.503	11697.11
485.874	12056.42
486.244	12081.05
486.615	12359.92
486.985	12443.75
487.356	12649.17
487.726	12749.51
488.097	13007.36
488.467	13093
488.837	13446.21
489.207	13458.42
489.578	13643.27
489.948	13869.71
490.318	14065.86
490.688	14080.77
491.058	14288.9
491.428	14505.85
491.798	14615.68
492.168	14819.06
492.538	14930.24
492.908	15089.33
493.278	15336.33
493.648	15289.56
494.017	15616.1
494.387	15659.04
494.757	15842.99
495.126	15867.62
495.496	16034.39
495.866	16199.36
496.235	16324.56
496.605	16408.17
496.974	16471.22
497.344	16698.33
497.713	16795.28
498.082	16801.38
498.452	16956.86
498.821	17048.15
499.19	17006.35
499.559	17299.22
499.928	17436.62
500.298	17404.3
500.667	17599.1
501.036	17593.22
501.405	17787.8
501.774	17802.94
502.143	17885.42
502.512	18031.63
502.88	18155.69
503.249	18197.28
503.618	18352.3
503.987	18233.88
504.356	18501.22
504.724	18500.32
505.093	18571.05
505.462	18610.15
505.83	18852.63
506.199	18915.45
506.567	19276.8
506.936	19055.56
507.304	19321.31
507.672	19447.86
508.041	19410.8
508.409	19568.99
508.777	19660.74
509.145	19902.54
509.514	19814.86
509.882	20071.35
510.25	20032.26
510.618	20140.73
510.986	20305.69
511.354	20363.77
511.722	20581.85
512.09	20732.12
512.458	20773.03
512.826	20905.45
513.193	20940.48
513.561	21051.21
513.929	21136.41
514.297	21384.31
514.664	21433.12
515.032	21638.77
515.4	21750.85
515.767	21792.66
516.135	21899.1
516.502	21710.63
516.869	22169.37
517.237	22312.2
517.604	22229.03
517.972	22555.58
518.339	22704.05
518.706	22681.45
519.073	22857.49
519.44	22915.8
519.808	23095
520.175	23126.41
520.542	23450.02
520.909	23568.66
521.276	23679.39
521.643	23890.23
522.009	23990.8
522.376	24105.14
522.743	24233.05
523.11	24587.16
523.477	24729.31
523.843	24781.51
524.21	25048.4
524.577	25047.04
524.943	25285
525.31	25442.96
525.676	25694.25
526.043	25745.1
526.409	25875.49
526.776	26261.92
527.142	26298.08
527.508	26411.3
527.874	26528.58
528.241	26779.42
528.607	26871.17
528.973	27079.53
529.339	27056.7
529.705	27297.38
530.071	27531.95
530.437	27599.29
530.803	27661.43
531.169	27841.32
531.535	27886.74
531.901	27899.62
532.267	28048.32
532.632	28305.26
532.998	28294.86
533.364	28425.93
533.73	28491.47
534.095	28848.52
534.461	28630.67
534.826	28832.25
535.192	28897.56
535.557	29010.1
535.923	29108.85
536.288	29130.55
536.653	29261.84
537.019	29142.75
537.384	29311.56
537.749	29290.09
538.114	29442.86
538.479	29285.35
538.845	29422.74
539.21	29433.59
539.575	29355.17
539.94	29521.95
540.305	29547.26
540.67	29547.71
541.034	29740.93
541.399	29779.34
541.764	29735.28
542.129	29808.5
542.494	29888.49
542.858	29990.64
543.223	29892.79
543.587	29895.95
543.952	29855.05
544.316	30018.89
544.681	29909.74
545.045	30213.91
545.41	30170.29
545.774	29914.93
546.138	29987.02
546.503	30081.94
546.867	30079.45
547.231	30343.4
547.595	30259.33
547.959	30149.96
548.324	30116.06
548.688	30180.01
549.052	30221.37
549.416	30230.41
549.779	30290.74
550.143	30167.58
550.507	30340.23
550.871	30327.8
551.235	30288.71
551.599	30539.55
551.962	30433.56
552.326	30483.28
552.689	30492.55
553.053	30270.4
553.417	30358.99
553.78	30684.63
554.143	30589.49
554.507	30585.65
554.87	30653.67
555.234	30824.29
555.597	30552.66
555.96	30790.16
556.323	30781.13
556.686	30712.2
557.05	30938.86
557.413	30932.99
557.776	30876.94
558.139	31077.16
558.502	31104.73
558.865	31013.44
559.228	31221.79
559.59	31168.01
559.953	31156.71
560.316	31495.46
560.679	31418.4
561.041	31528.22
561.404	31616.81
561.767	31824.26
562.129	31617.26
562.492	31817.71
562.854	31792.4
563.217	31785.17
563.579	31846.41
563.941	32013.64
564.304	32155.78
564.666	32357.13
565.028	32229.68
565.39	32385.15
565.753	32536.33
566.115	32483.23
566.477	32602.09
566.839	32609.78
567.201	32948.75
567.563	32861.52
567.925	32999.82
568.287	33046.15
568.648	33064
569.01	33119.14
569.372	33467.83
569.734	33444.11
570.095	33633.93
570.457	33731.33
570.819	33591.67
571.18	33680.26
571.542	33908.95
571.903	33900.37
572.265	34151.88
572.626	34226.91
572.987	34203.86
573.349	34502.84
573.71	34459.9
574.071	34665.32
574.432	34829.38
574.794	35053.78
575.155	35079.77
575.516	34991.18
575.877	35056.72
576.238	35100.79
576.599	35292.65
576.96	35332.42
577.32	35410.61
577.681	35455.81
578.042	35520.89
578.403	35622.58
578.763	35682.92
579.124	35655.35
579.485	35969.24
579.845	36038.84
580.206	35959.52
580.566	36011.04
580.927	35938.73
581.287	36273.64
581.648	36011.95
582.008	36390.47
582.368	36232.51
582.728	36284.26
583.089	36463.24
583.449	36458.72
583.809	36389.79
584.169	36608.09
584.529	36574.87
584.889	36816.67
585.249	36594.53
585.609	36531.48
585.969	36926.95
586.329	36849.67
586.688	36881.08
587.048	36978.25
587.408	36956.33
587.768	36982.32
588.127	37102.32
588.487	37189.32
588.846	37227.28
589.206	36959.04
589.565	37089.66
589.925	37403.55
590.284	37272.25
590.643	37370.56
591.003	37453.04
591.362	37537.78
591.721	37551.34
592.08	37623.66
592.44	37785.69
592.799	37582.08
593.158	37791.56
593.517	37594.96
593.876	37843.09
594.235	37812.13
594.593	37954.5
594.952	38038.56
595.311	37948.39
595.67	38044.21
596.029	38246.47
596.387	38318.78
596.746	38412.11
597.104	38183.42
597.463	38267.71
597.822	38544.09
598.18	38370.53
598.538	38572.33
598.897	38676.74
599.255	38523.07
599.613	39033.11
599.972	38791.99
600.33	38876.05
600.688	38850.52
601.046	38843.96
601.404	39173.67
601.762	39146.78
602.12	39259.77
602.478	39268.36
602.836	39357.4
603.194	39146.33
603.552	39246.21
603.91	39229.72
604.268	39565.3
604.625	39214.8
604.983	39688.69
605.341	39454.8
605.698	39749.03
606.056	40080.77
606.413	39722.36
606.771	40015.46
607.128	39997.38
607.485	39840.1
607.843	39945.18
608.2	40163.93
608.557	40309.01
608.914	40254.77
609.272	40396.47
609.629	40624.26
609.986	40725.27
610.343	40673.07
610.7	40957.13
611.057	40806.17
611.414	40754.2
611.771	41116.45
612.127	41142.89
612.484	41158.48
612.841	41274.64
613.198	41140.4
613.554	41174.52
613.911	41456.78
614.267	41416.78
614.624	41488.87
614.98	41647.51
615.337	41775.41
615.693	41709.88
616.05	41777.22
616.406	42035.29
616.762	41833.94
617.118	41935.86
617.475	41777.67
617.831	42133.14
618.187	42113.71
618.543	42139.25
618.899	42542.17
619.255	42497.65
619.611	42386.47
619.967	42493.36
620.323	42813.13
620.678	42568.84
621.034	42560.93
621.39	42562.74
621.746	42445.9
622.101	43019.22
622.457	42654.03
622.812	42875.27
623.168	43018.77
623.523	42830.07
623.879	43063.29
624.234	42706.24
624.589	42911.65
624.945	42915.95
625.3	42977.87
625.655	43032.55
626.01	43001.14
626.365	43155.49
626.72	42958.88
627.075	43073.01
627.43	43067.36
627.785	43023.97
628.14	43107.58
628.495	43060.35
628.85	43131.76
629.205	42950.75
629.559	43249.05
629.914	43117.07
630.269	43038.43
630.623	42812.9
630.978	42869.4
631.332	43101.48
631.687	43082.27
632.041	43058.54
632.396	42922.05
632.75	42810.64
633.104	42985.55
633.459	42757.53
633.813	42790.98
634.167	42612.23
634.521	42798.89
634.875	42759.12
635.229	42706.69
635.583	42378.11
635.937	42453.81
636.291	42491.78
636.645	42508.95
636.999	42197.77
637.352	42352.12
637.706	42258.56
638.06	42382.63
638.413	42299.92
638.767	42136.76
639.121	42207.04
639.474	42162.07
639.828	42019.93
640.181	41998.91
640.534	42121.84
640.888	41849.54
641.241	41665.36
641.594	41858.57
641.947	42050.89
642.301	41821.97
642.654	41762.31
643.007	41779.71
643.36	41796.43
643.713	41712.14
644.066	41857.22
644.419	41532.71
644.771	41166.16
645.124	40833.29
645.477	40887.98
645.83	40742.45
646.182	40637.82
646.535	40499.06
646.888	40750.81
647.24	40591.04
647.593	40833.52
647.945	40605.73
648.298	40592.39
648.65	40462.68
649.002	40460.87
649.355	40354.89
649.707	40208.9
650.059	40404.15
650.411	40858.6
650.763	41013.17
651.115	41628.07
651.467	41440.73
651.819	41578.81
652.171	41299.49
652.523	41201.64
652.875	41299.95
653.227	41314.41
653.578	41542.65
653.93	41346.95
654.282	41232.6
654.633	41257.91
654.985	41417.91
655.337	41496.32
655.688	41364.35
656.039	41522.09
656.391	41181.53
656.742	41319.83
657.094	41351.47
657.445	41288.65
657.796	41382.65
658.147	41289.55
658.498	41409.77
658.849	41478.25
659.2	41373.39
659.551	41404.35
659.902	41692.48
660.253	41392.82
660.604	41520.73
660.955	41438.02
661.306	41683.21
661.656	41439.38
662.007	41500.39
662.358	41595.3
662.708	41675.75
663.059	41558.02
663.409	41548.07
663.76	41621.74
664.11	41671.46
664.461	41718.01
664.811	41727.05
665.161	41727.73
665.511	41659.03
665.862	41669.43
666.212	41769.76
666.562	41823.77
666.912	41777.67
667.262	41757.11
667.612	41806.82
667.962	41861.06
668.312	41604.57
668.662	42016.08
669.011	41768.18
669.361	41770.67
669.711	41852.92
670.06	41799.37
670.41	41733.61
670.76	41684.57
671.109	41888.86
671.459	41744.23
671.808	41623.33
672.157	41607.51
672.507	41481.41
672.856	41642.08
673.205	41659.26
673.554	41788.07
673.904	41655.87
674.253	41841.85
674.602	41567.51
674.951	40970.69
675.3	40890.01
675.649	41552.14
675.998	41509.66
676.346	41486.38
676.695	41522.76
677.044	41261.53
677.393	41318.25
677.741	41446.61
678.09	41313.73
678.438	41250.23
678.787	41229.66
679.135	41202.77
679.484	40938.37
679.832	41111.93
680.181	40932.05
680.529	41003
680.877	40778.38
681.225	40861.99
681.573	41036
681.922	40808.43
682.27	40637.14
682.618	40690.02
682.966	40582.9
683.314	40541.32
683.661	40443.02
684.009	40363.47
684.357	40171.16
684.705	40093.88
685.053	40144.04
685.4	39972.52
685.748	39922.35
686.095	39864.05
686.443	39721
686.79	39543.61
687.138	39590.84
687.485	39468.58
687.832	39402.37
688.18	39344.06
688.527	39241.02
688.874	39107.23
689.221	39068.37
689.568	38886.45
689.915	38836.73
690.262	38900.46
690.609	38608.72
690.956	38433.35
691.303	38537.08
691.65	38203.53
691.997	38224.09
692.344	37991.11
692.69	38011.44
693.037	37940.03
693.383	37432.48
693.73	37568.52
694.077	37341.18
694.423	37349.99
694.769	37131.47
695.116	37045.14
695.462	36938.48
695.808	36847.86
696.155	36982.32
696.501	36578.94
696.847	36530.13
697.193	36313.86
697.539	36378.04
697.885	36123.58
698.231	35987.54
698.577	35851.05
698.923	35788.9
699.269	35476.37
699.614	35371.74
699.96	35106.44
700.306	35264.62
700.651	35017.17
700.997	34888.14
701.342	34848.36
701.688	34752.09
702.033	34525.43
702.379	34568.6
702.724	34418.54
703.069	34293.58
703.415	34026.46
703.76	33953.92
704.105	33944.66
704.45	33791.67
704.795	33751.9
705.14	33421.73
705.485	33415.41
705.83	33059.94
706.175	33298.57
706.52	33151.01
706.865	32996.21
707.209	32859.49
707.554	32851.58
707.899	32789.89
708.243	32476.22
708.588	32554.64
708.932	32285.72
709.277	32437.81
709.621	32239.84
709.966	32199.39
710.31	32067.87
710.654	32048.89
710.998	31935.67
711.342	32067.42
711.687	31827.88
712.031	31783.36
712.375	31625.85
712.719	31558.96
713.063	31499.07
713.407	31619.97
713.75	31488.23
714.094	31516.47
714.438	31300.89
714.782	31330.49
715.125	31228.35
715.469	31344.5
715.812	31065.86
716.156	31099.76
716.499	31161.45
716.843	31129.14
717.186	30886.66
717.53	31054.11
717.873	31161.45
718.216	31045.75
718.559	30935.02
718.902	30830.39
719.246	30815.48
719.589	30769.83
719.932	30797.4
720.275	30877.39
720.617	30738.19
720.96	30697.96
721.303	30736.61
721.646	30893.44
721.989	30669.04
722.331	30781.58
722.674	30616.38
723.016	30663.84
723.359	30577.97
723.701	30791.29
724.044	30688.47
724.386	30455.26
724.729	30610.96
725.071	30763.27
725.413	30611.41
725.755	30694.8
726.097	30604.63
726.439	30393.57
726.782	30480.34
727.124	30732.09
727.465	30476.5
727.807	30429.5
728.149	30538.42
728.491	30557.4
728.833	30569.83
729.175	30706.33
729.516	30561.02
729.858	30700
730.199	30613.9
730.541	30663.39
730.882	30602.37
731.224	30678.53
731.565	30604.63
731.906	30803.05
732.248	30678.98
732.589	30685.53
732.93	30731.18
733.271	30786.78
733.612	30786.1
733.953	30917.17
734.294	30841.92
734.635	30855.25
734.976	30925.08
735.317	31010.95
735.658	30925.98
735.999	30765.31
736.339	31135.69
736.68	31058.86
737.021	31098.86
737.361	30923.04
737.702	31231.96
738.042	31288.46
738.383	31224.05
738.723	31472.18
739.063	31313.99
739.404	31492.52
739.744	31516.02
740.084	31475.34
740.424	31566.64
740.764	31500.43
741.104	31783.81
741.444	31739.52
741.784	31692.74
742.124	31937.25
742.464	31987.65
742.804	32058.83
743.143	32101.99
743.483	32123.24
743.823	32167.76
744.162	32166.4
744.502	32394.19
744.841	32383.12
745.181	32664.47
745.52	32713.96
745.86	32897.23
746.199	32912.37
746.538	33040.28
746.877	33266.48
747.216	33231.23
747.556	33353.26
747.895	33520.94
748.234	33480.49
748.573	33646.81
748.911	33672.12
749.25	33965.45
749.589	33949.18
749.928	34218.32
750.267	34296.51
750.605	34321.15
750.944	34503.06
751.283	34528.37
751.621	34807.46
751.96	34745.09
752.298	34889.72
752.636	35036.38
752.975	35165.87
