Data from 277_FLMS001491_004.txt Node
Date: Thu Apr 19 16:45:04 BST 2018
User: hsy
Spectrometer: FLMS00149
Trigger mode: 0
Integration Time (sec): 1.000000E-2
Scans to average: 10
Electric dark correction enabled: true
Nonlinearity correction enabled: false
Boxcar width: 0
XAxis mode: Wavelengths
Number of Pixels in Spectrum: 2048
>>>>>Begin Spectral Data<<<<<
341.393	-26.71
341.776	-26.71
342.16	-26.71
342.543	-65.35
342.927	-53.15
343.31	-69.87
343.693	-73.49
344.077	-64.45
344.46	-72.81
344.843	-32.13
345.226	-36.88
345.61	-26.71
345.993	-33.04
346.376	3.35
346.759	18.49
347.142	32.27
347.525	39.28
347.908	48.32
348.291	74.76
348.674	78.83
349.057	114.08
349.44	114.98
349.823	134.64
350.206	167.64
350.588	232.04
350.971	251.25
351.354	274.07
351.737	267.07
352.119	281.76
352.502	294.87
352.884	319.5
353.267	319.5
353.65	305.71
354.032	349.1
354.414	334.19
354.797	336.45
355.179	331.47
355.562	329.44
355.944	375.09
356.326	372.15
356.709	384.35
357.091	382.32
357.473	347.97
357.855	370.34
358.238	365.6
358.62	382.32
359.002	406.5
359.384	368.08
359.766	380.96
360.148	361.08
360.53	383.68
360.912	368.99
361.294	382.09
361.676	390.91
362.057	367.18
362.439	361.08
362.821	384.13
363.203	345.49
363.584	375.31
363.966	362.43
364.348	364.69
364.729	373.06
365.111	354.3
365.493	342.32
365.874	357.46
366.256	369.89
366.637	367.63
367.019	361.3
367.4	359.5
367.781	361.08
368.163	366.28
368.544	365.6
368.925	375.09
369.306	360.17
369.688	374.19
370.069	378.03
370.45	382.55
370.831	359.27
371.212	355.88
371.593	352.72
371.974	375.09
372.355	353.62
372.736	370.12
373.117	383.45
373.498	370.34
373.879	358.82
374.26	347.52
374.641	390
375.021	379.83
375.402	351.13
375.783	407.4
376.163	392.72
376.544	389.33
376.925	396.33
377.305	394.3
377.686	392.26
378.066	412.83
378.447	404.47
378.827	393.17
379.208	393.39
379.588	402.88
379.968	406.05
380.349	397.01
380.729	410.12
381.109	416.22
381.489	431.13
381.87	417.8
382.25	415.99
382.63	423.45
383.01	444.24
383.39	423
383.77	434.52
384.15	427.97
384.53	428.87
384.91	437.46
385.29	437.91
385.67	446.5
386.049	456.89
386.429	466.39
386.809	467.29
387.189	466.16
387.568	447.63
387.948	465.93
388.328	464.58
388.707	488.31
389.087	498.25
389.466	481.75
389.846	481.3
390.225	483.33
390.605	510.68
390.984	496.44
391.363	517.91
391.743	501.19
392.122	522.88
392.501	522.2
392.881	528.53
393.26	556.78
393.639	556.1
394.018	548.42
394.397	520.85
394.776	554.75
395.155	543.9
395.534	589.77
395.913	568.08
396.292	571.02
396.671	574.86
397.05	566.04
397.429	575.31
397.808	583.67
398.186	572.6
398.565	616.66
398.944	609.43
399.323	606.95
399.701	572.6
400.08	608.53
400.458	620.05
400.837	631.35
401.215	638.13
401.594	638.36
401.972	619.38
402.351	641.52
402.729	666.15
403.107	682.2
403.486	674.97
403.864	683.78
404.242	700.05
404.62	692.59
404.999	726.94
405.377	725.36
405.755	716.32
406.133	756.1
406.511	752.93
406.889	765.14
407.267	815.53
407.645	812.37
408.023	822.53
408.401	817.34
408.779	848.07
409.156	850.33
409.534	863.21
409.912	880.84
410.29	924.68
410.667	940.5
411.045	912.48
411.422	957.9
411.8	956.99
412.178	1015.3
412.555	1018.69
412.933	1033.83
413.31	1067.95
413.687	1061.85
414.065	1086.93
414.442	1090.1
414.819	1116.99
415.197	1126.03
415.574	1181.4
415.951	1175.52
416.328	1191.11
416.705	1195.63
417.082	1208.74
417.46	1194.95
417.837	1248.74
418.214	1238.34
418.591	1273.6
418.967	1277.89
419.344	1318.12
419.721	1329.64
420.098	1336.42
420.475	1342.75
420.852	1358.57
421.228	1384.55
421.605	1391.56
421.982	1425
422.358	1410.99
422.735	1465.46
423.111	1452.8
423.488	1502.74
423.864	1494.83
424.241	1548.39
424.617	1531.89
424.994	1548.39
425.37	1585.9
425.746	1627.49
426.123	1609.86
426.499	1649.18
426.875	1676.07
427.251	1719.69
427.627	1736.86
428.003	1736.64
428.379	1766.69
428.756	1809.18
429.132	1825.22
429.507	1856.63
429.883	1885.78
430.259	1880.36
430.635	1941.15
431.011	1957.87
431.387	2000.36
431.763	1989.74
432.138	2015.5
432.514	2059.11
432.89	2063.63
433.265	2163.97
433.641	2201.26
434.016	2155.83
434.392	2214.36
434.767	2266.34
435.143	2276.06
435.518	2361.25
435.894	2345.88
436.269	2387.01
436.644	2427.69
437.02	2451.64
437.395	2457.97
437.77	2523.51
438.145	2528.25
438.52	2551.53
438.895	2615.71
439.271	2611.41
439.646	2681.47
440.021	2714.46
440.395	2692.77
440.77	2716.95
441.145	2751.98
441.52	2770.96
441.895	2811.18
442.27	2838.98
442.645	2819.32
443.019	2862.93
443.394	2878.75
443.769	2869.26
444.143	2924.85
444.518	2971.18
444.892	2964.63
445.267	2972.31
445.641	3017.51
446.016	3041.46
446.39	3049.82
446.764	3096.15
447.139	3070.84
447.513	3112.87
447.887	3139.76
448.262	3135.69
448.636	3181.57
449.01	3229.25
449.384	3269.25
449.758	3260.21
450.132	3302.92
450.506	3334.11
450.88	3378.63
451.254	3370.72
451.628	3441.9
452.002	3486.87
452.376	3518.28
452.75	3563.71
453.123	3536.36
453.497	3617.72
453.871	3674.44
454.244	3760.99
454.618	3767.09
454.992	3838.27
455.365	3856.81
455.739	3951.49
456.112	3966.41
456.486	4037.37
456.859	4016.8
457.232	4097.7
457.606	4137.25
457.979	4241.88
458.352	4340.86
458.725	4326.17
459.099	4383.35
459.472	4455.21
459.845	4497.01
460.218	4536.34
460.591	4599.61
460.964	4607.75
461.337	4708.08
461.71	4779.27
462.083	4837.12
462.456	4877.8
462.829	4938.58
463.201	5031.69
463.574	5020.62
463.947	5055.87
464.32	5171.35
464.692	5237.79
465.065	5276.2
465.438	5317.78
465.81	5424.67
466.183	5419.25
466.555	5585.57
466.928	5608.62
467.3	5645.68
467.672	5719.81
468.045	5887.03
468.417	5875.51
468.789	5918.9
469.161	6028.05
469.534	6088.61
469.906	6228.49
470.278	6275.5
470.65	6349.62
471.022	6423.29
471.394	6505.1
471.766	6601.59
472.138	6673.68
472.51	6814.02
472.882	6837.74
473.253	6943.5
473.625	7002.03
473.997	7209.71
474.369	7227.79
474.74	7309.14
475.112	7462.59
475.484	7601.79
475.855	7653.32
476.227	7731.05
476.598	8013.76
476.97	8023.25
477.341	8197.93
477.713	8339.63
478.084	8432.5
478.455	8605.83
478.827	8645.15
479.198	8931.47
479.569	8962.66
479.94	9159.94
480.311	9310.22
480.682	9415.76
481.053	9674.73
481.424	9791.11
481.795	9856.2
482.166	10125.57
482.537	10203.31
482.908	10392.45
483.279	10498.21
483.65	10712.44
484.021	10842.61
484.391	10948.6
484.762	11086.67
485.133	11237.63
485.503	11408.25
485.874	11645.08
486.244	11718.52
486.615	11945.41
486.985	12050.04
487.356	12337.49
487.726	12450.7
488.097	12739.28
488.467	12782.67
488.837	12914.87
489.207	13086.39
489.578	13372.49
489.948	13436.89
490.318	13663.78
490.688	13719.14
491.058	13925.92
491.428	14092.24
491.798	14229.64
492.168	14487.94
492.538	14559.57
492.908	14629.4
493.278	14813.81
493.648	14918.66
494.017	15192.78
494.387	15199.33
494.757	15357.29
495.126	15475.48
495.496	15579.21
495.866	15658.53
496.235	15755.7
496.605	15955.47
496.974	15988.92
497.344	16190.94
497.713	16263.26
498.082	16449.92
498.452	16559.97
498.821	16647.43
499.19	16651.05
499.559	16848.1
499.928	16936.91
500.298	16988.44
500.667	17211.48
501.036	17152.95
501.405	17308.66
501.774	17344.59
502.143	17397.01
502.512	17540.51
502.88	17645.14
503.249	17736.44
503.618	17804.69
503.987	17893.72
504.356	17932.82
504.724	18170.33
505.093	18054.85
505.462	18220.72
505.83	18356.31
506.199	18430.43
506.567	18684.66
506.936	18626.13
507.304	18863.42
507.672	18818.45
508.041	19009.18
508.409	19094.6
508.777	19267.47
509.145	19416.62
509.514	19394.25
509.882	19487.35
510.25	19598.31
510.618	19638.09
510.986	19755.14
511.354	19885.76
511.722	20055.48
512.09	20281.23
512.458	20163.95
512.826	20273.55
513.193	20410.27
513.561	20465.63
513.929	20606.87
514.297	20772.52
514.664	20882.57
515.032	21060.87
515.4	21149.91
515.767	21204.15
516.135	21359.4
516.502	21208.89
516.869	21541.54
517.237	21745.83
517.604	21590.12
517.972	21947.4
518.339	22022.2
518.706	22006.16
519.073	22132.71
519.44	22204.8
519.808	22489.76
520.175	22538.35
520.542	22755.07
520.909	22865.35
521.276	22887.94
521.643	23192.57
522.009	23254.49
522.376	23615.61
522.743	23555.95
523.11	23734.93
523.477	24040.23
523.843	24065.31
524.21	24302.14
524.577	24514.57
524.943	24661
525.31	24677.5
525.676	24934.9
526.043	25115
526.409	25201.1
526.776	25462.34
527.142	25492.39
527.508	25569.23
527.874	25743.69
528.241	25889.45
528.607	25922.89
528.973	26322.66
529.339	26259.15
529.705	26583.44
530.071	26685.58
530.437	26850.55
530.803	26843.77
531.169	27154.27
531.535	26989.98
531.901	27183.65
532.267	27237.89
532.632	27519.69
532.998	27511.78
533.364	27608.27
533.73	27667.25
534.095	27867.25
534.461	27915.61
534.826	27903.18
535.192	28042.38
535.557	28319.66
535.923	28245.99
536.288	28283.06
536.653	28508.59
537.019	28375.93
537.384	28457.29
537.749	28454.35
538.114	28514.69
538.479	28655.93
538.845	28555.82
539.21	28585.19
539.575	28754.91
539.94	28808.92
540.305	28789.94
540.67	28718.52
541.034	28841.91
541.399	28867
541.764	28878.75
542.129	28971.4
542.494	29016.37
542.858	29153.32
543.223	28882.81
543.587	29159.19
543.952	29022.92
544.316	29047.78
544.681	29113.99
545.045	29210.94
545.41	29251.17
545.774	29190.38
546.138	29240.54
546.503	29234.9
546.867	29256.14
547.231	29485.51
547.595	29420.43
547.959	29447.54
548.324	29406.87
548.688	29390.37
549.052	29404.61
549.416	29371.39
549.779	29472.63
550.143	29415.23
550.507	29522.35
550.871	29553.98
551.235	29587.65
551.599	29565.96
551.962	29577.94
552.326	29666.75
552.689	29606.18
553.053	29509.46
553.417	29621.55
553.78	29743.13
554.143	29810.25
554.507	29753.07
554.87	29737.48
555.234	30034.2
555.597	29707.65
555.96	29891.6
556.323	29915.33
556.686	29976.57
557.05	30097.47
557.413	30093.18
557.776	29936.57
558.139	30219.28
558.502	30104.25
558.865	30211.82
559.228	30351.25
559.59	30186.28
559.953	30317.58
560.316	30539.95
560.679	30455.88
561.041	30537.91
561.404	30664.69
561.767	30800.28
562.129	30646.38
562.492	30892.93
562.854	30920.73
563.217	30814.51
563.579	30900.84
563.941	31104
564.304	31225.58
564.666	31416.31
565.028	31299.47
565.39	31431.45
565.753	31550.77
566.115	31490.66
566.477	31631.67
566.839	31722.74
567.201	32058.55
567.563	31905.11
567.925	32027.82
568.287	32049.28
568.648	32095.38
569.01	32269.39
569.372	32467.13
569.734	32395.72
570.095	32556.16
570.457	32696.27
570.819	32752.99
571.18	32731.98
571.542	32959.99
571.903	33048.58
572.265	33123.15
572.626	33253.77
572.987	33239.31
573.349	33349.14
573.71	33446.76
574.071	33551.84
574.432	33638.62
574.794	33861.21
575.155	33895.56
575.516	33838.84
575.877	33891.27
576.238	33975.11
576.599	34079.74
576.96	34061.43
577.32	34249
577.681	34211.49
578.042	34542.33
578.403	34537.13
578.763	34590.23
579.124	34534.42
579.485	34724.92
579.845	34839.95
580.206	34857.8
580.566	34770.34
580.927	34952.03
581.287	34949.77
581.648	35132.37
582.008	35241.97
582.368	35153.84
582.728	35158.13
583.089	35237.45
583.449	35293.27
583.809	35342.31
584.169	35493.49
584.529	35363.32
584.889	35740.49
585.249	35517.89
585.609	35508.63
585.969	35715.85
586.329	35688.96
586.688	35874.04
587.048	35702.07
587.408	35851.67
587.768	35882.86
588.127	36021.16
588.487	36033.36
588.846	36227.48
589.206	35998.11
589.565	36085.56
589.925	36483.52
590.284	36310.42
590.643	36429.96
591.003	36486.46
591.362	36696.85
591.721	36483.97
592.08	36582.05
592.44	36758.99
592.799	36663.17
593.158	36763.06
593.517	36739.33
593.876	36810.74
594.235	36819.78
594.593	36921.02
594.952	37027.23
595.311	37090.73
595.67	37243.72
596.029	37256.61
596.387	37448.69
596.746	37466.54
597.104	37389.93
597.463	37452.98
597.822	37654.56
598.18	37517.84
598.538	37582.92
598.897	37853.43
599.255	37603.71
599.613	38139.52
599.972	37924.38
600.33	37920.77
600.688	37965.51
601.046	38038.28
601.404	38376.35
601.762	38215.9
602.12	38380.87
602.478	38453.41
602.836	38546.06
603.194	38416.57
603.552	38454.31
603.91	38509.23
604.268	38605.27
604.625	38544.71
604.983	38835.77
605.341	38690.92
605.698	38946.96
606.056	39190.57
606.413	38955.77
606.771	39157.57
607.128	39237.12
607.485	39089.55
607.843	39253.84
608.2	39449.32
608.557	39670.1
608.914	39508.3
609.272	39678.24
609.629	39818.35
609.986	39967.04
610.343	39754.39
610.7	40135.4
611.057	40100.37
611.414	40045.68
611.771	40272.35
612.127	40374.94
612.484	40263.53
612.841	40489.29
613.198	40387.14
613.554	40395.51
613.911	40715.05
614.267	40798.21
614.624	40697.87
614.98	40801.37
615.337	41023.74
615.693	40996.62
616.05	40940.35
616.406	41204.75
616.762	41169.72
617.118	41043.85
617.475	41182.83
617.831	41441.81
618.187	41444.74
618.543	41503.95
618.899	41631.63
619.255	41564.97
619.611	41602.25
619.967	41803.6
620.323	41957.05
620.678	41785.75
621.034	41804.73
621.39	41756.37
621.746	41760.67
622.101	42357.26
622.457	42015.8
622.812	42117.49
623.168	42134.22
623.523	42163.14
623.879	42376.7
624.234	42128.57
624.589	42277.94
624.945	42336.25
625.3	42369.01
625.655	42337.15
626.01	42332.63
626.365	42417.83
626.72	42490.82
627.075	42251.73
627.43	42325.62
627.785	42371.27
628.14	42314.33
628.495	42339.41
628.85	42466.64
629.205	42152.3
629.559	42371.27
629.914	42271.84
630.269	42310.48
630.623	42091.96
630.978	42100.55
631.332	42229.58
631.687	42284.95
632.041	42226.19
632.396	42174.44
632.75	42233.42
633.104	42050.6
633.459	41997.72
633.813	41996.37
634.167	41982.36
634.521	41956.59
634.875	41868.46
635.229	41877.95
635.583	41685.64
635.937	41663.04
636.291	41812.64
636.645	41753.21
636.999	41602.48
637.352	41822.59
637.706	41492.43
638.06	41664.17
638.413	41521.35
638.767	41296.72
639.121	41458.53
639.474	41445.87
639.828	41390.28
640.181	41335.14
640.534	41412.43
640.888	41250.85
641.241	40997.98
641.594	41070.52
641.947	41263.28
642.301	41101.93
642.654	41216.73
643.007	41163.4
643.36	41162.72
643.713	41049.27
644.066	41266.67
644.419	41042.95
644.771	40711.43
645.124	40370.65
645.477	40384.21
645.83	40180.6
646.182	40026.48
646.535	40001.39
646.888	40152.8
647.24	40053.37
647.593	40308.28
647.945	40266.24
648.298	39958.91
648.65	40033.71
649.002	39885.69
649.355	39810.89
649.707	39661.74
650.059	39809.76
650.411	40286.81
650.763	40407.26
651.115	40956.62
651.467	40741.03
651.819	40777.64
652.171	40816.29
652.523	40692.67
652.875	40764.08
653.227	40496.07
653.578	40829.17
653.93	40822.39
654.282	40590.3
654.633	40671.88
654.985	40756.4
655.337	40805.44
655.688	40802.27
656.039	40917.53
656.391	40677.31
656.742	40636.86
657.094	40679.11
657.445	40761.6
657.796	40950.97
658.147	40709.62
658.498	40715.27
658.849	40934.93
659.2	40852.89
659.551	40658.78
659.902	41061.48
660.253	40943.29
660.604	41175.15
660.955	40855.38
661.306	41077.97
661.656	40927.02
662.007	40990.07
662.358	40877.3
662.708	40930.63
663.059	40946.45
663.409	40859
663.76	41195.71
664.11	41098.54
664.461	41109.61
664.811	41160.91
665.161	41266.22
665.511	41049.95
665.862	41004.08
666.212	41285.65
666.562	41276.16
666.912	41127.69
667.262	41147.58
667.612	41098.31
667.962	41162.04
668.312	41115.71
668.662	41310.74
669.011	41389.83
669.361	41207.69
669.711	41242.49
670.06	41097.41
670.41	41019.67
670.76	40975.15
671.109	41275.71
671.459	41183.96
671.808	41169.5
672.157	41169.5
672.507	40838.43
672.856	41034.13
673.205	41091.08
673.554	40994.81
673.904	40875.94
674.253	41109.39
674.602	40950.29
674.951	40389.86
675.3	40276.86
675.649	40927.02
675.998	40836.85
676.346	40889.05
676.695	41012.44
677.044	40717.08
677.393	40858.32
677.741	40867.81
678.09	40764.76
678.438	40676.4
678.787	40620.36
679.135	40677.76
679.484	40335.85
679.832	40603.86
680.181	40364.55
680.529	40492.9
680.877	40360.03
681.225	40419.91
681.573	40529.29
681.922	40229.86
682.27	40043.65
682.618	40068.06
682.966	40046.14
683.314	39986.7
683.661	40074.61
684.009	39782.87
684.357	39532.25
684.705	39629.42
685.053	39737.44
685.4	39367.28
685.748	39445.7
686.095	39340.39
686.443	38947.63
686.79	38991.47
687.138	39065.15
687.485	39029.89
687.832	38801.42
688.18	38858.14
688.527	38507.42
688.874	38472.17
689.221	38416.12
689.568	38250.93
689.915	38196.47
690.262	38069.92
690.609	38094.78
690.956	37962.58
691.303	37924.38
691.65	37786.99
691.997	37466.54
692.344	37379.54
692.69	37363.04
693.037	37430.61
693.383	36962.15
693.73	37187.23
694.077	36794.02
694.423	36923.96
694.769	36551.54
695.116	36547.47
695.462	36415.27
695.808	36331.88
696.155	36264.99
696.501	35985.9
696.847	35954.49
697.193	35714.27
697.539	35723.09
697.885	35597.44
698.231	35309.76
698.577	35252.82
698.923	35219.14
699.269	34828.65
699.614	34690.57
699.96	34680.63
700.306	34708.88
700.651	34476.79
700.997	34351.14
701.342	34187.31
701.688	34087.2
702.033	34048.78
702.379	33967.43
702.724	33802.01
703.069	33822.8
703.415	33523.82
703.76	33429.36
704.105	33491.28
704.45	33155.47
704.795	33019.65
705.14	32996.15
705.485	32958.41
705.83	32734.24
706.175	32826.21
706.52	32593.22
706.865	32410.86
707.209	32362.72
707.554	32389.61
707.899	32238.88
708.243	32265.1
708.588	32042.28
708.932	31889.51
709.277	31864.66
709.621	31682.97
709.966	31677.32
710.31	31664.44
710.654	31405.46
710.998	31504.21
711.342	31572.01
711.687	31320.72
712.031	31197.56
712.375	31099.7
712.719	31106.48
713.063	30988.75
713.407	31097.9
713.75	31063.77
714.094	30995.98
714.438	30773.84
714.782	30922.53
715.125	30668.08
715.469	30871.01
715.812	30616.33
716.156	30414.53
716.499	30456.33
716.843	30692.71
717.186	30273.29
717.53	30569.55
717.873	30658.36
718.216	30507.86
718.559	30368.65
718.902	30200.29
719.246	30293.85
719.589	30338.14
719.932	30149.9
720.275	30209.56
720.617	30182.44
720.96	30257.92
721.303	30157.36
721.646	30283.68
721.989	30117.36
722.331	30144.7
722.674	30198.94
723.016	30181.54
723.359	30070.13
723.701	30080.3
724.044	29981.54
724.386	29891.38
724.729	30112.16
725.071	30078.26
725.413	30104.7
725.755	30062.22
726.097	29945.38
726.439	29898.83
726.782	29939.51
727.124	30078.71
727.465	30083.69
727.807	29940.87
728.149	30088.66
728.491	29896.35
728.833	30089.56
729.175	30038.26
729.516	30074.87
729.858	30010.24
730.199	30089.11
730.541	30018.83
730.882	29958.72
731.224	30143.35
731.565	30136.57
731.906	30290.23
732.248	30089.56
732.589	29995.33
732.93	30122.33
733.271	30198.49
733.612	30233.51
733.953	30303.79
734.294	30344.02
734.635	30360.97
734.976	30351.02
735.317	30336.11
735.658	30206.4
735.999	30276.22
736.339	30374.53
736.68	30429.44
737.021	30552.6
737.361	30430.8
737.702	30745.82
738.042	30657.46
738.383	30709.43
738.723	30878.02
739.063	30807.74
739.404	30912.14
739.744	30987.39
740.084	30988.07
740.424	31042.31
740.764	31118.01
741.104	31239.59
741.444	31205.92
741.784	31182.64
742.124	31412.69
742.464	31454.5
742.804	31478
743.143	31595.29
743.483	31815.62
743.823	31668.96
744.162	31718.45
744.502	31934.49
744.841	31887.93
745.181	32266.91
745.52	32217.64
745.86	32239.56
746.199	32508.93
746.538	32505.32
746.877	32720.91
747.216	32838.19
747.556	32914.57
747.895	33011.74
748.234	33108.01
748.573	33174.23
748.911	33310.04
749.25	33471.39
749.589	33418.06
749.928	33699.64
750.267	33942.57
750.605	33963.13
750.944	34018.27
751.283	34120.64
751.621	34385.95
751.96	34231.6
752.298	34664.36
752.636	34657.58
752.975	34709.1
753.313	34942.09
