Data from 277_FLMS001491_010.txt Node
Date: Thu Apr 19 16:45:18 BST 2018
User: hsy
Spectrometer: FLMS00149
Trigger mode: 0
Integration Time (sec): 1.000000E-2
Scans to average: 10
Electric dark correction enabled: true
Nonlinearity correction enabled: false
Boxcar width: 0
XAxis mode: Wavelengths
Number of Pixels in Spectrum: 2048
>>>>>Begin Spectral Data<<<<<
341.393	-25.88
341.776	-25.88
342.16	-25.88
342.543	-72.2
342.927	-59.32
343.31	-73.56
343.693	-62.26
344.077	-67.46
344.46	-51.41
344.843	-42.82
345.226	-70.39
345.61	-19.1
345.993	-26.78
346.376	-9.38
346.759	5.31
347.142	15.25
347.525	47.8
347.908	75.37
348.291	83.73
348.674	83.05
349.057	112.65
349.44	135.48
349.823	146.55
350.206	185.87
350.588	218.64
350.971	245.53
351.354	275.36
351.737	272.2
352.119	281.91
352.502	300.44
352.884	312.2
353.267	321.69
353.65	314.68
354.032	340.89
354.414	339.54
354.797	356.49
355.179	358.75
355.562	357.84
355.944	356.26
356.326	367.33
356.709	352.65
357.091	375.02
357.473	376.6
357.855	376.6
358.238	392.42
358.62	392.19
359.002	377.28
359.384	373.66
359.766	387.22
360.148	393.32
360.53	398.75
360.912	375.24
361.294	403.27
361.676	379.09
362.057	366.66
362.439	367.56
362.821	385.64
363.203	362.59
363.584	382.93
363.966	380.67
364.348	381.12
364.729	371.85
365.111	374.79
365.493	360.33
365.874	352.19
366.256	372.31
366.637	374.34
367.019	363.04
367.4	366.66
367.781	354.45
368.163	371.85
368.544	372.08
368.925	351.29
369.306	387
369.688	374.11
370.069	368.01
370.45	355.13
370.831	357.84
371.212	369.82
371.593	375.02
371.974	367.33
372.355	384.96
372.736	389.93
373.117	370.27
373.498	355.58
373.879	380.44
374.26	368.46
374.641	392.87
375.021	374.11
375.402	377.28
375.783	403.72
376.163	386.77
376.544	392.42
376.925	426.99
377.305	408.92
377.686	420.44
378.066	392.42
378.447	397.62
378.827	390.61
379.208	400.33
379.588	414.34
379.968	423.38
380.349	414.34
380.729	419.99
381.109	408.01
381.489	412.76
381.87	402.59
382.25	430.16
382.63	426.99
383.01	442.14
383.39	431.06
383.77	442.14
384.15	418.86
384.53	438.75
384.91	444.4
385.29	459.31
385.67	459.08
386.049	437.39
386.429	452.08
386.809	479.42
387.189	472.19
387.568	468.8
387.948	472.64
388.328	482.81
388.707	490.72
389.087	461.57
389.466	490.72
389.846	490.5
390.225	507.22
390.605	504.73
390.984	481.91
391.363	504.51
391.743	502.92
392.122	521.68
392.501	516.26
392.881	544.51
393.26	533.21
393.639	567.33
394.018	547.22
394.397	548.8
394.776	540.89
395.155	566.2
395.534	555.35
395.913	562.13
396.292	560.32
396.671	573.21
397.05	581.34
397.429	597.16
397.808	579.98
398.186	603.49
398.565	608.68
398.944	596.93
399.323	605.97
399.701	614.56
400.08	638.06
400.458	608.68
400.837	637.61
401.215	645.75
401.594	643.71
401.972	669.25
402.351	668.8
402.729	667.67
403.107	693.43
403.486	681
403.864	685.74
404.242	683.26
404.62	722.58
404.999	705.18
405.377	740.88
405.755	744.5
406.133	757.83
406.511	774.1
406.889	783.37
407.267	782.01
407.645	811.84
408.023	829.7
408.401	836.48
408.779	871.28
409.156	858.62
409.534	872.18
409.912	915.34
410.29	911.5
410.667	906.08
411.045	939.52
411.422	928.45
411.8	998.28
412.178	999.18
412.555	987.66
412.933	1016.36
413.31	1071.5
413.687	1061.78
414.065	1090.25
414.442	1096.13
414.819	1146.75
415.197	1134.77
415.574	1160.31
415.951	1181.55
416.328	1170.7
416.705	1204.15
417.082	1190.14
417.46	1235.11
417.837	1260.87
418.214	1267.88
418.591	1292.51
418.967	1315.11
419.344	1346.52
419.721	1370.47
420.098	1358.5
420.475	1368.89
420.852	1359.4
421.228	1400.98
421.605	1410.47
421.982	1464.26
422.358	1461.77
422.735	1477.14
423.111	1504.03
423.488	1519.62
423.864	1560.07
424.241	1563.24
424.617	1593.74
424.994	1626.06
425.37	1622.9
425.746	1621.31
426.123	1659.28
426.499	1677.58
426.875	1696.11
427.251	1770.69
427.627	1788.77
428.003	1786.28
428.379	1779.28
428.756	1839.61
429.132	1872.61
429.507	1888.65
429.883	1927.52
430.259	1934.75
430.635	1979.27
431.011	1970.23
431.387	2030.12
431.763	2062.66
432.138	2093.62
432.514	2102.43
432.89	2102.43
433.265	2200.06
433.641	2196.89
434.016	2226.27
434.392	2310.56
434.767	2346.49
435.143	2319.15
435.518	2381.52
435.894	2375.42
436.269	2431.69
436.644	2478.01
437.02	2492.7
437.395	2524.11
437.77	2579.71
438.145	2577.67
438.52	2586.26
438.895	2663.09
439.271	2695.18
439.646	2722.98
440.021	2748.52
440.395	2760.94
440.77	2741.06
441.145	2796.2
441.52	2856.99
441.895	2849.98
442.27	2861.73
442.645	2894.5
443.019	2942.18
443.394	2952.8
443.769	2945.8
444.143	2944.89
444.518	3028.51
444.892	3043.2
445.267	3098.34
445.641	3072.12
446.016	3110.77
446.39	3136.08
446.764	3168.39
447.139	3165.23
447.513	3184.89
447.887	3227.6
448.262	3193.48
448.636	3251.1
449.01	3284.77
449.384	3342.85
449.758	3376.75
450.132	3363.87
450.506	3451.55
450.88	3467.82
451.254	3407.71
451.628	3501.49
452.002	3563.41
452.376	3579.91
452.75	3680.02
453.123	3653.35
453.497	3743.74
453.871	3723.4
454.244	3833.23
454.618	3820.58
454.992	3890.86
455.365	3920.01
455.739	4030.97
456.112	4022.83
456.486	4107.12
456.859	4141.02
457.232	4232.32
457.606	4228.7
457.979	4321.58
458.352	4373.11
458.725	4455.14
459.099	4471.41
459.472	4562.03
459.845	4634.12
460.218	4637.73
460.591	4726.99
460.964	4749.14
461.337	4744.17
461.71	4969.47
462.083	4999.98
462.456	4963.37
462.829	5017.61
463.201	5157.94
463.574	5169.02
463.947	5162.46
464.32	5305.06
464.692	5340.76
465.065	5375.79
465.438	5470.25
465.81	5520.65
466.183	5574.66
466.555	5700.3
466.928	5742.56
467.3	5730.58
467.672	5846.96
468.045	5967.19
468.417	5970.8
468.789	5989.33
469.161	6146.84
469.534	6164.92
469.906	6289.67
470.278	6375.76
470.65	6419.15
471.022	6526.5
471.394	6599.26
471.766	6678.58
472.138	6805.36
472.51	6989.31
472.882	7016.2
473.253	7075.41
473.625	7219.81
473.997	7335.29
474.369	7370.99
474.74	7464.55
475.112	7580.25
475.484	7658.89
475.855	7913.13
476.227	7929.62
476.598	8117.87
476.97	8275.83
477.341	8426.56
477.713	8516.5
478.084	8572.99
478.455	8845.98
478.827	8823.84
479.198	9082.13
479.569	9150.61
479.94	9356.03
480.311	9469.92
480.682	9680.99
481.053	9842.34
481.424	10030.58
481.795	10113.52
482.166	10188.09
482.537	10346.73
482.908	10577.91
483.279	10660.85
483.65	10904.46
484.021	11150.1
484.391	11265.13
484.762	11267.16
485.133	11421.28
485.503	11634.16
485.874	11926.81
486.244	11966.8
486.615	12208.83
486.985	12354.82
487.356	12548.48
487.726	12650.4
488.097	12944.86
488.467	12983.5
488.837	13350.72
489.207	13468.01
489.578	13587.1
489.948	13805.63
490.318	13942.12
490.688	13950.48
491.058	14251.04
491.428	14465.5
491.798	14529.22
492.168	14706.84
492.538	14907.97
492.908	15046.5
493.278	15215.31
493.648	15241.75
494.017	15415.3
494.387	15695.75
494.757	15700.49
495.126	15839.92
495.496	15869.3
495.866	16074.94
496.235	16194.49
496.605	16304.77
496.974	16368.5
497.344	16616.63
497.713	16655.49
498.082	16838.09
498.452	16965.32
498.821	17060.23
499.19	17030.17
499.559	17233.33
499.928	17238.08
500.298	17354.68
500.667	17543.83
501.036	17480.33
501.405	17661.34
501.774	17755.13
502.143	17794.22
502.512	17955.12
502.88	18003.93
503.249	18033.09
503.618	18232.63
503.987	18214.32
504.356	18349.46
504.724	18422.68
505.093	18504.49
505.462	18637.59
505.83	18711.26
506.199	18810.69
506.567	19139.5
506.936	19041.42
507.304	19207.97
507.672	19229.66
508.041	19362.32
508.409	19567.28
508.777	19653.61
509.145	19827.61
509.514	19769.99
509.882	19902.87
510.25	19985.58
510.618	20125.01
510.986	20131.11
511.354	20367.49
511.722	20489.29
512.09	20670.3
512.458	20560.7
512.826	20816.29
513.193	20839.57
513.561	20910.75
513.929	21033.68
514.297	21314.35
514.664	21338.76
515.032	21388.93
515.4	21671.63
515.767	21640.22
516.135	21832.99
516.502	21635.02
516.869	21974.45
517.237	22159.53
517.604	22076.82
517.972	22450.6
518.339	22490.37
518.706	22544.15
519.073	22543.93
519.44	22756.8
519.808	23028.89
520.175	23031.6
520.542	23254.64
520.909	23288.54
521.276	23357.69
521.643	23653.28
522.009	23920.16
522.376	23995.87
522.743	24086.49
523.11	24331.45
523.477	24624.55
523.843	24607.6
524.21	24879.01
524.577	24945.67
524.943	25075.61
525.31	25207.13
525.676	25584.53
526.043	25633.79
526.409	25770.51
526.776	25971.18
527.142	26025.64
527.508	26234.9
527.874	26392.19
528.241	26466.08
528.607	26577.49
528.973	26848.22
529.339	26874.89
529.705	27256.12
530.071	27211.6
530.437	27325.72
530.803	27517.13
531.169	27574.3
531.535	27718.93
531.901	27788.53
532.267	27860.62
532.632	28113.27
532.998	28130.45
533.364	28118.92
533.73	28388.07
534.095	28523.43
534.461	28478.91
534.826	28513.71
535.192	28605.69
535.557	28840.03
535.923	28812.01
536.288	28911.9
536.653	28959.13
537.019	28984.44
537.384	29087.26
537.749	29026.24
538.114	29265.56
538.479	29109.86
538.845	29320.47
539.21	29274.82
539.575	29310.3
539.94	29360.7
540.305	29367.48
540.67	29480.92
541.034	29472.33
541.399	29551.43
541.764	29493.8
542.129	29587.13
542.494	29618.32
542.858	29771.31
543.223	29543.97
543.587	29728.37
543.952	29648.37
544.316	29691.08
544.681	29761.14
545.045	29881.81
545.41	29826.9
545.774	29715.04
546.138	29686.34
546.503	29850.85
546.867	29826
547.231	30054.46
547.595	29994.35
547.959	29994.13
548.324	29931.3
548.688	30002.04
549.052	29979.66
549.416	29891.98
549.779	29985.31
550.143	30051.98
550.507	30213.33
550.871	30196.16
551.235	30062.6
551.599	30236.61
551.962	30247.68
552.326	30274.12
552.689	30329.71
553.053	30088.36
553.417	30239.77
553.78	30438.41
554.143	30597.27
554.507	30503.04
554.87	30458.52
555.234	30715.69
555.597	30472.98
555.96	30689.7
556.323	30702.13
556.686	30635.92
557.05	30887.21
557.413	30754.78
557.776	30705.07
558.139	30961.78
558.502	30847.89
558.865	30847.21
559.228	31167.66
559.59	31132.85
559.953	31189.12
560.316	31371.27
560.679	31290.82
561.041	31432.96
561.404	31459.85
561.767	31666.62
562.129	31511.83
562.492	31703.23
562.854	31667.53
563.217	31764.48
563.579	31740.3
563.941	31888.99
564.304	32135.54
564.666	32240.62
565.028	32226.38
565.39	32266.38
565.753	32337.12
566.115	32451.92
566.477	32557.22
566.839	32604.91
567.201	32881.96
567.563	32804.67
567.925	32855.29
568.287	32942.52
568.648	33116.53
569.01	33155.85
569.372	33330.99
569.734	33385.45
570.095	33606.91
570.457	33593.35
570.819	33632.45
571.18	33608.49
571.542	33917.19
571.903	33967.81
572.265	33916.28
572.626	34264.75
572.987	34133.45
573.349	34320.11
573.71	34354.46
574.071	34506.55
574.432	34530.73
574.794	34642.37
575.155	34794.68
575.516	34658.18
575.877	34954
576.238	34872.64
576.599	35116.7
576.96	35132.07
577.32	35133.2
577.681	35286.64
578.042	35469.24
578.403	35389.01
578.763	35468.56
579.124	35463.59
579.485	35699.51
579.845	35772.51
580.206	35627.42
580.566	35677.59
580.927	35731.15
581.287	35905.61
581.648	35836.01
582.008	35994.65
582.368	36186.05
582.728	36127.3
583.089	36109.45
583.449	36156.22
583.809	36249.56
584.169	36189.44
584.529	36278.48
584.889	36407.52
585.249	36284.81
585.609	36239.39
585.969	36606.38
586.329	36459.49
586.688	36734.97
587.048	36511.7
587.408	36716.66
587.768	36634.18
588.127	36724.12
588.487	36815.42
588.846	37064
589.206	36772.48
589.565	36793.72
589.925	37151
590.284	37002.53
590.643	37019.7
591.003	37321.84
591.362	37355.29
591.721	37408.39
592.08	37339.02
592.44	37427.38
592.799	37360.94
593.158	37428.51
593.517	37369.07
593.876	37600.71
594.235	37647.03
594.593	37729.29
594.952	37803.41
595.311	37709.18
595.67	37766.58
596.029	38040.92
596.387	38156.85
596.746	38239.33
597.104	38126.79
597.463	38246.11
597.822	38373.34
598.18	38237.07
598.538	38191.88
598.897	38358.65
599.255	38197.53
599.613	38738.3
599.972	38568.36
600.33	38694.24
600.688	38566.56
601.046	38711.64
601.404	39092.64
601.762	38826.66
602.12	39127.22
602.478	39066.88
602.836	39123.15
603.194	38880.45
603.552	39104.62
603.91	39014.68
604.268	39171.51
604.625	39171.74
604.983	39456.02
605.341	39247.89
605.698	39601.33
606.056	39571.73
606.413	39530.15
606.771	39790.71
607.128	39803.36
607.485	39723.14
607.843	39788.67
608.2	39909.8
608.557	40096.01
608.914	40113.63
609.272	40285.16
609.629	40472.72
609.986	40510.23
610.343	40382.55
610.7	40757.69
611.057	40520.4
611.414	40620.51
611.771	40717.01
612.127	40845.82
612.484	40866.38
612.841	41034.06
613.198	40890.11
613.554	40947.74
613.911	41170.33
614.267	41186.83
614.624	41166.71
614.98	41359.03
615.337	41712.69
615.693	41533.94
616.05	41476.08
616.406	41776.87
616.762	41693.25
617.118	41700.71
617.475	41681.28
617.831	41804.66
618.187	41932.57
618.543	42007.6
618.899	42197.42
619.255	42107.93
619.611	42250.08
619.967	42294.82
620.323	42488.71
620.678	42358.32
621.034	42293.46
621.39	42432.67
621.746	42419.79
622.101	42918.31
622.457	42295.95
622.812	42654.81
623.168	42811.19
623.523	42728.03
623.879	42690.74
624.234	42713.79
624.589	42751.98
624.945	42915.82
625.3	42769.61
625.655	42902.94
626.01	42901.36
626.365	42792.89
626.72	42857.52
627.075	42817.29
627.43	42979.32
627.785	42778.2
628.14	42860.91
628.495	42911.08
628.85	43037.4
629.205	42782.94
629.559	42967.34
629.914	42791.76
630.269	42926.44
630.623	42680.8
630.978	42651.42
631.332	42733.23
631.687	42956.27
632.041	42710.4
632.396	42759.44
632.75	42721.93
633.104	42747.92
633.459	42451.2
633.813	42609.39
634.167	42554.02
634.521	42634.92
634.875	42645.55
635.229	42518.32
635.583	42289.62
635.937	42382.28
636.291	42432.22
636.645	42221.38
636.999	42186.57
637.352	42239.45
637.706	42179.34
638.06	42224.09
638.413	42181.38
638.767	42002.17
639.121	42126.91
639.474	41924.43
639.828	41895.51
640.181	41841.95
640.534	42020.25
640.888	41813.48
641.241	41714.95
641.594	41701.84
641.947	41790.88
642.301	41591.79
642.654	41658
643.007	41610.09
643.36	41610.54
643.713	41634.72
644.066	41692.12
644.419	41593.82
644.771	41054.17
645.124	40834.75
645.477	40949.32
645.83	40616.67
646.182	40585.71
646.535	40448.09
646.888	40613.06
647.24	40432.04
647.593	40708.42
647.945	40478.6
648.298	40387.53
648.65	40385.49
649.002	40110.92
649.355	40136.01
649.707	40193.63
650.059	40063.69
650.411	40711.58
650.763	40856.21
651.115	41341.85
651.467	41143.89
651.819	41233.38
652.171	41112.48
652.523	41048.98
652.875	41266.6
653.227	41112.48
653.578	41341.62
653.93	41141.4
654.282	41063.21
654.633	40999.94
654.985	41111.12
655.337	41156.32
655.688	41072.93
656.039	41188.63
656.391	40834.29
656.742	41037.68
657.094	41103.21
657.445	41312.47
657.796	41186.37
658.147	41156.54
658.498	41330.78
658.849	41290.55
659.2	41223.89
659.551	41106.38
659.902	41430.44
660.253	41223.66
660.604	41410.1
660.955	41289.2
661.306	41556.99
661.656	41420.72
662.007	41393.6
662.358	41436.99
662.708	41397.67
663.059	41410.78
663.409	41378.01
663.76	41600.38
664.11	41561.51
664.461	41649.87
664.811	41727.15
665.161	41586.59
665.511	41499.36
665.862	41598.79
666.212	41733.7
666.562	41749.07
666.912	41648.51
667.262	41508.63
667.612	41568.29
667.962	41602.18
668.312	41579.36
668.662	41763.99
669.011	41632.46
669.361	41516.76
669.711	41659.36
670.06	41716.08
670.41	41453.26
670.76	41539.13
671.109	41740.03
671.459	41461.17
671.808	41488.74
672.157	41567.38
672.507	41401.51
672.856	41427.72
673.205	41573.48
673.554	41377.78
673.904	41440.83
674.253	41624.33
674.602	41483.99
674.951	41015.76
675.3	40798.36
675.649	41479.25
675.998	41378.46
676.346	41390.44
676.695	41483.99
677.044	41166.49
677.393	41247.84
677.741	41363.32
678.09	41080.16
678.438	41011.69
678.787	41207.39
679.135	41204.91
679.484	40879.94
679.832	40984.12
680.181	40893.73
680.529	40959.26
680.877	40730.34
681.225	40769.21
681.573	40946.61
681.922	40730.34
682.27	40595.43
682.618	40534.64
682.966	40415.32
683.314	40479.5
683.661	40274.76
684.009	40246.06
684.357	40161.32
684.705	39916.58
685.053	40107.08
685.4	39966.75
685.748	39776.92
686.095	39746.41
686.443	39482.24
686.79	39498.06
687.138	39630.71
687.485	39561.78
687.832	39232.53
688.18	39270.04
688.527	39007.9
688.874	39074.79
689.221	39017.17
689.568	38706.21
689.915	38673.45
690.262	38744.86
690.609	38598.65
690.956	38375.15
691.303	38332.89
691.65	38117.53
691.997	38162.95
692.344	37792.57
692.69	37756.86
693.037	37842.73
693.383	37415.4
693.73	37547.83
694.077	37390.99
694.423	37209.76
694.769	37190.77
695.116	37112.58
695.462	36874.62
695.808	36669.66
696.155	36695.65
696.501	36353.28
696.847	36393.28
697.193	36087.75
697.539	36214.08
697.885	35774.54
698.231	35705.16
698.577	35707.42
698.923	35693.64
699.269	35385.4
699.614	35216.36
699.96	35145.4
700.306	35089.59
700.651	34941.57
700.997	34826.77
701.342	34673.55
701.688	34554.23
702.033	34414.8
702.379	34365.54
702.724	34245.31
703.069	34332.77
703.415	33906.79
703.76	33941.82
704.105	33773.24
704.45	33680.58
704.795	33510.42
705.14	33400.59
705.485	33340.48
705.83	33068.62
706.175	33162.4
706.52	33073.82
706.865	32882.86
707.209	32750.44
707.554	32661.18
707.899	32814.62
708.243	32574.85
708.588	32488.98
708.932	32317.46
709.277	32390.9
709.621	32254.18
709.966	32020.06
710.31	32041.76
710.654	31963.11
710.998	31966.05
711.342	31933.74
711.687	31841.31
712.031	31817.13
712.375	31700.97
712.719	31608.32
713.063	31498.95
713.407	31597.93
713.75	31380.3
714.094	31383.02
714.438	31109.13
714.782	31347.99
715.125	31080.65
715.469	31178.28
715.812	30957.94
716.156	30935.57
716.499	31075.23
716.843	31152.97
717.186	30838.62
717.53	31030.03
717.873	31117.03
718.216	30931.05
718.559	30747.33
718.902	30694.67
719.246	30736.03
719.589	30630.72
719.932	30535.13
720.275	30610.83
720.617	30529.25
720.96	30541.91
721.303	30650.61
721.646	30703.94
721.989	30341.01
722.331	30446.32
722.674	30410.39
723.016	30367
723.359	30331.29
723.701	30422.14
724.044	30322.25
724.386	30228.92
724.729	30405.19
725.071	30309.6
725.413	30428.24
725.755	30425.08
726.097	30248.81
726.439	30205.87
726.782	30231.18
727.124	30495.36
727.465	30322.25
727.807	30270.28
728.149	30367.68
728.491	30160
728.833	30437.5
729.175	30327.9
729.516	30370.39
729.858	30263.95
730.199	30528.12
730.541	30404.29
730.882	30245.65
731.224	30452.42
731.565	30409.48
731.906	30426.43
732.248	30488.35
732.589	30381.46
732.93	30438.86
733.271	30625.52
733.612	30453.1
733.953	30622.81
734.294	30727.67
734.635	30482.93
734.976	30643.83
735.317	30655.13
735.658	30622.58
735.999	30537.84
736.339	30666.65
736.68	30781.45
737.021	30839.08
737.361	30756.14
737.702	30979.41
738.042	30894.89
738.383	30977.83
738.723	31052.86
739.063	30961.56
739.404	31308.89
739.744	31234.09
740.084	31184.6
740.424	31471.38
740.764	31354.77
741.104	31605.61
741.444	31551.15
741.784	31429.57
742.124	31721.99
742.464	31738.49
742.804	31777.81
743.143	31835.89
743.483	32037.69
743.823	31791.37
744.162	31988.42
744.502	32133.96
744.841	32167.18
745.181	32444.68
745.52	32464.34
745.86	32562.42
746.199	32528.52
746.538	32672.25
746.877	33005.8
747.216	33000.6
747.556	32990.43
747.895	33179.81
748.234	33278.56
748.573	33444.66
748.911	33550.42
749.25	33571.66
749.589	33648.04
749.928	34039.9
750.267	34089.61
750.605	34047.35
750.944	34200.57
751.283	34402.6
751.621	34576.38
751.96	34416.61
752.298	34596.72
752.636	34890.04
752.975	34954.9
753.313	34843.04
