Data from 277_FLMS001491_006.txt Node
Date: Thu Apr 19 16:45:09 BST 2018
User: hsy
Spectrometer: FLMS00149
Trigger mode: 0
Integration Time (sec): 1.000000E-2
Scans to average: 10
Electric dark correction enabled: true
Nonlinearity correction enabled: false
Boxcar width: 0
XAxis mode: Wavelengths
Number of Pixels in Spectrum: 2048
>>>>>Begin Spectral Data<<<<<
341.393	-17.61
341.776	-17.61
342.16	-17.61
342.543	-63.71
342.927	-69.59
343.31	-70.49
343.693	-86.54
344.077	-65.97
344.46	-65.29
344.843	-57.61
345.226	-34.56
345.61	-17.84
345.993	-27.78
346.376	3.18
346.759	21.03
347.142	10.41
347.525	54.02
347.908	57.87
348.291	82.5
348.674	93.12
349.057	103.97
349.44	129.28
349.823	172.44
350.206	187.81
350.588	205.66
350.971	251.98
351.354	251.08
351.737	289.5
352.119	306.9
352.502	284.07
352.884	321.36
353.267	338.31
353.65	301.93
354.032	315.71
354.414	345.99
354.797	329.5
355.179	356.39
355.562	351.19
355.944	371.08
356.326	358.87
356.709	359.33
357.091	361.13
357.473	391.64
357.855	382.83
358.238	393.68
358.62	381.02
359.002	384.86
359.384	370.4
359.766	367.69
360.148	389.16
360.53	367.46
360.912	384.41
361.294	397.29
361.676	385.09
362.057	388.7
362.439	365.2
362.821	379.89
363.203	378.99
363.584	365.88
363.966	362.04
364.348	374.92
364.729	362.94
365.111	359.55
365.493	377.63
365.874	357.52
366.256	391.19
366.637	353.23
367.019	354.81
367.4	371.08
367.781	354.81
368.163	372.43
368.544	396.84
368.925	367.01
369.306	374.92
369.688	359.55
370.069	349.16
370.45	364.3
370.831	377.18
371.212	384.18
371.593	351.64
371.974	363.85
372.355	360.23
372.736	368.14
373.117	399.55
373.498	376.05
373.879	379.44
374.26	328.82
374.641	368.59
375.021	396.61
375.402	390.74
375.783	391.42
376.163	409.95
376.544	416.5
376.925	397.07
377.305	404.3
377.686	393.22
378.066	409.04
378.447	393.22
378.827	407.69
379.208	425.54
379.588	419.89
379.968	417.4
380.349	426.67
380.729	415.6
381.109	421.25
381.489	397.97
381.87	412.88
382.25	421.47
382.63	436.61
383.01	427.57
383.39	442.26
383.77	443.17
384.15	417.63
384.53	457.86
384.91	422.38
385.29	440.23
385.67	464.63
386.049	448.36
386.429	454.69
386.809	456.5
387.189	448.14
387.568	437.52
387.948	468.48
388.328	470.06
388.707	476.84
389.087	466.44
389.466	484.97
389.846	492.66
390.225	512.32
390.605	488.14
390.984	506.67
391.363	500.34
391.743	510.96
392.122	507.57
392.501	531.3
392.881	510.74
393.26	516.38
393.639	530.85
394.018	542.15
394.397	559.1
394.776	540.34
395.155	546.67
395.534	550.51
395.913	562.03
396.292	568.59
396.671	576.27
397.05	562.49
397.429	589.83
397.808	567.91
398.186	562.94
398.565	600.68
398.944	588.25
399.323	605.42
399.701	610.17
400.08	610.62
400.458	615.37
400.837	625.99
401.215	635.93
401.594	662.6
401.972	639.32
402.351	625.08
402.729	667.57
403.107	668.7
403.486	671.86
403.864	698.07
404.242	715.25
404.62	683.39
404.999	703.5
405.377	727.9
405.755	753.21
406.133	747.57
406.511	739.66
406.889	772.65
407.267	759.09
407.645	799.77
408.023	819.2
408.401	810.84
408.779	836.83
409.156	857.62
409.534	892.42
409.912	871.86
410.29	910.27
410.667	912.31
411.045	935.36
411.422	947.11
411.8	963.15
412.178	984.4
412.555	973.77
412.933	1023.26
413.31	1042.02
413.687	1056.94
414.065	1077.05
414.442	1096.03
414.819	1136.48
415.197	1115.24
415.574	1171.51
415.951	1145.97
416.328	1184.39
416.705	1212.64
417.082	1200.66
417.46	1203.37
417.837	1243.82
418.214	1234.33
418.591	1251.05
418.967	1286.99
419.344	1293.99
419.721	1332.86
420.098	1323.37
420.475	1305.29
420.852	1356.14
421.228	1364.27
421.605	1386.19
421.982	1412.63
422.358	1443.37
422.735	1460.31
423.111	1448.34
423.488	1487.88
423.864	1490.82
424.241	1538.28
424.617	1536.92
424.994	1550.48
425.37	1570.37
425.746	1591.61
426.123	1615.11
426.499	1628.45
426.875	1650.14
427.251	1673.64
427.627	1670.25
428.003	1785.05
428.379	1766.3
428.756	1788.22
429.132	1807.42
429.507	1830.93
429.883	1862.79
430.259	1908.44
430.635	1954.09
431.011	1948.66
431.387	1931.49
431.763	1977.82
432.138	2033.86
432.514	2027.76
432.89	2064.14
433.265	2145.72
433.641	2129.9
434.016	2166.51
434.392	2249.22
434.767	2296.45
435.143	2254.42
435.518	2309.56
435.894	2337.58
436.269	2373.74
436.644	2393.85
437.02	2456.67
437.395	2450.57
437.77	2463
438.145	2530.34
438.52	2529.67
438.895	2605.6
439.271	2598.14
439.646	2621.64
440.021	2688.31
440.395	2699.6
440.77	2656.44
441.145	2727.4
441.52	2786.38
441.895	2770.79
442.27	2819.83
442.645	2761.75
443.019	2839.71
443.394	2871.35
443.769	2921.07
444.143	2867.96
444.518	2950.67
444.892	2957.22
445.267	2945.47
445.641	2977.34
446.016	3022.08
446.39	3079.03
446.764	3068.63
447.139	3012.82
447.513	3119.25
447.887	3114.51
448.262	3143.66
448.636	3154.28
449.01	3223.21
449.384	3222.08
449.758	3245.35
450.132	3299.14
450.506	3361.28
450.88	3359.47
451.254	3332.81
451.628	3425.23
452.002	3428.17
452.376	3438.57
452.75	3552.92
453.123	3577.1
453.497	3605.34
453.871	3667.49
454.244	3711.55
454.618	3738.22
454.992	3821.61
455.365	3812.8
455.739	3908.84
456.112	3951.1
456.486	3967.82
456.859	4034.26
457.232	4131.43
457.606	4159.9
457.979	4233.12
458.352	4288.94
458.725	4286.68
459.099	4276.51
459.472	4441.48
459.845	4512.89
460.218	4533.91
460.591	4560.12
460.964	4618.65
461.337	4714.92
461.71	4758.08
462.083	4824.29
462.456	4888.02
462.829	4871.52
463.201	5019.77
463.574	4997.62
463.947	5054.8
464.32	5209.82
464.692	5200.1
465.065	5267.67
465.438	5323.49
465.81	5388.57
466.183	5409.36
466.555	5546.08
466.928	5637.83
467.3	5567.55
467.672	5650.49
468.045	5841.22
468.417	5795.57
468.789	5834.89
469.161	5952.17
469.534	6017.48
469.906	6131.15
470.278	6217.03
470.65	6273.97
471.022	6381.54
471.394	6437.36
471.766	6514.19
472.138	6671.93
472.51	6753.73
472.882	6803.68
473.253	6908.53
473.625	7000.06
473.997	7167.96
474.369	7155.53
474.74	7296.55
475.112	7399.14
475.484	7483.89
475.855	7642.07
476.227	7709.87
476.598	7882.74
476.97	7989.63
477.341	8153.47
477.713	8190.31
478.084	8303.07
478.455	8481.37
478.827	8608.6
479.198	8877.29
479.569	8815.15
479.94	9090.85
480.311	9168.59
480.682	9409.26
481.053	9592.53
481.424	9716.82
481.795	9848.12
482.166	9976.93
482.537	10062.57
482.908	10295.11
483.279	10402.9
483.65	10620.75
484.021	10744.14
484.391	10928.99
484.762	11119.72
485.133	11184.58
485.503	11280.62
485.874	11501.63
486.244	11648.07
486.615	11854.17
486.985	11972.58
487.356	12163.76
487.726	12274.95
488.097	12600.13
488.467	12581.83
488.837	12903.18
489.207	12971.2
489.578	13231.08
489.948	13288.03
490.318	13554.91
490.688	13539.32
491.058	13837.16
491.428	13987.89
491.798	14053.2
492.168	14302.91
492.538	14390.82
492.908	14606.86
493.278	14768.89
493.648	14781.77
494.017	14912.39
494.387	15047.75
494.757	15164.14
495.126	15359.38
495.496	15468.76
495.866	15543.33
496.235	15638.92
496.605	15834.4
496.974	15890.44
497.344	16082.53
497.713	16168.63
498.082	16240.49
498.452	16343.09
498.821	16479.81
499.19	16450.43
499.559	16648.84
499.928	16783.98
500.298	16814.49
500.667	16938.78
501.036	16970.64
501.405	17123.41
501.774	17196.62
502.143	17263.52
502.512	17309.16
502.88	17615.6
503.249	17451.08
503.618	17713.45
503.987	17750.73
504.356	17839.09
504.724	17842.48
505.093	18000.22
505.462	18002.25
505.83	18128.8
506.199	18280.66
506.567	18475.46
506.936	18406.76
507.304	18616.02
507.672	18681.56
508.041	18889.69
508.409	18953.19
508.777	19029.12
509.145	19043.81
509.514	19092.85
509.882	19273.18
510.25	19372.84
510.618	19512.04
510.986	19585.26
511.354	19684.69
511.722	19927.63
512.09	19968.08
512.458	19985.03
512.826	20159.48
513.193	20149.31
513.561	20339.59
513.929	20495.75
514.297	20551.34
514.664	20626.59
515.032	20812.35
515.4	21056.41
515.767	20981.84
516.135	21135.28
516.502	21024.32
516.869	21540.01
517.237	21649.39
517.604	21374.59
517.972	21752.89
518.339	21819.78
518.706	21892.32
519.073	22065.42
519.44	22155.14
519.808	22380.89
520.175	22339.99
520.542	22614.11
520.909	22817.27
521.276	22917.6
521.643	23174.09
522.009	23188.78
522.376	23276.69
522.743	23412.05
523.11	23685.27
523.477	23851.59
523.843	23971.14
524.21	24169.77
524.577	24254.52
524.943	24472.82
525.31	24535.87
525.676	24709.19
526.043	24974.95
526.409	24965.46
526.776	25113.03
527.142	25295.17
527.508	25437.31
527.874	25692.67
528.241	25680.69
528.607	25872.78
528.973	26183.28
529.339	26047.92
529.705	26361.13
530.071	26379.21
530.437	26630.73
530.803	26836.37
531.169	26819.65
531.535	26903.94
531.901	27035.91
532.267	27140.32
532.632	27327.21
532.998	27392.06
533.364	27366.3
533.73	27434.1
534.095	27661.89
534.461	27671.6
534.826	27766.06
535.192	27852.84
535.557	27943.91
535.923	28025.94
536.288	28103.46
536.653	28199.05
537.019	28104.13
537.384	28298.03
537.749	28239.27
538.114	28335.09
538.479	28273.62
538.845	28246.5
539.21	28345.94
539.575	28460.28
539.94	28434.52
540.305	28632.93
540.67	28538.92
541.034	28651.24
541.399	28684.23
541.764	28718.81
542.129	28795.42
542.494	28785.25
542.858	28853.49
543.223	28790.67
543.587	28819.14
543.952	28736.66
544.316	28867.5
544.681	28833.15
545.045	29102.3
545.41	28945.24
545.774	28939.59
546.138	28946.82
546.503	29033.15
546.867	29114.95
547.231	29168.29
547.595	29104.11
547.959	29204.9
548.324	29195.4
548.688	29199.47
549.052	29200.15
549.416	29145.91
549.779	29284.44
550.143	29283.99
550.507	29372.35
550.871	29480.14
551.235	29336.19
551.599	29624.77
551.962	29413.03
552.326	29552.01
552.689	29516.3
553.053	29324.21
553.417	29352.24
553.78	29627.71
554.143	29656.41
554.507	29663.41
554.87	29557.88
555.234	29865.22
555.597	29554.27
555.96	29758.55
556.323	29827.25
556.686	29815.95
557.05	29790.87
557.413	30030.41
557.776	29851.66
558.139	30039
558.502	30017.53
558.865	30083.06
559.228	30371.64
559.59	30229.28
559.953	30326.45
560.316	30481.92
560.679	30472.21
561.041	30633.78
561.404	30682.82
561.767	30835.81
562.129	30576.16
562.492	30881.01
562.854	30807.34
563.217	30781.8
563.579	30908.13
563.941	31032.19
564.304	31141.12
564.666	31374.78
565.028	31125.52
565.39	31289.13
565.753	31376.59
566.115	31571.39
566.477	31538.62
566.839	31687.54
567.201	32038.27
567.563	31701.33
567.925	32095.89
568.287	31908.1
568.648	32107.19
569.01	32236.68
569.372	32553.28
569.734	32354.87
570.095	32522.55
570.457	32738.59
570.819	32675.54
571.18	32541.76
571.542	32866.27
571.903	32919.37
572.265	33035.3
572.626	33051.8
572.987	33111.01
573.349	33308.52
573.71	33386.03
574.071	33463.99
574.432	33611.56
574.794	33740.82
575.155	33810.88
575.516	33779.24
575.877	33856.3
576.238	33764.32
576.599	34054.03
576.96	34143.75
577.32	34139.68
577.681	34140.81
578.042	34496.73
578.403	34395.27
578.763	34419.45
579.124	34503.06
579.485	34621.48
579.845	34983.95
580.206	34690.85
580.566	34824.86
580.927	34807.46
581.287	34953.67
581.648	34795.03
582.008	35135.14
582.368	35127.23
582.728	35102.14
583.089	35168.81
583.449	35227.79
583.809	35255.58
584.169	35491.74
584.529	35277.5
584.889	35614.22
585.249	35444.96
585.609	35401.8
585.969	35633.65
586.329	35670.49
586.688	35816.02
587.048	35735.35
587.408	35694.44
587.768	35768.34
588.127	35877.94
588.487	35815.34
588.846	36117.93
589.206	35915.45
589.565	35859.64
589.925	36209.91
590.284	36111.83
590.643	36161.78
591.003	36184.83
591.362	36518.83
591.721	36420.75
592.08	36426.63
592.44	36704.36
592.799	36626.4
593.158	36427.53
593.517	36544.36
593.876	36785.26
594.235	36614.42
594.593	36735.77
594.952	36926.73
595.311	36829.1
595.67	37056.21
596.029	37221.63
596.387	37237
596.746	37512.25
597.104	37199.26
597.463	37160.84
597.822	37560.16
598.18	37275.87
598.538	37387.96
598.897	37683.54
599.255	37396.54
599.613	37851
599.972	37582.53
600.33	37573.72
600.688	37709.53
601.046	37836.08
601.404	38101.39
601.762	38121.5
602.12	38151.78
602.478	38081.27
602.836	38200.82
603.194	38200.37
603.552	38161.5
603.91	38165.34
604.268	38222.29
604.625	38304.77
604.983	38547.7
605.341	38321.27
605.698	38684.42
606.056	38858.2
606.413	38648.49
606.771	38775.72
607.128	38906.34
607.485	38826.56
607.843	38735.72
608.2	39062.26
608.557	39229.49
608.914	39088.03
609.272	39263.16
609.629	39467.45
609.986	39564.17
610.343	39431.75
610.7	39721.46
611.057	39721
611.414	39608.92
611.771	39764.84
612.127	39957.38
612.484	39920.55
612.841	40146.53
613.198	39916.93
613.554	40014.56
613.911	40272.18
614.267	40321.44
614.624	40301.1
614.98	40402.12
615.337	40661.32
615.693	40596.01
616.05	40672.17
616.406	40854.53
616.762	40826.96
617.118	40836.45
617.475	40882.55
617.831	41083.23
618.187	41115.09
618.543	41026.05
618.899	41334.75
619.255	41174.75
619.611	41268.31
619.967	41371.81
620.323	41602.08
620.678	41250.45
621.034	41360.73
621.39	41469.88
621.746	41472.6
622.101	41822.42
622.457	41416.1
622.812	41622.42
623.168	41762.76
623.523	41722.76
623.879	41752.14
624.234	41675.75
624.589	41701.29
624.945	41785.13
625.3	41886.6
625.655	41856.31
626.01	41934.73
626.365	42015.18
626.72	41836.65
627.075	41790.33
627.43	41793.04
627.785	41843.66
628.14	41898.57
628.495	41986.71
628.85	41848.41
629.205	41715.08
629.559	42059.47
629.914	41753.04
630.269	41829.65
630.623	41739.48
630.978	41649.77
631.332	41765.7
631.687	41749.2
632.041	41635.98
632.396	41780.16
632.75	41700.39
633.104	41724.57
633.459	41642.08
633.813	41615.87
634.167	41561.41
634.521	41635.98
634.875	41537
635.229	41460.62
635.583	41414.52
635.937	41259.49
636.291	41454.74
636.645	41388.76
636.999	41225.82
637.352	41375.42
637.706	41169.78
638.06	41319.15
638.413	41110.57
638.767	41027.64
639.121	41155.09
639.474	41034.42
639.828	41019.05
640.181	40981.31
640.534	41085.71
640.888	40867.41
641.241	40775.44
641.594	40801.43
641.947	40841.2
642.301	40847.75
642.654	40916.9
643.007	40763.46
643.36	40805.04
643.713	40707.42
644.066	40709.68
644.419	40608.89
644.771	40161.67
645.124	39904.95
645.477	39870.15
645.83	39649.14
646.182	39623.15
646.535	39580.89
646.888	39755.58
647.24	39657.73
647.593	39832.41
647.945	39771.17
648.298	39553.32
648.65	39475.59
649.002	39459.32
649.355	39210.51
649.707	39145.43
650.059	39385.87
650.411	39794.22
650.763	39956.7
651.115	40421.1
651.467	40478.95
651.819	40339.07
652.171	40372.96
652.523	40136.81
652.875	40242.57
653.227	40172.07
653.578	40534.32
653.93	40423.36
654.282	40193.99
654.633	40137.26
654.985	40450.02
655.337	40295
655.688	40324.83
656.039	40542.45
656.391	40213.19
656.742	40267.2
657.094	40182.91
657.445	40319.86
657.796	40291.38
658.147	40295.9
658.498	40461.1
658.849	40490.7
659.2	40353.53
659.551	40306.98
659.902	40573.41
660.253	40411.38
660.604	40696.8
660.955	40375.45
661.306	40625.84
661.656	40518.95
662.007	40623.13
662.358	40634.88
662.708	40618.83
663.059	40650.24
663.409	40516.24
663.76	40798.94
664.11	40789.22
664.461	40873.52
664.811	40802.56
665.161	40810.01
665.511	40879.39
665.862	40836.23
666.212	40810.24
666.562	40939.73
666.912	40810.69
667.262	40663.58
667.612	40707.42
667.962	40711.49
668.312	40756.46
668.662	40885.94
669.011	40772.73
669.361	40708.1
669.711	40804.14
670.06	40619.29
670.41	40557.82
670.76	40589
671.109	40908.32
671.459	40773.63
671.808	40756.91
672.157	40789
672.507	40600.3
672.856	40526.63
673.205	40697.02
673.554	40613.18
673.904	40610.47
674.253	40839.17
674.602	40620.41
674.951	40065.4
675.3	39941.34
675.649	40633.52
675.998	40451.38
676.346	40560.53
676.695	40586.07
677.044	40313.76
677.393	40338.61
677.741	40473.53
678.09	40327.99
678.438	40233.31
678.787	40230.82
679.135	40343.36
679.484	40064.95
679.832	40185.85
680.181	39942.47
680.529	40016.14
680.877	39787.44
681.225	39881.9
681.573	40192.86
681.922	39875.58
682.27	39871.28
682.618	39629.48
682.966	39664.96
683.314	39588.8
683.661	39651.17
684.009	39314.01
684.357	39214.12
684.705	39097.74
685.053	39203.73
685.4	39051.42
685.748	38946.33
686.095	38986.79
686.443	38516.74
686.79	38631.54
687.138	38761.48
687.485	38681.93
687.832	38599
688.18	38534.37
688.527	38234.94
688.874	38213.02
689.221	38176.86
689.568	37929.64
689.915	37766.7
690.262	37900.49
690.609	37818.45
690.956	37618.23
691.303	37448.3
691.65	37283.55
691.997	37261.18
692.344	37059.83
692.69	36977.8
693.037	37025.71
693.383	36690.8
693.73	36670.91
694.077	36412.39
694.423	36511.6
694.769	36321.32
695.116	36280.19
695.462	35989.8
695.808	35847.66
696.155	35891.73
696.501	35658.06
696.847	35646.76
697.193	35170.61
697.539	35370.84
697.885	34990.28
698.231	34958.42
698.577	34975.37
698.923	34780.12
699.269	34628.71
699.614	34450.86
699.96	34314.14
700.306	34291.99
700.651	34163.86
700.997	34082.73
701.342	33996.18
701.688	33875.96
702.033	33804.77
702.379	33668.28
702.724	33508.74
703.069	33515.52
703.415	33024
703.76	33122.76
704.105	33103.1
704.45	33013.84
704.795	32819.94
705.14	32741.75
705.485	32811.35
705.83	32405.04
706.175	32468.54
706.52	32448.65
706.865	32194.42
707.209	32126.63
707.554	31988.1
707.899	32003.01
708.243	31878.72
708.588	31887.31
708.932	31640.31
709.277	31694.77
709.621	31608.9
709.966	31483.03
710.31	31450.49
710.654	31215.24
710.998	31213.2
711.342	31098.63
711.687	31049.14
712.031	30974.11
712.375	30984.74
712.719	30935.7
713.063	30878.52
713.407	31056.6
713.75	30718.75
714.094	30828.58
714.438	30599.66
714.782	30507.23
715.125	30441.93
715.469	30626.1
715.812	30237.86
716.156	30299.56
716.499	30325.09
716.843	30330.29
717.186	30205.55
717.53	30407.58
717.873	30358.09
718.216	30276.96
718.559	30229.95
718.902	30062.05
719.246	30073.8
719.589	30079.45
719.932	29895.5
720.275	30002.16
720.617	30007.81
720.96	29968.72
721.303	29927.14
721.646	30029.06
721.989	29757.2
722.331	29917.65
722.674	29810.76
723.016	29937.31
723.359	29796.52
723.701	29939.79
724.044	29799.23
724.386	29538.22
724.729	29911.32
725.071	29789.97
725.413	29894.82
725.755	29705.67
726.097	29773.47
726.439	29755.84
726.782	29639.91
727.124	29742.73
727.465	29810.3
727.807	29697.76
728.149	29691.44
728.491	29693.02
728.833	29697.09
729.175	29667.71
729.516	29611.66
729.858	29591.33
730.199	29759.91
730.541	29817.99
730.882	29740.48
731.224	29763.3
731.565	29714.49
731.906	29759.23
732.248	29892.34
732.589	29788.16
732.93	29744.54
733.271	29837.65
733.612	29798.55
733.953	29998.32
734.294	29951.77
734.635	29816.41
734.976	30027.25
735.317	29967.81
735.658	30040.81
735.999	29932.33
736.339	30107.25
736.68	30166.9
737.021	30181.59
737.361	30137.75
737.702	30380.01
738.042	30299.78
738.383	30312.66
738.723	30471.98
739.063	30418.42
739.404	30531.64
739.744	30552.43
740.084	30565.31
740.424	30745.87
740.764	30812.09
741.104	30955.81
741.444	30862.03
741.784	30900.44
742.124	31088.01
742.464	31132.08
742.804	31158.97
743.143	31185.18
743.483	31386.08
743.823	31342.92
744.162	31512.63
744.502	31620.43
744.841	31644.83
745.181	31798.95
745.52	31572.52
745.86	32110.13
746.199	32174.99
746.538	32184.48
746.877	32444.36
747.216	32420.63
747.556	32463.57
747.895	32581.98
748.234	32631.47
748.573	32782.65
748.911	32861.75
749.25	33057.22
749.589	32960.5
749.928	33301.29
750.267	33369.76
750.605	33347.61
750.944	33588.06
751.283	33810.88
751.621	33899.69
751.96	33826.47
752.298	34170.19
752.636	34133.81
752.975	34248.38
753.313	34422.61
753.651	34707.58
