Data from 277_FLMS001491_002.txt Node
Date: Thu Apr 19 16:44:58 BST 2018
User: hsy
Spectrometer: FLMS00149
Trigger mode: 0
Integration Time (sec): 1.000000E-2
Scans to average: 10
Electric dark correction enabled: true
Nonlinearity correction enabled: false
Boxcar width: 0
XAxis mode: Wavelengths
Number of Pixels in Spectrum: 2048
>>>>>Begin Spectral Data<<<<<
341.393	10.01
341.776	10.01
342.16	10.01
342.543	-78.8
342.927	-73.6
343.31	-73.37
343.693	-63.88
344.077	-50.78
344.46	-67.72
344.843	-51
345.226	-39.93
345.61	-25.24
345.993	-19.82
346.376	-10.78
346.759	1.88
347.142	7.08
347.525	38.71
347.908	82.55
348.291	69.22
348.674	89.11
349.057	113.97
349.44	118.03
349.823	134.08
350.206	159.84
350.588	219.73
350.971	232.83
351.354	250.69
351.737	273.28
352.119	276.9
352.502	294.75
352.884	303.79
353.267	301.53
353.65	332.94
354.032	331.14
354.414	317.58
354.797	351.7
355.179	330.23
355.562	364.81
355.944	371.59
356.326	356.67
356.709	372.49
357.091	385.15
357.473	377.01
357.855	378.14
358.238	369.78
358.62	385.6
359.002	401.19
359.384	397.35
359.766	363.22
360.148	357.58
360.53	377.91
360.912	358.93
361.294	355.32
361.676	395.09
362.057	348.08
362.439	379.72
362.821	382.89
363.203	391.02
363.584	358.71
363.966	364.35
364.348	364.58
364.729	378.37
365.111	358.25
365.493	357.35
365.874	365.03
366.256	372.49
366.637	375.43
367.019	351.47
367.4	361.42
367.781	372.26
368.163	374.3
368.544	366.16
368.925	349.67
369.306	389.21
369.688	353.28
370.069	354.19
370.45	341.98
370.831	379.04
371.212	384.92
371.593	358.71
371.974	386.05
372.355	390.79
372.736	381.53
373.117	351.7
373.498	367.97
373.879	384.92
374.26	389.66
374.641	365.26
375.021	371.36
375.402	380.85
375.783	386.05
376.163	387.18
376.544	400.96
376.925	397.35
377.305	393.96
377.686	400.29
378.066	390.57
378.447	401.19
378.827	420.4
379.208	425.6
379.588	431.47
379.968	407.07
380.349	412.72
380.729	400.29
381.109	409.55
381.489	418.36
381.87	427.63
382.25	440.74
382.63	425.6
383.01	424.24
383.39	433.28
383.77	439.83
384.15	456.33
384.53	421.08
384.91	434.86
385.29	464.92
385.67	431.92
386.049	452.94
386.429	454.97
386.809	459.04
387.189	448.87
387.568	454.3
387.948	460.85
388.328	472.83
388.707	474.63
389.087	472.6
389.466	479.61
389.846	480.96
390.225	482.77
390.605	492.04
390.984	520.96
391.363	491.81
391.743	535.65
392.122	513.96
392.501	511.47
392.881	513.73
393.26	513.73
393.639	531.81
394.018	540.4
394.397	537.68
394.776	562.09
395.155	552.6
395.534	555.31
395.913	575.87
396.292	562.09
396.671	559.83
397.05	581.98
397.429	573.39
397.808	575.65
398.186	593.73
398.565	602.54
398.944	591.69
399.323	598.47
399.701	623.56
400.08	628.75
400.458	626.49
400.837	601.18
401.215	661.3
401.594	653.16
401.972	665.14
402.351	661.52
402.729	691.35
403.107	678.24
403.486	694.06
403.864	697.23
404.242	715.53
404.62	708.53
404.999	746.04
405.377	739.49
405.755	740.16
406.133	764.12
406.511	758.24
406.889	784.68
407.267	795.08
407.645	791.91
408.023	815.87
408.401	830.56
408.779	832.37
409.156	873.72
409.534	878.47
409.912	886.6
410.29	919.37
410.667	908.07
411.045	948.29
411.422	977.45
411.8	967.05
412.178	978.8
412.555	1025.58
412.933	1002.3
413.31	1045.69
413.687	1089.08
414.065	1076.88
414.442	1075.52
414.819	1120.04
415.197	1129.98
415.574	1177.44
415.951	1136.76
416.328	1159.59
416.705	1189.19
417.082	1212.69
417.46	1224.22
417.837	1182.64
418.214	1281.17
418.591	1284.78
418.967	1278.23
419.344	1302.18
419.721	1313.03
420.098	1295.4
420.475	1355.52
420.852	1369.07
421.228	1391.45
421.605	1360.71
421.982	1405.23
422.358	1437.09
422.735	1462.86
423.111	1479.81
423.488	1468.05
423.864	1507.38
424.241	1504.89
424.617	1540.82
424.994	1561.39
425.37	1599.35
425.746	1590.31
426.123	1652
426.499	1623.98
426.875	1658.56
427.251	1698.56
427.627	1755.5
428.003	1719.35
428.379	1733.13
428.756	1790.98
429.132	1803.64
429.507	1821.49
429.883	1881.15
430.259	1888.61
430.635	1875.95
431.011	1934.71
431.387	1990.75
431.763	2024.88
432.138	2033.92
432.514	2096.29
432.89	2105.55
433.265	2132.9
433.641	2178.32
434.016	2175.38
434.392	2194.36
434.767	2279.78
435.143	2276.39
435.518	2313
435.894	2337.41
436.269	2392.78
436.644	2443.4
437.02	2453.79
437.395	2514.81
437.77	2533.79
438.145	2517.07
438.52	2596.84
438.895	2599.78
439.271	2579.44
439.646	2666.89
440.021	2701.02
440.395	2701.92
440.77	2679.32
441.145	2751.64
441.52	2763.16
441.895	2799.09
442.27	2777.4
442.645	2830.5
443.019	2865.08
443.394	2895.81
443.769	2913.44
444.143	2856.94
444.518	2957.73
444.892	2959.09
445.267	2979.43
445.641	2986.43
446.016	3006.77
446.39	3048.35
446.764	3096.49
447.139	3047.9
447.513	3127.45
447.887	3165.86
448.262	3136.03
448.636	3219.65
449.01	3249.7
449.384	3258.06
449.758	3256.93
450.132	3334.45
450.506	3331.28
450.88	3338.97
451.254	3406.76
451.628	3407.66
452.002	3476.59
452.376	3523.37
452.75	3540.09
453.123	3526.98
453.497	3635.91
453.871	3634.78
454.244	3731.95
454.618	3769.46
454.992	3835
455.365	3858.27
455.739	3917.93
456.112	3972.85
456.486	4044.48
456.859	4047.65
457.232	4109.34
457.606	4184.14
457.979	4201.99
458.352	4319.51
458.725	4347.3
459.099	4403.57
459.472	4412.84
459.845	4541.19
460.218	4520.63
460.591	4602.21
460.964	4608.09
461.337	4689.21
461.71	4846.27
462.083	4891.24
462.456	4929.66
462.829	4870.45
463.201	5013.95
463.574	5021.86
463.947	5092.82
464.32	5208.75
464.692	5213.72
465.065	5254.85
465.438	5377.33
465.81	5412.58
466.183	5434.5
466.555	5555.4
466.928	5606.02
467.3	5595.63
467.672	5735.96
468.045	5796.3
468.417	5863.19
468.789	5908.84
469.161	5964.43
469.534	6068.84
469.906	6170.98
470.278	6227.25
470.65	6291.2
471.022	6414.82
471.394	6516.96
471.766	6573.23
472.138	6622.04
472.51	6778.42
472.882	6895.71
473.253	6928.25
473.625	7016.16
473.997	7140.45
474.369	7212.99
474.74	7314
475.112	7463.6
475.484	7636.03
475.855	7628.8
476.227	7691.39
476.598	7999.63
476.97	8062.68
477.341	8199.86
477.713	8316.91
478.084	8381.55
478.455	8633.52
478.827	8635.1
479.198	8897.46
479.569	8930.68
479.94	9131.36
480.311	9218.36
480.682	9466.94
481.053	9692.92
481.424	9800.49
481.795	9887.04
482.166	10012.46
482.537	10201.61
482.908	10367.93
483.279	10533.35
483.65	10764.76
484.021	10889.73
484.391	10992.1
484.762	11174.47
485.133	11192.32
485.503	11396.61
485.874	11601.8
486.244	11677.05
486.615	11947.78
486.985	12159.52
487.356	12318.39
487.726	12355.9
488.097	12688.32
488.467	12807.19
488.837	12985.04
489.207	13118.37
489.578	13308.87
489.948	13455.99
490.318	13607.17
490.688	13768.3
491.058	13937.11
491.428	14095.07
491.798	14216.87
492.168	14472.46
492.538	14501.16
492.908	14652.79
493.278	14947.02
493.648	14906.57
494.017	15152.21
494.387	15186.56
494.757	15391.76
495.126	15438.99
495.496	15533.9
495.866	15724.18
496.235	15746.78
496.605	15989.71
496.974	16024.73
497.344	16226.54
497.713	16305.86
498.082	16369.13
498.452	16495.46
498.821	16630.14
499.19	16681.21
499.559	16740.87
499.928	16910.81
500.298	17009.79
500.667	17068.55
501.036	17117.36
501.405	17245.94
501.774	17328.65
502.143	17400.07
502.512	17512.6
502.88	17688.65
503.249	17571.13
503.618	17821.52
503.987	17783.11
504.356	17993.04
504.724	18068.75
505.093	18105.13
505.462	18200.27
505.83	18259.93
506.199	18310.78
506.567	18562.07
506.936	18636.87
507.304	18763.87
507.672	18784.89
508.041	18857.2
508.409	19089.96
508.777	19262.16
509.145	19291.99
509.514	19294.93
509.882	19454.93
510.25	19432.78
510.618	19715.03
510.986	19626.67
511.354	19817.85
511.722	19988.7
512.09	20172.87
512.458	20023.5
512.826	20297.62
513.193	20231.4
513.561	20427.56
513.929	20463.94
514.297	20637.49
514.664	20843.36
515.032	21052.85
515.4	21152.96
515.767	21226.86
516.135	21301.21
516.502	21138.95
516.869	21576.68
517.237	21551.82
517.604	21521.31
517.972	21849.89
518.339	21916.33
518.706	22035.65
519.073	22048.53
519.44	22355.42
519.808	22477.67
520.175	22456.88
520.542	22721.51
520.909	22908.85
521.276	22839.7
521.643	23206.01
522.009	23140.93
522.376	23448.49
522.743	23468.61
523.11	23728.94
523.477	23913.57
523.843	24042.38
524.21	24249.83
524.577	24402.82
524.943	24533.44
525.31	24633.1
525.676	24919.87
526.043	25033.54
526.409	25177.26
526.776	25318.5
527.142	25483.69
527.508	25532.51
527.874	25757.36
528.241	25797.36
528.607	25979.27
528.973	26139.72
529.339	26158.25
529.705	26334.52
530.071	26576.55
530.437	26678.92
530.803	26917.55
531.169	26974.5
531.535	26932.02
531.901	27121.17
532.267	27261.73
532.632	27348.05
532.998	27340.82
533.364	27582.85
533.73	27549.4
534.095	27806.35
534.461	27704.43
534.826	27914.59
535.192	27862.61
535.557	28126.11
535.923	28213.34
536.288	28277.07
536.653	28228.48
537.019	28250.4
537.384	28415.59
537.749	28328.59
538.114	28444.07
538.479	28345.77
538.845	28550.96
539.21	28435.03
539.575	28558.19
539.94	28607.68
540.305	28706.66
540.67	28654.23
541.034	28660.33
541.399	28821.91
541.764	28801.12
542.129	28876.37
542.494	29045.86
542.858	28965.86
543.223	28915.47
543.587	29021.45
543.952	28970.83
544.316	29094.22
544.681	28946.2
545.045	29094.67
545.41	29076.37
545.774	29056.48
546.138	28971.96
546.503	29101.68
546.867	29075.69
547.231	29313.42
547.595	29185.07
547.959	29245.86
548.324	29175.12
548.688	29167.67
549.052	29494.44
549.416	29340.54
549.779	29105.97
550.143	29282.69
550.507	29388.68
550.871	29442.46
551.235	29259.87
551.599	29496.02
551.962	29386.19
552.326	29522.46
552.689	29499.41
553.053	29314.33
553.417	29463.7
553.78	29645.17
554.143	29683.81
554.507	29737.37
554.87	29851.49
555.234	29854.65
555.597	29690.14
555.96	29816.69
556.323	29844.94
556.686	29787.31
557.05	29926.74
557.413	29911.83
557.776	29942.33
558.139	30000.64
558.502	30048.09
558.865	30088.77
559.228	30266.85
559.59	30243.34
559.953	30241.08
560.316	30430.23
560.679	30424.13
561.041	30459.16
561.404	30510.68
561.767	30670
562.129	30532.6
562.492	30783.44
562.854	30820.05
563.217	30861.41
563.579	30938.47
563.941	30912.93
564.304	30955.19
564.666	31304.78
565.028	31207.84
565.39	31316.08
565.753	31491.9
566.115	31517.89
566.477	31631.78
566.839	31631.1
567.201	31868.39
567.563	31913.13
567.925	31984.09
568.287	32113.12
568.648	32145.44
569.01	32172.78
569.372	32567.12
569.734	32468.14
570.095	32603.06
570.457	32666.33
570.819	32817.51
571.18	32654.58
571.542	32977.96
571.903	32867
572.265	33049.6
572.626	33243.49
572.987	33177.96
573.349	33323.94
573.71	33348.57
574.071	33407.33
574.432	33606.87
574.794	33897.26
575.155	33798.5
575.516	33788.11
575.877	33847.54
576.238	34039.85
576.599	34048.67
576.96	34251.37
577.32	34181.77
577.681	34284.59
578.042	34541.31
578.403	34592.16
578.763	34552.61
579.124	34546.28
579.485	34851.58
579.845	34740.4
580.206	34780.4
580.566	34908.53
580.927	34784.47
581.287	35120.73
581.648	34976.78
582.008	35111.92
582.368	35161.86
582.728	35153.72
583.089	35322.08
583.449	35443.88
583.809	35505.35
584.169	35639.59
584.529	35449.53
584.889	35802.52
585.249	35609.3
585.609	35558.68
585.969	35823.31
586.329	35600.26
586.688	36044.55
587.048	35934.72
587.408	35859.24
587.768	35917.32
588.127	35992.57
588.487	35984.89
588.846	36376.97
589.206	35985.34
589.565	35969.07
589.925	36389.62
590.284	36384.88
590.643	36403.18
591.003	36528.15
591.362	36684.53
591.721	36678.2
592.08	36616.96
592.44	36785.54
592.799	36715.94
593.158	36821.48
593.517	36850.18
593.876	37088.59
594.235	36966.1
594.593	36989.15
594.952	37022.37
595.311	37001.81
595.67	37245.64
596.029	37389.14
596.387	37483.6
596.746	37729.93
597.104	37343.95
597.463	37515.24
597.822	37668.91
598.18	37566.77
598.538	37581.91
598.897	37802.47
599.255	37728.12
599.613	38172.17
599.972	37968.79
600.33	38107.54
600.688	38132.4
601.046	38155.45
601.404	38476.57
601.762	38458.72
602.12	38523.13
602.478	38541.88
602.836	38575.78
603.194	38524.48
603.552	38434.77
603.91	38482.67
604.268	38765.83
604.625	38760.63
604.983	38850.35
605.341	38659.17
605.698	39185.25
606.056	39212.82
606.413	39035.43
606.771	39384.8
607.128	39371.46
607.485	39307.29
607.843	39371.92
608.2	39531.69
608.557	39693.72
608.914	39696.43
609.272	39766.71
609.629	39915.63
609.986	39895.07
610.343	39876.08
610.7	40211.67
611.057	40154.27
611.414	40179.58
611.771	40529.4
612.127	40467.93
612.484	40509.06
612.841	40608.72
613.198	40463.87
613.554	40470.87
613.911	40715.16
614.267	40805.33
614.624	40882.61
614.98	40950.63
615.337	41220.23
615.693	41118.09
616.05	41258.65
616.406	41287.8
616.762	41275.6
617.118	41278.31
617.475	41343.39
617.831	41544.74
618.187	41545.87
618.543	41611.86
618.899	41776.15
619.255	41697.96
619.611	41669.26
619.967	41892.98
620.323	41999.64
620.678	41875.13
621.034	41733.44
621.39	41899.99
621.746	41971.4
622.101	42461.78
622.457	42080.55
622.812	42198.06
623.168	42351.73
623.523	42350.82
623.879	42440.99
624.234	42253.87
624.589	42450.03
624.945	42533.19
625.3	42409.13
625.655	42514.66
626.01	42362.57
626.365	42512.17
626.72	42498.16
627.075	42267.43
627.43	42526.18
627.785	42475.34
628.14	42457.26
628.495	42561.21
628.85	42546.97
629.205	42453.19
629.559	42519.86
629.914	42439.63
630.269	42358.28
630.623	42224.05
630.978	42116.48
631.332	42513.08
631.687	42501.1
632.041	42402.57
632.396	42370.03
632.75	42188.11
633.104	42297.26
633.459	42015.92
633.813	42174.33
634.167	42106.31
634.521	42210.03
634.875	42140.43
635.229	42022.24
635.583	41970.04
635.937	42094.11
636.291	41891.4
636.645	41885.97
636.999	41810.72
637.352	41879.65
637.706	41523.95
638.06	41775.02
638.413	41694.79
638.767	41578.41
639.121	41651.4
639.474	41535.02
639.828	41558.07
640.181	41379.77
640.534	41581.35
640.888	41428.81
641.241	41259.55
641.594	41366.67
641.947	41396.04
642.301	41383.84
642.654	41387.68
643.007	41279.66
643.36	41301.81
643.713	41291.64
644.066	41520.79
644.419	41103.4
644.771	40895.49
645.124	40423.19
645.477	40496.86
645.83	40302.51
646.182	40231.56
646.535	40155.4
646.888	40211.44
647.24	40137.32
647.593	40311.55
647.945	40089.19
648.298	40187.94
648.65	39910.66
649.002	39866.82
649.355	39934.16
649.707	39829.53
650.059	39742.98
650.411	40499.8
650.763	40481.27
651.115	41036.73
651.467	40784.08
651.819	41087.8
652.171	40858.43
652.523	40906.11
652.875	40766.91
653.227	40777.98
653.578	40886.91
653.93	40791.09
654.282	40753.8
654.633	40681.94
654.985	40757.87
655.337	40774.59
655.688	40710.86
656.039	40992.21
656.391	40634.26
656.742	40799.22
657.094	40704.99
657.445	40856.4
657.796	40869.28
658.147	40833.8
658.498	40909.05
658.849	41014.59
659.2	40915.38
659.551	40791.99
659.902	41253.22
660.253	41050.97
660.604	41211.87
660.955	40938.43
661.306	41302.94
661.656	41112.66
662.007	41233.79
662.358	41223.39
662.708	41089.16
663.059	41274.69
663.409	41015.72
663.76	41249.61
664.11	41260.45
664.461	41324.63
664.811	41196.73
665.161	41354.92
665.511	41294.13
665.862	41347.46
666.212	41511.75
666.562	41343.16
666.912	41322.83
667.262	41291.87
667.612	41294.58
667.962	41333
668.312	41173.9
668.662	41476.95
669.011	41352.2
669.361	41245.99
669.711	41357.63
670.06	41362.82
670.41	41253.9
670.76	41255.48
671.109	41275.37
671.459	41416.16
671.808	41126.22
672.157	41340
672.507	41092.55
672.856	41112.89
673.205	41224.3
673.554	41271.75
673.904	41106.56
674.253	41452.09
674.602	41132.1
674.951	40513.81
675.3	40501.6
675.649	41168.71
675.998	41082.61
676.346	40991.54
676.695	41114.47
677.044	40835.16
677.393	40790.18
677.741	41065.66
678.09	40916.51
678.438	40934.36
678.787	40840.58
679.135	40792.44
679.484	40520.81
679.832	40788.38
680.181	40490.53
680.529	40568.95
680.877	40387.48
681.225	40463.19
681.573	40616.18
681.922	40352.68
682.27	40299.35
682.618	40290.54
682.966	40236.98
683.314	40185.91
683.661	40324.89
684.009	39916.08
684.357	39893.03
684.705	39729.65
685.053	39881.96
685.4	39597.45
685.748	39574.85
686.095	39602.42
686.443	39270.22
686.79	39227.51
687.138	39393.16
687.485	39204.92
687.832	39090.34
688.18	39051.7
688.527	38840.41
688.874	38823.46
689.221	38711.37
689.568	38622.56
689.915	38335.79
690.262	38518.38
690.609	38411.94
690.956	38153.42
691.303	38153.42
691.65	37906.19
691.997	37838.85
692.344	37643.6
692.69	37609.03
693.037	37652.64
693.383	37275.02
693.73	37318.41
694.077	37092.2
694.423	37032.77
694.769	36908.25
695.116	36770.63
695.462	36608.83
695.808	36453.35
696.155	36561.37
696.501	36250.42
696.847	36278.66
697.193	36025.56
697.539	35911.67
697.885	35607.95
698.231	35522.53
698.577	35555.29
698.923	35524.56
699.269	35169.09
699.614	34898.36
699.96	34930.45
700.306	34913.95
700.651	34764.13
700.997	34609.78
701.342	34558.03
701.688	34435.1
702.033	34244.82
702.379	34259.96
702.724	34085.95
703.069	34050.02
703.415	33633.54
703.76	33597.61
704.105	33496.82
704.45	33415.24
704.795	33275.58
705.14	33109.71
705.485	33141.12
705.83	33001.01
706.175	33043.72
706.52	32876.49
706.865	32695.93
707.209	32606.67
707.554	32574.13
707.899	32445.32
708.243	32486.67
708.588	32304.31
708.932	32133.46
709.277	32203.29
709.621	32038.55
709.966	31665.23
710.31	31827.03
710.654	31565.12
710.998	31888.72
711.342	31744.77
711.687	31568.73
712.031	31512.69
712.375	31533.7
712.719	31327.16
713.063	31312.69
713.407	31409.87
713.75	31198.57
714.094	31364.22
714.438	31104.56
714.782	31055.75
715.125	30942.31
715.469	31337.1
715.812	30833.16
716.156	30928.3
716.499	30925.13
716.843	30815.31
717.186	30653.5
717.53	30979.37
717.873	30907.73
718.216	30849.88
718.559	30569.21
718.902	30495.77
719.246	30527.86
719.589	30559.95
719.932	30402.66
720.275	30476.56
720.617	30345.04
720.96	30460.06
721.303	30534.86
721.646	30307.3
721.989	30351.81
722.331	30419.38
722.674	30378.93
723.016	30361.76
723.359	30106.4
723.701	30313.17
724.044	30270.91
724.386	30107.75
724.729	30262.55
725.071	30073.18
725.413	30318.37
725.755	30133.97
726.097	30130.8
726.439	30000.19
726.782	30053.97
727.124	30293.96
727.465	30119.73
727.807	30235.66
728.149	30273.17
728.491	30086.74
728.833	30261.65
729.175	30261.87
729.516	30230.69
729.858	30124.93
730.199	30347.3
730.541	30362.89
730.882	30263.68
731.224	30296.68
731.565	30331.7
731.906	30368.31
732.248	30465.03
732.589	30330.57
732.93	30248.99
733.271	30489.66
733.612	30334.64
733.953	30442.89
734.294	30337.13
734.635	30324.47
734.976	30660.06
735.317	30501.19
735.658	30580.74
735.999	30441.53
736.339	30661.41
736.68	30843.33
737.021	30812.37
737.361	30767.17
737.702	31001.97
738.042	30890.11
738.383	30896.66
738.723	31145.24
739.063	30908.41
739.404	31187.05
739.744	31190.66
740.084	31164.9
740.424	31312.92
740.764	31349.3
741.104	31637.88
741.444	31344.11
741.784	31380.49
742.124	31615.06
742.464	31580.26
742.804	31736.86
743.143	31743.19
743.483	31888.5
743.823	31822.06
744.162	32012.56
744.502	32109.96
744.841	32134.14
745.181	32432.89
745.52	32281.48
745.86	32464.3
746.199	32713.11
746.538	32657.74
746.877	32916.72
747.216	32867.45
747.556	33015.7
747.895	33163.04
748.234	33262.25
748.573	33282.81
748.911	33509.92
749.25	33611.16
749.589	33615.46
749.928	33991.95
750.267	34077.82
750.605	34113.07
750.944	34203.24
751.283	34323.69
751.621	34576.56
751.96	34613.17
752.298	34779.27
752.636	34984.69
752.975	34981.75
753.313	35121.86
