Data from 277_FLMS001491_005.txt Node
Date: Thu Apr 19 16:45:07 BST 2018
User: hsy
Spectrometer: FLMS00149
Trigger mode: 0
Integration Time (sec): 1.000000E-2
Scans to average: 10
Electric dark correction enabled: true
Nonlinearity correction enabled: false
Boxcar width: 0
XAxis mode: Wavelengths
Number of Pixels in Spectrum: 2048
>>>>>Begin Spectral Data<<<<<
341.393	-5.14
341.776	-5.14
342.16	-5.14
342.543	-53.73
342.927	-61.86
343.31	-89.21
343.693	-83.78
344.077	-77.68
344.46	-73.39
344.843	-51.92
345.226	-27.97
345.61	-30.68
345.993	-6.72
346.376	10
346.759	15.2
347.142	41.64
347.525	40.06
347.908	44.58
348.291	83.9
348.674	90.45
349.057	115.53
349.44	123.67
349.823	139.49
350.206	187.85
350.588	219.03
350.971	244.57
351.354	242.31
351.737	271.01
352.119	276.66
352.502	275.98
352.884	316.66
353.267	297.45
353.65	328.86
354.032	335.41
354.414	336.54
354.797	341.97
355.179	356.66
355.562	345.13
355.944	362.98
356.326	368.18
356.709	361.63
357.091	382.87
357.473	377.67
357.855	366.83
358.238	387.84
358.62	367.28
359.002	382.19
359.384	372.02
359.766	376.54
360.148	361.4
360.53	368.18
360.912	386.49
361.294	375.41
361.676	350.56
362.057	347.39
362.439	372.02
362.821	349.88
363.203	375.87
363.584	372.7
363.966	368.18
364.348	358.47
364.729	355.3
365.111	363.44
365.493	346.94
365.874	341.52
366.256	362.08
366.637	381.29
367.019	357.34
367.4	371.35
367.781	349.65
368.163	358.92
368.544	360.5
368.925	339.93
369.306	355.08
369.688	368.18
370.069	345.13
370.45	370.22
370.831	354.4
371.212	361.18
371.593	373.15
371.974	370.22
372.355	364.79
372.736	359.37
373.117	388.75
373.498	365.24
373.879	379.71
374.26	384.23
374.641	370.44
375.021	377.67
375.402	386.71
375.783	394.17
376.163	409.76
376.544	403.66
376.925	384
377.305	382.42
377.686	397.79
378.066	389.42
378.447	407.73
378.827	408.18
379.208	431.68
379.588	414.96
379.968	391.91
380.349	403.44
380.729	404.34
381.109	417.67
381.489	410.67
381.87	406.15
382.25	434.62
382.63	414.28
383.01	430.33
383.39	438.01
383.77	425.36
384.15	426.71
384.53	425.13
384.91	449.31
385.29	445.69
385.67	444.79
386.049	453.15
386.429	451.34
386.809	450.89
387.189	460.38
387.568	467.39
387.948	451.34
388.328	477.56
388.707	454.28
389.087	466.94
389.466	480.27
389.846	488.86
390.225	482.08
390.605	487.28
390.984	495.64
391.363	512.13
391.743	508.52
392.122	517.56
392.501	512.36
392.881	506.71
393.26	533.15
393.639	523.21
394.018	539.7
394.397	532.47
394.776	551.91
395.155	565.47
395.534	556.65
395.913	576.31
396.292	568.86
396.671	562.08
397.05	575.63
397.429	540.61
397.808	584.67
398.186	597.1
398.565	601.62
398.944	609.31
399.323	605.92
399.701	615.18
400.08	621.28
400.458	610.21
400.837	608.85
401.215	644.79
401.594	625.58
401.972	662.41
402.351	665.12
402.729	680.72
403.107	666.25
403.486	662.41
403.864	689.76
404.242	685.46
404.62	681.17
404.999	707.16
405.377	735.4
405.755	733.6
406.133	744.67
406.511	758.91
406.889	760.49
407.267	776.53
407.645	816.31
408.023	812.01
408.401	822.18
408.779	814.5
409.156	856.31
409.534	859.02
409.912	863.08
410.29	913.48
410.667	925
411.045	932.69
411.422	927.49
411.8	980.6
412.178	986.47
412.555	1006.58
412.933	1028.28
413.31	1033.7
413.687	1059.01
414.065	1086.36
414.442	1085
414.819	1103.53
415.197	1141.72
415.574	1130.42
415.951	1178.56
416.328	1155.51
416.705	1205.22
417.082	1198.9
417.46	1221.49
417.837	1261.49
418.214	1258.33
418.591	1279.57
418.967	1297.42
419.344	1299.68
419.721	1346.69
420.098	1322.73
420.475	1365.67
420.852	1387.82
421.228	1384.43
421.605	1426.91
421.982	1400.92
422.358	1448.61
422.735	1464.88
423.111	1482.5
423.488	1507.81
423.864	1529.51
424.241	1552.78
424.617	1560.69
424.994	1572.9
425.37	1595.27
425.746	1619.67
426.123	1640.24
426.499	1638.88
426.875	1688.15
427.251	1708.03
427.627	1744.19
428.003	1742.84
428.379	1775.15
428.756	1814.47
429.132	1829.84
429.507	1877.97
429.883	1908.25
430.259	1927.01
430.635	1922.94
431.011	1944.19
431.387	2009.5
431.763	2029.16
432.138	2061.7
432.514	2106.67
432.89	2103.28
433.265	2138.53
433.641	2179.21
434.016	2201.58
434.392	2255.59
434.767	2291.97
435.143	2305.98
435.518	2336.04
435.894	2374.91
436.269	2425.08
436.644	2465.08
437.02	2531.52
437.395	2513.89
437.77	2545.07
438.145	2562.7
438.52	2580.1
438.895	2624.62
439.271	2666.65
439.646	2651.29
440.021	2741.45
440.395	2741.91
440.77	2691.74
441.145	2755.01
441.52	2814.67
441.895	2809.47
442.27	2867.78
442.645	2846.76
443.019	2916.14
443.394	2900.55
443.769	2922.24
444.143	2960.43
444.518	2983.93
444.892	2959.98
445.267	2976.7
445.641	3053.08
446.016	3053.76
446.39	3103.93
446.764	3155.68
447.139	3103.48
447.513	3148.67
447.887	3158.84
448.262	3175.11
448.636	3192.74
449.01	3220.31
449.384	3287.88
449.758	3294.66
450.132	3363.58
450.506	3378.5
450.88	3412.17
451.254	3421.21
451.628	3477.93
452.002	3525.16
452.376	3571.26
452.75	3541.66
453.123	3593.63
453.497	3659.4
453.871	3685.61
454.244	3744.14
454.618	3808.77
454.992	3866.85
455.365	3868.66
455.739	3922.89
456.112	3999.27
456.486	4087.63
456.859	4100.29
457.232	4152.94
457.606	4215.99
457.979	4275.2
458.352	4305.71
458.725	4379.6
459.099	4402.43
459.472	4470.45
459.845	4557.45
460.218	4596.77
460.591	4632.48
460.964	4702.53
461.337	4742.98
461.71	4861.17
462.083	4925.12
462.456	4950.66
462.829	4999.25
463.201	5041.05
463.574	5041.28
463.947	5140.26
464.32	5261.16
464.692	5274.95
465.065	5281.27
465.438	5383.64
465.81	5436.98
466.183	5487.14
466.555	5600.59
466.928	5710.41
467.3	5679.46
467.672	5774.82
468.045	5882.84
468.417	5890.3
468.789	5959.22
469.161	6032.21
469.534	6120.12
469.906	6213
470.278	6286.9
470.65	6351.08
471.022	6481.69
471.394	6561.69
471.766	6634.91
472.138	6694.8
472.51	6856.6
472.882	6977.73
473.253	6986.31
473.625	7118.29
473.997	7267.66
474.369	7313.31
474.74	7391.73
475.112	7499.75
475.484	7645.96
475.855	7756.24
476.227	7871.49
476.598	8029.68
476.97	8154.19
477.341	8271.48
477.713	8366.39
478.084	8441.87
478.455	8735.65
478.827	8777.9
479.198	9000.95
479.569	8999.82
479.94	9285.46
480.311	9336.31
480.682	9589.41
481.053	9722.74
481.424	9896.07
481.795	9976.97
482.166	10134.48
482.537	10269.62
482.908	10445.21
483.279	10605.43
483.65	10843.84
484.021	11001.35
484.391	11049.71
484.762	11228.91
485.133	11307.33
485.503	11479.75
485.874	11737.37
486.244	11812.18
486.615	12114.31
486.985	12199.51
487.356	12384.14
487.726	12476.56
488.097	12841.53
488.467	12878.59
488.837	13112.93
489.207	13286.49
489.578	13460.04
489.948	13612.81
490.318	13821.84
490.688	13786.36
491.058	14148.16
491.428	14186.58
491.798	14299.79
492.168	14596.73
492.538	14677.41
492.908	14864.07
493.278	15040.79
493.648	15028.36
494.017	15325.98
494.387	15407.33
494.757	15466.54
495.126	15723.94
495.496	15645.75
495.866	15843.26
496.235	15958.05
496.605	16180.65
496.974	16168.9
497.344	16364.82
497.713	16421.32
498.082	16562.56
498.452	16626.06
498.821	16759.16
499.19	16830.35
499.559	16880.29
499.928	16948.99
500.298	17098.82
500.667	17250.9
501.036	17157.12
501.405	17384.01
501.774	17340.62
502.143	17576.77
502.512	17550.56
502.88	17751
503.249	17752.36
503.618	17877.55
503.987	18005.46
504.356	18054.05
504.724	18124.33
505.093	18274.38
505.462	18324.77
505.83	18437.09
506.199	18635.72
506.567	18794.36
506.936	18728.6
507.304	18878.66
507.672	18997.07
508.041	19102.61
508.409	19123.4
508.777	19383.73
509.145	19446.32
509.514	19466.89
509.882	19581.91
510.25	19763.15
510.618	19866.2
510.986	19831.63
511.354	20041.56
511.722	20072.3
512.09	20322.91
512.458	20141
512.826	20470.7
513.193	20566.52
513.561	20627.54
513.929	20669.12
514.297	20901.65
514.664	21041.54
515.032	21097.13
515.4	21311.13
515.767	21312.49
516.135	21409.21
516.502	21387.97
516.869	21782.53
517.237	21834.96
517.604	21739.82
517.972	22167.16
518.339	22219.81
518.706	22328.51
519.073	22362.86
519.44	22458.9
519.808	22735.5
520.175	22789.74
520.542	23019.79
520.909	23170.07
521.276	23186.11
521.643	23421.81
522.009	23503.85
522.376	23635.59
522.743	23783.61
523.11	23952.65
523.477	24253.66
523.843	24260.66
524.21	24481.22
524.577	24621.1
524.943	24777.94
525.31	24854.77
525.676	25039.85
526.043	25266.51
526.409	25366.17
526.776	25586.28
527.142	25622.21
527.508	25794.41
527.874	25952.82
528.241	26068.52
528.607	26207.95
528.973	26431.9
529.339	26359.36
529.705	26631.22
530.071	26765
530.437	26971.1
530.803	27051.55
531.169	27086.12
531.535	27170.42
531.901	27252.22
532.267	27492.67
532.632	27684.07
532.998	27638.2
533.364	27815.82
533.73	27760.23
534.095	27971.07
534.461	27972.65
534.826	28046.1
535.192	28212.42
535.557	28368.58
535.923	28329.03
536.288	28484.28
536.653	28515.69
537.019	28474.56
537.384	28613.99
537.749	28678.17
538.114	28646.76
538.479	28589.59
538.845	28680.66
539.21	28655.12
539.575	28755.23
539.94	28711.39
540.305	28940.31
540.67	28937.15
541.034	28949.13
541.399	28946.87
541.764	29100.76
542.129	29017.15
542.494	29087.88
542.858	29210.59
543.223	29130.82
543.587	29216.24
543.952	29246.07
544.316	29268.89
544.681	29143.7
545.045	29254.65
545.41	29310.25
545.774	29245.84
546.138	29292.17
546.503	29364.48
546.867	29416.68
547.231	29448.77
547.595	29478.6
547.959	29559.28
548.324	29640.63
548.688	29545.04
549.052	29623.01
549.416	29422.11
549.779	29501.88
550.143	29568.54
550.507	29677.24
550.871	29685.38
551.235	29579.39
551.599	29833.17
551.962	29686.51
552.326	29749.78
552.689	29759.73
553.053	29529.9
553.417	29717.69
553.78	29859.38
554.143	29917.69
554.507	29860.74
554.87	29984.58
555.234	30169.21
555.597	29761.99
555.96	30020.06
556.323	30091.47
556.686	30069.1
557.05	30240.39
557.413	30110
557.776	30248.75
558.139	30434.96
558.502	30312.03
558.865	30347.96
559.228	30462.76
559.59	30472.25
559.953	30542.53
560.316	30742.07
560.679	30758.12
561.041	30833.14
561.404	30891.22
561.767	30943.88
562.129	30920.15
562.492	31156.75
562.854	31029.07
563.217	31114.72
563.579	31127.37
563.941	31260.7
564.304	31336.41
564.666	31620.47
565.028	31520.13
565.39	31623.86
565.753	31820.69
566.115	31677.42
566.477	31917.64
566.839	31963.51
567.201	32126.22
567.563	32001.47
567.925	32234.69
568.287	32365.53
568.648	32335.03
569.01	32511.97
569.372	32714.9
569.734	32709.03
570.095	32890.49
570.457	32991.73
570.819	33021.56
571.18	33050.03
571.542	33242.35
571.903	33291.84
572.265	33388.56
572.626	33438.95
572.987	33461.55
573.349	33702
573.71	33759.85
574.071	33794.65
574.432	33964.59
574.794	34161.64
575.155	34276.9
575.516	34150.57
575.877	34279.16
576.238	34295.2
576.599	34382.66
576.96	34574.51
577.32	34510.11
577.681	34630.11
578.042	34842.98
578.403	34846.6
578.763	34879.14
579.124	34962.53
579.485	35172.01
579.845	35234.61
580.206	35146.48
580.566	35233.71
580.927	35221.28
581.287	35482.06
581.648	35343.99
582.008	35629.18
582.368	35456.53
582.728	35605.22
583.089	35575.84
583.449	35645.67
583.809	35800.47
584.169	35910.07
584.529	35689.06
584.889	36154.13
585.249	35853.13
585.609	35807.93
585.969	36020.13
586.329	35957.53
586.688	36155.72
587.048	36115.27
587.408	36155.72
587.768	36168.15
588.127	36106.9
588.487	36166.79
588.846	36539.21
589.206	36151.42
589.565	36219.44
589.925	36523.84
590.284	36538.76
590.643	36593.67
591.003	36517.29
591.362	36981.68
591.721	36774.46
592.08	36845.19
592.44	36932.19
592.799	36886.32
593.158	36995.02
593.517	37066.43
593.876	37107.78
594.235	37055.13
594.593	37121.79
594.952	37151.17
595.311	37135.35
595.67	37336.48
596.029	37555.68
596.387	37615.34
596.746	37633.64
597.104	37540.76
597.463	37560.2
597.822	37981.66
598.18	37744.37
598.538	37833.41
598.897	38032.5
599.255	37885.39
599.613	38314.3
599.972	38090.35
600.33	38114.76
600.688	38159.96
601.046	38246.73
601.404	38397.46
601.762	38332.83
602.12	38632.04
602.478	38627.29
602.836	38529.44
603.194	38365.6
603.552	38552.49
603.91	38508.65
604.268	38777.57
604.625	38729.89
604.983	38941.18
605.341	38757.23
605.698	39100.72
606.056	39304.33
606.413	39083.77
606.771	39336.88
607.128	39140.5
607.485	39296.88
607.843	39422.52
608.2	39418.23
608.557	39585.46
608.914	39632.23
609.272	39856.18
609.629	39942.06
609.986	40173.92
610.343	40019.8
610.7	40250.52
611.057	40263.86
611.414	40075.84
611.771	40383.85
612.127	40384.53
612.484	40472.66
612.841	40579.1
613.198	40471.99
613.554	40589.27
613.911	40790.4
614.267	40798.53
614.624	40711.3
614.98	41012.76
615.337	41340.44
615.693	41128.01
616.05	41033.1
616.406	41308.8
616.762	41161.23
617.118	41362.36
617.475	41315.35
617.831	41481.9
618.187	41542.24
618.543	41451.62
618.899	41902.01
619.255	41729.35
619.611	41624.05
619.967	41814.78
620.323	41917.37
620.678	41858.62
621.034	41756.7
621.39	41872.63
621.746	41985.39
622.101	42280.98
622.457	41997.82
622.812	42268.1
623.168	42205.73
623.523	42169.57
623.879	42424.93
624.234	42138.38
624.589	42349.23
624.945	42263.35
625.3	42365.04
625.655	42368.66
626.01	42309.23
626.365	42440.07
626.72	42355.55
627.075	42345.38
627.43	42354.2
627.785	42386.06
628.14	42454.31
628.495	42555.55
628.85	42520.52
629.205	42291.6
629.559	42628.09
629.914	42326.4
630.269	42407.75
630.623	42283.69
630.978	42248.44
631.332	42392.39
631.687	42347.19
632.041	42294.31
632.396	42414.76
632.75	42273.75
633.104	42295.44
633.459	42125.73
633.813	41957.37
634.167	42046.63
634.521	42064.71
634.875	42113.53
635.229	41921.89
635.583	41831.72
635.937	41835.11
636.291	41918.5
636.645	41778.84
636.999	41702.69
637.352	41938.84
637.706	41510.83
638.06	41869.46
638.413	41649.36
638.767	41413.66
639.121	41648.45
639.474	41473.77
639.828	41546.99
640.181	41323.26
640.534	41594.9
640.888	41243.72
641.241	41109.94
641.594	41169.82
641.947	41352.64
642.301	41211.4
642.654	41183.15
643.007	41064.51
643.36	41317.84
643.713	41128.69
644.066	41293.43
644.419	41040.11
644.771	40679.44
645.124	40364.87
645.477	40310.63
645.83	40124.43
646.182	40112.9
646.535	40164.65
646.888	40188.15
647.24	40015.28
647.593	40289.84
647.945	40018.89
648.298	39998.33
648.65	39801.72
649.002	39823.87
649.355	39680.37
649.707	39679.69
650.059	39650.99
650.411	40118.78
650.763	40359.22
651.115	40931.86
651.467	40657.52
651.819	40742.04
652.171	40780.91
652.523	40695.26
652.875	40719.44
653.227	40598.54
653.578	40973.67
653.93	40629.95
654.282	40677.18
654.633	40549.27
654.985	40836.72
655.337	40735.48
655.688	40611.42
656.039	40941.8
656.391	40426.34
656.742	40672.89
657.094	40691.87
657.445	40743.17
657.796	40818.42
658.147	40671.3
658.498	40850.51
658.849	40861.13
659.2	40714.24
659.551	40713.79
659.902	40990.39
660.253	40864.07
660.604	40993.55
660.955	40792.2
661.306	41225.87
661.656	40884.18
662.007	40919.88
662.358	41132.31
662.708	40942.26
663.059	40910.39
663.409	40888.47
663.76	40998.75
664.11	41118.75
664.461	41143.61
664.811	41219.09
665.161	41026.1
665.511	41092.08
665.862	41115.81
666.212	41267.22
666.562	41235.58
666.912	41295.02
667.262	41036.72
667.612	41041.46
667.962	41198.07
668.312	41024.74
668.662	41326.43
669.011	41185.87
669.361	41165.75
669.711	41192.19
670.06	41227.22
670.41	41062.48
670.76	40960.56
671.109	41185.41
671.459	41041.01
671.808	41079.43
672.157	41223.38
672.507	40996.04
672.856	40971.86
673.205	41023.38
673.554	41182.25
673.904	41001.01
674.253	41219.76
674.602	40998.75
674.951	40482.83
675.3	40254.37
675.649	40788.14
675.998	41046.66
676.346	41057.51
676.695	40981.8
677.044	40636.05
677.393	40778.87
677.741	40728.48
678.09	40778.19
678.438	40517.41
678.787	40686.9
679.135	40554.02
679.484	40376.17
679.832	40616.16
680.181	40458.65
680.529	40296.62
680.877	40280.58
681.225	40199
681.573	40382.27
681.922	40107.48
682.27	40050.75
682.618	40044.2
682.966	39955.84
683.314	39944.99
683.661	39890.08
684.009	39761.95
684.357	39808.28
684.705	39575.97
685.053	39582.74
685.4	39340.94
685.748	39269.08
686.095	39402.86
686.443	39125.13
686.79	39123.77
687.138	39160.61
687.485	39092.81
687.832	38810.11
688.18	38920.39
688.527	38737.12
688.874	38655.76
689.221	38609.66
689.568	38371.25
689.915	38229.33
690.262	38109.11
690.609	38171.26
690.956	37865.05
691.303	37934.65
691.65	37656.24
691.997	37626.19
692.344	37436.13
692.69	37158.4
693.037	37395.01
693.383	36956.6
693.73	37094.9
694.077	36948.69
694.423	36863.27
694.769	36719.77
695.116	36631.86
695.462	36379.89
695.808	36238.65
696.155	36294.02
696.501	35956.63
696.847	36014.93
697.193	35735.61
697.539	35882.5
697.885	35508.28
698.231	35425.11
698.577	35308.73
698.923	35220.6
699.269	34854.73
699.614	34878.69
699.96	34634.4
700.306	34664
700.651	34578.58
700.997	34313.96
701.342	34206.61
701.688	34106.28
702.033	33974.76
702.379	34018.37
702.724	33718.72
703.069	33736.12
703.415	33299.97
703.76	33358.28
704.105	33370.03
704.45	33329.12
704.795	33098.85
705.14	32982.01
705.485	32947.66
705.83	32764.62
706.175	32772.08
706.52	32587.67
706.865	32555.36
707.209	32457.51
707.554	32315.36
707.899	32218.19
708.243	31979.1
708.588	32064.52
708.932	31781.59
709.277	31983.17
709.621	31803.51
709.966	31591.99
710.31	31661.6
710.654	31365.79
710.998	31560.81
711.342	31553.58
711.687	31337.76
712.031	31345.22
712.375	31138.45
712.719	31223.64
713.063	31112.23
713.407	31187.49
713.75	31004.44
714.094	30968.28
714.438	30983.42
714.782	30944.1
715.125	30666.37
715.469	30923.76
715.812	30619.36
716.156	30582.08
716.499	30570.78
716.843	30644.45
717.186	30484.23
717.53	30649.65
717.873	30559.7
718.216	30543.43
718.559	30488.07
718.902	30172.6
719.246	30330.33
719.589	30234.97
719.932	30134.86
720.275	30180.96
720.617	30218.47
720.96	30088.76
721.303	30197.45
721.646	30246.04
721.989	30075.65
722.331	30208.98
722.674	30081.75
723.016	30249.88
723.359	30098.25
723.701	30127.63
724.044	29991.36
724.386	29921.08
724.729	30127.17
725.071	30110.45
725.413	30014.63
725.755	29863.45
726.097	29913.85
726.439	29888.99
726.782	29943.68
727.124	30159.94
727.465	30072.03
727.807	29837.01
728.149	30071.58
728.491	29938.93
728.833	29917.91
729.175	29945.71
729.516	29959.27
729.858	29896.67
730.199	29960.85
730.541	30029.1
730.882	29957.01
731.224	29990.68
731.565	30009.44
731.906	30027.52
732.248	30063.67
732.589	30001.53
732.93	29882.43
733.271	30056.67
733.612	30107.97
733.953	30287.4
734.294	30209.43
734.635	30229.32
734.976	30347.96
735.317	30309.54
735.658	30301.63
735.999	30274.97
736.339	30189.77
736.68	30235.65
737.021	30489.42
737.361	30380.5
737.702	30594.05
738.042	30487.84
738.383	30700.72
738.723	30701.85
739.063	30592.7
739.404	30935.97
739.744	30870.21
740.084	30774.39
740.424	30933.25
740.764	30998.11
741.104	31186.13
741.444	31090.99
741.784	31061.16
742.124	31341.61
742.464	31285.79
742.804	31360.59
743.143	31421.83
743.483	31612.78
743.823	31499.12
744.162	31662.27
744.502	31826.11
744.841	31861.59
745.181	32017.52
745.52	31994.24
745.86	32238.76
746.199	32236.05
746.538	32349.71
746.877	32596.71
747.216	32712.87
747.556	32614.57
747.895	32898.4
748.234	32884.84
748.573	32978.85
748.911	32991.51
749.25	33182.01
749.589	33173.2
749.928	33491.83
750.267	33633.52
750.605	33623.58
750.944	33853.63
751.283	33906.06
751.621	34250.23
751.96	34050.91
752.298	34338.81
752.636	34466.27
752.975	34547.62
753.313	34751.23
753.651	34977.67
