Data from 277_FLMS001491_009.txt Node
Date: Thu Apr 19 16:45:16 BST 2018
User: hsy
Spectrometer: FLMS00149
Trigger mode: 0
Integration Time (sec): 1.000000E-2
Scans to average: 10
Electric dark correction enabled: true
Nonlinearity correction enabled: false
Boxcar width: 0
XAxis mode: Wavelengths
Number of Pixels in Spectrum: 2048
>>>>>Begin Spectral Data<<<<<
341.393	-11.91
341.776	-11.91
342.16	-11.91
342.543	-65.69
342.927	-48.29
343.31	-64.56
343.693	-67.05
344.077	-64.56
344.46	-66.82
344.843	-40.61
345.226	-35.86
345.61	-51
345.993	-15.75
346.376	-11.23
346.759	-4.68
347.142	49.33
347.525	74.87
347.908	54.98
348.291	58.37
348.674	74.87
349.057	109.67
349.44	136.56
349.823	155.09
350.206	165.04
350.588	224.47
350.971	247.52
351.354	265.6
351.737	280.06
352.119	290.46
352.502	282.78
352.884	310.8
353.267	331.81
353.65	325.94
354.032	326.62
354.414	318.48
354.797	350.8
355.179	380.63
355.562	344.24
355.944	389.21
356.326	362.77
356.709	376.78
357.091	380.85
357.473	400.29
357.855	414.3
358.238	373.85
358.62	387.86
359.002	372.49
359.384	380.17
359.766	390.57
360.148	390.34
360.53	388.08
360.912	364.58
361.294	392.15
361.676	390.12
362.057	376.56
362.439	365.94
362.821	384.24
363.203	363.22
363.584	370.23
363.966	370.91
364.348	371.36
364.729	354.41
365.111	365.48
365.493	360.74
365.874	371.36
366.256	342.89
366.637	350.34
367.019	376.56
367.4	361.64
367.781	386.73
368.163	386.28
368.544	376.11
368.925	377.01
369.306	357.12
369.688	351.02
370.069	364.81
370.45	378.82
370.831	372.26
371.212	371.81
371.593	378.37
371.974	373.39
372.355	376.56
372.736	370.46
373.117	387.63
373.498	369.55
373.879	358.93
374.26	398.25
374.641	376.78
375.021	353.28
375.402	390.57
375.783	395.09
376.163	398.7
376.544	369.33
376.925	405.26
377.305	401.42
377.686	388.76
378.066	400.96
378.447	407.07
378.827	401.19
379.208	407.07
379.588	409.55
379.968	415.2
380.349	416.78
380.729	404.58
381.109	441.19
381.489	421.3
381.87	427.63
382.25	438.03
382.63	431.25
383.01	424.69
383.39	426.27
383.77	458.14
384.15	452.49
384.53	452.94
384.91	433.28
385.29	464.24
385.67	441.41
386.049	456.33
386.429	473.73
386.809	462.88
387.189	463.79
387.568	473.73
387.948	477.35
388.328	465.37
388.707	480.06
389.087	476.22
389.466	475.54
389.846	497.91
390.225	490.68
390.605	503.33
390.984	490.23
391.363	518.93
391.743	522.77
392.122	504.46
392.501	540.62
392.881	550.79
393.26	541.75
393.639	560.73
394.018	544.24
394.397	563.45
394.776	557.57
395.155	589.89
395.534	566.38
395.913	568.87
396.292	582.43
396.671	592.6
397.05	609.09
397.429	588.53
397.808	596.21
398.186	614.74
398.565	600.51
398.944	616.1
399.323	638.47
399.701	628.3
400.08	656.1
400.458	630.56
400.837	652.93
401.215	654.74
401.594	661.3
401.972	664.46
402.351	672.14
402.729	671.01
403.107	670.56
403.486	703.55
403.864	708.3
404.242	716.21
404.62	730.45
404.999	707.62
405.377	753.72
405.755	756.66
406.133	779.49
406.511	790.56
406.889	791.91
407.267	813.83
407.645	812.7
408.023	834.4
408.401	861.97
408.779	875.08
409.156	885.47
409.534	893.83
409.912	887.96
410.29	925.24
410.667	936.54
411.045	958.69
411.422	969.99
411.8	1007.05
412.178	1016.54
412.555	1048.4
412.933	1060.83
413.31	1060.38
413.687	1103.09
414.065	1126.14
414.442	1139.7
414.819	1143.09
415.197	1179.93
415.574	1148.74
415.951	1200.72
416.328	1205.69
416.705	1238.91
417.082	1242.75
417.46	1275.29
417.837	1296.76
418.214	1299.92
418.591	1315.52
418.967	1347.83
419.344	1352.35
419.721	1375.63
420.098	1395.97
420.475	1414.5
420.852	1404.78
421.228	1439.35
421.605	1475.06
421.982	1488.17
422.358	1513.25
422.735	1525
423.111	1540.37
423.488	1555.51
423.864	1578.56
424.241	1572.46
424.617	1624.66
424.994	1630.31
425.37	1643.64
425.746	1686.58
426.123	1662.17
426.499	1694.04
426.875	1738.56
427.251	1785.11
427.627	1803.64
428.003	1851.1
428.379	1849.06
428.756	1858.55
429.132	1905.56
429.507	1916.63
429.883	1987.59
430.259	1976.97
430.635	1966.57
431.011	2035.72
431.387	2075.04
431.763	2079.56
432.138	2142.84
432.514	2124.53
432.89	2165.21
433.265	2254.47
433.641	2240.92
434.016	2247.92
434.392	2328.6
434.767	2316.85
435.143	2359.56
435.518	2395.26
435.894	2447.46
436.269	2492.89
436.644	2517.97
437.02	2532.89
437.395	2571.3
437.77	2621.02
438.145	2641.36
438.52	2682.26
438.895	2705.54
439.271	2758.42
439.646	2792.54
440.021	2814.69
440.395	2811.97
440.77	2785.08
441.145	2865.98
441.52	2913.21
441.895	2931.07
442.27	2985.08
442.645	2957.96
443.019	2990.5
443.394	2978.75
443.769	3016.04
444.143	3036.15
444.518	3069.59
444.892	3052.65
445.267	3126.99
445.641	3144.85
446.016	3167.67
446.39	3181.23
446.764	3221.23
447.139	3239.08
447.513	3233.21
447.887	3291.06
448.262	3269.14
448.636	3286.76
449.01	3299.42
449.384	3390.72
449.758	3392.75
450.132	3445.63
450.506	3450.38
450.88	3537.83
451.254	3526.76
451.628	3600.65
452.002	3594.55
452.376	3668.9
452.75	3636.81
453.123	3702.8
453.497	3748.9
453.871	3811.04
454.244	3900.53
454.618	3932.4
454.992	3970.81
455.365	4008.33
455.739	4063.01
456.112	4118.38
456.486	4197.93
456.859	4185.72
457.232	4295.55
457.606	4331.93
457.979	4391.37
458.352	4456
458.725	4490.57
459.099	4569.67
459.472	4659.38
459.845	4681.53
460.218	4708.65
460.591	4790
460.964	4802.88
461.337	4897.12
461.71	5027.51
462.083	5045.36
462.456	5089.65
462.829	5099.82
463.201	5229.76
463.574	5263.21
463.947	5311.34
464.32	5425.46
464.692	5457.55
465.065	5541.17
465.438	5526.93
465.81	5655.52
466.183	5676.08
466.555	5819.35
466.928	5912.46
467.3	5838.11
467.672	5955.85
468.045	6034.26
468.417	6083.98
468.789	6150.64
469.161	6229.96
469.534	6310.19
469.906	6386.8
470.278	6500.69
470.65	6501.37
471.022	6678.99
471.394	6737.29
471.766	6845.77
472.138	6914.92
472.51	7059.09
472.882	7114.23
473.253	7201.69
473.625	7385.19
473.997	7454.11
474.369	7521.23
474.74	7624.95
475.112	7752.18
475.484	7849.81
475.855	8017.71
476.227	8124.15
476.598	8281.66
476.97	8330.02
477.341	8522.56
477.713	8671.03
478.084	8678.26
478.455	8987.18
478.827	9028.31
479.198	9274.85
479.569	9324.57
479.94	9544
480.311	9626.71
480.682	9863.09
481.053	10027.15
481.424	10227.6
481.795	10286.35
482.166	10487.7
482.537	10614.25
482.908	10787.58
483.279	10915.04
483.65	11161.13
484.021	11362.26
484.391	11400.22
484.762	11633.66
485.133	11655.58
485.503	11864.62
485.874	12087.89
486.244	12220.31
486.615	12445.17
486.985	12560.19
487.356	12817.13
487.726	12879.73
488.097	13234.75
488.467	13362.88
488.837	13558.58
489.207	13615.76
489.578	13863.66
489.948	14059.81
490.318	14244.89
490.688	14272.69
491.058	14514.72
491.428	14705.22
491.798	14800.81
492.168	15041.48
492.538	15144.08
492.908	15387.69
493.278	15594.91
493.648	15615.03
494.017	15748.13
494.387	15897.51
494.757	16000.55
495.126	16154.9
495.496	16321.9
495.866	16359.87
496.235	16538.39
496.605	16640.54
496.974	16679.18
497.344	16857.71
497.713	16985.61
498.082	17011.37
498.452	17198.04
498.821	17339.95
499.19	17347.41
499.559	17538.59
499.928	17581.98
500.298	17760.51
500.667	17924.8
501.036	17914.63
501.405	18039.82
501.774	18083.44
502.143	18147.39
502.512	18283.88
502.88	18444.11
503.249	18448.63
503.618	18623.08
503.987	18674.16
504.356	18829.86
504.724	18871.66
505.093	18849.74
505.462	18986.69
505.83	19123.64
506.199	19223.75
506.567	19312.78
506.936	19456.96
507.304	19688.14
507.672	19731.98
508.041	19713.45
508.409	19993.9
508.777	20156.83
509.145	20195.92
509.514	20212.19
509.882	20354.11
510.25	20446.31
510.618	20466.2
510.986	20549.36
511.354	20767.89
511.722	20963.14
512.09	21006.3
512.458	21100.08
512.826	21180.76
513.193	21336.91
513.561	21347.53
513.929	21437.25
514.297	21733.28
514.664	21848.08
515.032	21939.38
515.4	22141.86
515.767	22192.48
516.135	22237.68
516.502	22234.51
516.869	22559.25
517.237	22662.53
517.604	22555.64
517.972	22942.74
518.339	23049.18
518.706	23148.16
519.073	23269.74
519.44	23309.29
519.808	23586.34
520.175	23561.71
520.542	23903.85
520.909	23852.1
521.276	23987.69
521.643	24311.75
522.009	24328.47
522.376	24392.42
522.743	24540.89
523.11	24823.15
523.477	25160.76
523.843	25174.78
524.21	25493.86
524.577	25597.82
524.943	25718.72
525.31	25795.32
525.676	25986.73
526.043	26323.9
526.409	26291.81
526.776	26540.62
527.142	26672.82
527.508	26805.24
527.874	27009.53
528.241	27235.74
528.607	27318.67
528.973	27557.54
529.339	27479.12
529.705	27741.71
530.071	27938.09
530.437	28101.48
530.803	28074.59
531.169	28317.52
531.535	28320.46
531.901	28413.33
532.267	28495.82
532.632	28687.9
532.998	28704.85
533.364	28948.69
533.73	28920.89
534.095	29181.9
534.461	29058.29
534.826	29340.77
535.192	29400.2
535.557	29484.72
535.923	29511.16
536.288	29611.04
536.653	29733.3
537.019	29609.24
537.384	29772.4
537.749	29796.12
538.114	29950.24
538.479	29839.06
538.845	29777.82
539.21	29964.93
539.575	29922.9
539.94	30062.56
540.305	30213.06
540.67	30106.17
541.034	30081.77
541.399	30228.2
541.764	30209.9
542.129	30212.16
542.494	30237.47
542.858	30394.98
543.223	30342.1
543.587	30593.62
543.952	30335.77
544.316	30498.25
544.681	30341.65
545.045	30598.36
545.41	30578.93
545.774	30550.45
546.138	30620.73
546.503	30577.8
546.867	30567.4
547.231	30659.6
547.595	30591.81
547.959	30820.73
548.324	30723.1
548.688	30743.22
549.052	30776.66
549.416	30797.9
549.779	30835.87
550.143	30873.84
550.507	31007.62
550.871	30924
551.235	30866.6
551.599	31187.27
551.962	31144.79
552.326	31060.95
552.689	31033.38
553.053	30941.4
553.417	31084.9
553.78	31251.9
554.143	31366.03
554.507	31244.45
554.87	31307.27
555.234	31541.61
555.597	31350.43
555.96	31418.91
556.323	31465.91
556.686	31421.39
557.05	31701.84
557.413	31580.71
557.776	31518.56
558.139	31712.46
558.502	31726.92
558.865	31622.97
559.228	31902.73
559.59	31825.67
559.953	31959.91
560.316	32142.73
560.679	32056.63
561.041	32210.07
561.404	32224.08
561.767	32485.54
562.129	32254.14
562.492	32579.33
562.854	32642.83
563.217	32603.96
563.579	32744.52
563.941	32790.85
564.304	32929.37
564.666	33169.59
565.028	32971.63
565.39	33169.59
565.753	33217.5
566.115	33261.12
566.477	33424.73
566.839	33496.37
567.201	33758.51
567.563	33554.44
567.925	33755.57
568.287	33835.34
568.648	33899.52
569.01	34030.36
569.372	34281.43
569.734	34133.64
570.095	34464.25
570.457	34496.11
570.819	34443.68
571.18	34572.49
571.542	34726.84
571.903	34629.67
572.265	34942.65
572.626	35074.85
572.987	35012.71
573.349	35303.1
573.71	35299.26
574.071	35343.32
574.432	35494.73
574.794	35849.3
575.155	35749.19
575.516	35686.14
575.877	35861.73
576.238	35870.09
576.599	36086.35
576.96	36077.99
577.32	35965.45
577.681	36157.99
578.042	36309.85
578.403	36252
578.763	36410.19
579.124	36442.05
579.485	36680.69
579.845	36890.4
580.206	36722.04
580.566	36699.44
580.927	36766.11
581.287	36856.95
581.648	36831.19
582.008	37094.69
582.368	36990.51
582.728	37166.33
583.089	37259.43
583.449	37290.39
583.809	37122.71
584.169	37305.3
584.529	37298.07
584.889	37707.1
585.249	37255.36
585.609	37335.13
585.969	37498.52
586.329	37631.85
586.688	37697.84
587.048	37756.82
587.408	37674.56
587.768	37720.21
588.127	37853.09
588.487	37782.58
588.846	38064.83
589.206	37745.07
589.565	37996.36
589.925	38274.09
590.284	38062.8
590.643	38216.92
591.003	38245.39
591.362	38408.1
591.721	38356.58
592.08	38357.03
592.44	38572.39
592.799	38511.83
593.158	38550.47
593.517	38588.21
593.876	38742.1
594.235	38893.29
594.593	38697.36
594.952	38888.09
595.311	38798.15
595.67	39095.99
596.029	39108.42
596.387	39191.58
596.746	39278.59
597.104	39080.85
597.463	39102.09
597.822	39338.47
598.18	39330.79
598.538	39280.17
598.897	39605.81
599.255	39382.31
599.613	39838.8
599.972	39571.23
600.33	39748.63
600.688	39703.43
601.046	39951.34
601.404	39929.19
601.762	39980.49
602.12	40066.36
602.478	40214.15
602.836	40211.22
603.194	39982.3
603.552	40339.12
603.91	40268.39
604.268	40328.5
604.625	40222.97
604.983	40532.11
605.341	40316.98
605.698	40552.68
606.056	40844.87
606.413	40531.21
606.771	40801.71
607.128	40810.97
607.485	40750.41
607.843	40874.93
608.2	41093.68
608.557	41354.46
608.914	41106.56
609.272	41381.58
609.629	41494.8
609.986	41786.09
610.343	41572.76
610.7	41829.93
611.057	41846.88
611.414	41810.04
611.771	42113.77
612.127	42132.97
612.484	42007.33
612.841	42194.22
613.198	42161.22
613.554	42098.85
613.911	42507.2
614.267	42466.07
614.624	42566.86
614.98	42697.03
615.337	42857.02
615.693	42885.95
616.05	42798.95
616.406	43089.56
616.762	42873.97
617.118	42927.08
617.475	43002.33
617.831	43177.69
618.187	43211.82
618.543	43207.52
618.899	43450.23
619.255	43421.53
619.611	43431.47
619.967	43550.79
620.323	43775.64
620.678	43454.52
621.034	43470.57
621.39	43522.54
621.746	43609.77
622.101	43914.4
622.457	43629.66
622.812	43982.87
623.168	44040.27
623.523	44007.28
623.879	44249.75
624.234	43964.56
624.589	44014.73
624.945	44087.5
625.3	44141.96
625.655	44009.08
626.01	44169.53
626.365	44282.52
626.72	44127.5
627.075	44095.41
627.43	44254.73
627.785	44032.81
628.14	44078.01
628.495	44122.98
628.85	44144.9
629.205	44125.24
629.559	44198.23
629.914	44160.04
630.269	44069.65
630.623	43925.7
630.978	43912.14
631.332	44121.4
631.687	44080.27
632.041	43897.22
632.396	43913.04
632.75	43902.87
633.104	43942.87
633.459	43734.51
633.813	43716.89
634.167	43793.5
634.521	43735.19
634.875	43880.72
635.229	43685.7
635.583	43440.28
635.937	43553.28
636.291	43645.02
636.645	43549.89
636.999	43283.9
637.352	43471.02
637.706	43316.45
638.06	43396.67
638.413	43294.98
638.767	43193.06
639.121	43196.22
639.474	43128.2
639.828	43143.57
640.181	42993.52
640.534	43123
640.888	42914.42
641.241	42744.48
641.594	42878.04
641.947	42982.44
642.301	42867.64
642.654	42977.47
643.007	42834.65
643.36	42911.48
643.713	42893.41
644.066	42989
644.419	42694.99
644.771	42282.12
645.124	42063.82
645.477	42056.82
645.83	41801.46
646.182	41870.16
646.535	41653.89
646.888	41805.98
647.24	41648.92
647.593	41880.55
647.945	41659.99
648.298	41570.95
648.65	41551.29
649.002	41429.72
649.355	41238.53
649.707	41191.76
650.059	41289.38
650.411	41934.56
650.763	42011.85
651.115	42615.67
651.467	42351.73
651.819	42480.31
652.171	42348.56
652.523	42472.17
652.875	42392.85
653.227	42212.07
653.578	42543.58
653.93	42439.63
654.282	42173.42
654.633	42206.19
654.985	42267.89
655.337	42417.03
655.688	42335.91
656.039	42549.46
656.391	42271.95
656.742	42359.18
657.094	42438.28
657.445	42542.68
657.796	42502
658.147	42404.15
658.498	42450.48
658.849	42582.45
659.2	42392.4
659.551	42354.66
659.902	42628.33
660.253	42458.16
660.604	42529.57
660.955	42417.71
661.306	42659.97
661.656	42559.86
662.007	42514.21
662.358	42636.24
662.708	42611.15
663.059	42594.43
663.409	42368.45
663.76	42788.78
664.11	42791.04
664.461	42930.02
664.811	42777.02
665.161	42709.68
665.511	42579.06
665.862	42754.65
666.212	42784.71
666.562	42831.26
666.912	42798.72
667.262	42630.59
667.612	42703.13
667.962	42826.52
668.312	42786.06
668.662	42871.49
669.011	42916.46
669.361	42846.18
669.711	42848.21
670.06	42774.54
670.41	42655.67
670.76	42626.75
671.109	42807.53
671.459	42766.18
671.808	42805.5
672.157	42803.46
672.507	42592.62
672.856	42501.78
673.205	42496.13
673.554	42671.94
673.904	42524.38
674.253	42775.22
674.602	42524.15
674.951	42021.34
675.3	41708.8
675.649	42356.47
675.998	42431.27
676.346	42464.94
676.695	42598.5
677.044	42200.32
677.393	42274.67
677.741	42319.64
678.09	42303.59
678.438	42207.1
678.787	42138.85
679.135	42186.53
679.484	41869.25
679.832	41998.74
680.181	41885.3
680.529	41944.96
680.877	41818.86
681.225	41858.41
681.573	42062.47
681.922	41729.14
682.27	41604.63
682.618	41649.37
682.966	41444.86
683.314	41627.22
683.661	41451.86
684.009	41259.32
684.357	41273.11
684.705	41109.27
685.053	41139.1
685.4	40906.34
685.748	40793.57
686.095	40690.07
686.443	40532.56
686.79	40504.99
687.138	40608.72
687.485	40354.94
687.832	40339.35
688.18	40348.84
688.527	39970.77
688.874	40060.94
689.221	39954.5
689.568	39806.48
689.915	39705.69
690.262	39672.93
690.609	39595.19
690.956	39308.64
691.303	39315.42
691.65	39199.49
691.997	38995.66
692.344	38934.87
692.69	38831.82
693.037	38974.87
693.383	38454.65
693.73	38489
694.077	38238.39
694.423	38353.86
694.769	38140.31
695.116	38100.09
695.462	37917.72
695.808	37731.73
696.155	37750.72
696.501	37562.25
696.847	37572.42
697.193	37254.68
697.539	37124.29
697.885	36924.52
698.231	36796.84
698.577	36828.93
698.923	36643.85
699.269	36332.22
699.614	36213.81
699.96	35994.83
700.306	36132.45
700.651	35980.37
700.997	35859.47
701.342	35822.86
701.688	35736.98
702.033	35391.46
702.379	35433.72
702.724	35286.6
703.069	35249.99
703.415	34758.7
703.76	34702.21
704.105	34770.23
704.45	34602.1
704.795	34523
705.14	34384.03
705.485	34411.82
705.83	34097.48
706.175	34310.58
706.52	34085.73
706.865	33878.28
707.209	33870.59
707.554	33661.78
707.899	33787.43
708.243	33674.67
708.588	33437.84
708.932	33292.53
709.277	33291.4
709.621	33102.48
709.966	32947.23
710.31	32981.35
710.654	32750.17
710.998	32782.94
711.342	32878.08
711.687	32728.7
712.031	32713.79
712.375	32535.26
712.719	32523.51
713.063	32370.97
713.407	32606.67
713.75	32452.1
714.094	32250.07
714.438	32209.62
714.782	32299.79
715.125	32257.98
715.469	32133.69
715.812	31989.29
716.156	31954.03
716.499	31907.25
716.843	31974.15
717.186	31889.18
717.53	32004.88
717.873	31916.75
718.216	31883.07
718.559	31687.82
718.902	31625.45
719.246	31598.79
719.589	31585.91
719.932	31485.8
720.275	31627.94
720.617	31603.76
720.96	31500.94
721.303	31566.02
721.646	31738.9
721.989	31323.99
722.331	31474.72
722.674	31332.13
723.016	31463.42
723.359	31328.74
723.701	31382.3
724.044	31289.87
724.386	31139.14
724.729	31516.08
725.071	31394.27
725.413	31345.01
725.755	31292.81
726.097	31300.04
726.439	31180.72
726.782	31403.76
727.124	31427.49
727.465	31321.05
727.807	31295.97
728.149	31264.33
728.491	31255.29
728.833	31269.98
729.175	31298.91
729.516	31299.59
729.858	31217.55
730.199	31423.2
730.541	31283.77
730.882	31383.43
731.224	31414.16
731.565	31420.94
731.906	31473.59
732.248	31484.67
732.589	31390.66
732.93	31245.8
733.271	31403.76
733.612	31445.57
733.953	31695.51
734.294	31533.25
734.635	31518.11
734.976	31638.11
735.317	31484.44
735.658	31611.67
735.999	31642.63
736.339	31633.14
736.68	31719.46
737.021	31662.29
737.361	31751.78
737.702	31989.96
738.042	31853.47
738.383	31968.72
738.723	32059.57
739.063	31973.92
739.404	32156.97
739.744	32162.16
740.084	32149.96
740.424	32527.35
740.764	32365.1
741.104	32502.27
741.444	32384.53
741.784	32391.99
742.124	32608.03
742.464	32694.58
742.804	32625.43
743.143	32666.56
743.483	32972.54
743.823	32765.99
744.162	33015.25
744.502	33100.67
744.841	33144.06
745.181	33419.3
745.52	33368.46
745.86	33447.1
746.199	33475.12
746.538	33675.12
746.877	33905.62
747.216	33960.99
747.556	33958.95
747.895	34296.57
748.234	34208.66
748.573	34438.94
748.911	34519.61
749.25	34568.65
749.589	34503.34
749.928	34702.66
750.267	34941.98
750.605	35084.8
750.944	35154.17
751.283	35259.03
751.621	35361.85
751.96	35549.42
752.298	35648.4
752.636	35848.85
752.975	35850.88
753.313	35972.46
