Data from 291_FLMS001491_001.txt Node
Date: Thu Apr 19 16:45:34 BST 2018
User: hsy
Spectrometer: FLMS00149
Trigger mode: 0
Integration Time (sec): 1.000000E-2
Scans to average: 10
Electric dark correction enabled: true
Nonlinearity correction enabled: false
Boxcar width: 0
XAxis mode: Wavelengths
Number of Pixels in Spectrum: 2048
>>>>>Begin Spectral Data<<<<<
341.393	-22.73
341.776	-22.73
342.16	-22.73
342.543	-58.88
342.927	-71.09
343.31	-79.9
343.693	-64.08
344.077	-59.11
344.46	-54.81
344.843	-43.29
345.226	-51.88
345.61	-29.73
345.993	-50.97
346.376	17.27
346.759	23.15
347.142	18.18
347.525	43.71
347.908	51.85
348.291	81.45
348.674	83.49
349.057	114.67
349.44	128.68
349.823	137.95
350.206	168.68
350.588	222.01
350.971	254.33
351.354	248.23
351.737	246.42
352.119	290.26
352.502	283.93
352.884	315.12
353.267	310.83
353.65	300.88
354.032	324.61
354.414	332.07
354.797	332.52
355.179	334.33
355.562	341.11
355.944	357.15
356.326	353.99
356.709	374.1
357.091	380.88
357.473	368.22
357.855	363.93
358.238	354.89
358.62	380.65
359.002	372.52
359.384	358.51
359.766	359.64
360.148	380.43
360.53	356.25
360.912	375.46
361.294	381.78
361.676	368.45
362.057	378.85
362.439	370.48
362.821	377.72
363.203	390.82
363.584	350.82
363.966	367.77
364.348	375.23
364.729	363.03
365.111	369.13
365.493	366.19
365.874	341.33
366.256	357.6
366.637	341.33
367.019	351.73
367.4	353.76
367.781	356.02
368.163	346.76
368.544	364.84
368.925	365.96
369.306	372.29
369.688	368.68
370.069	355.57
370.45	360.77
370.831	368.68
371.212	334.1
371.593	368
371.974	371.16
372.355	378.62
372.736	373.87
373.117	359.64
373.498	374.1
373.879	340.2
374.26	354.67
374.641	357.15
375.021	366.87
375.402	366.87
375.783	376.13
376.163	384.27
376.544	399.41
376.925	369.35
377.305	382.69
377.686	382.01
378.066	386.53
378.447	373.65
378.827	390.6
379.208	401.22
379.588	386.08
379.968	409.81
380.349	406.42
380.729	392.4
381.109	389.02
381.489	402.35
381.87	403.03
382.25	417.72
382.63	416.13
383.01	410.94
383.39	409.81
383.77	410.26
384.15	413.87
384.53	406.42
384.91	426.98
385.29	425.62
385.67	412.74
386.049	449.35
386.429	438.73
386.809	436.92
387.189	437.83
387.568	460.65
387.948	443.03
388.328	458.39
388.707	477.83
389.087	467.66
389.466	489.8
389.846	485.74
390.225	466.08
390.605	478.28
390.984	477.37
391.363	471.5
391.743	507.2
392.122	491.61
392.501	497.71
392.881	494.1
393.26	527.77
393.639	503.81
394.018	526.41
394.397	549.24
394.776	526.86
395.155	556.02
395.534	536.58
395.913	544.72
396.292	548.33
396.671	554.21
397.05	570.25
397.429	562.34
397.808	557.37
398.186	585.39
398.565	587.65
398.944	583.59
399.323	588.11
399.701	601.44
400.08	581.55
400.458	597.6
400.837	608.22
401.215	609.57
401.594	625.39
401.972	627.88
402.351	635.11
402.729	626.98
403.107	645.28
403.486	664.49
403.864	642.12
404.242	668.1
404.62	696.8
404.999	675.56
405.377	708.33
405.755	712.62
406.133	716.69
406.511	717.37
406.889	724.37
407.267	729.35
407.645	778.61
408.023	786.07
408.401	814.54
408.779	824.71
409.156	836.91
409.534	811.6
409.912	836.69
410.29	877.82
410.667	882.34
411.045	921.66
411.422	876.46
411.8	895.22
412.178	944.71
412.555	956.01
412.933	991.26
413.31	957.59
413.687	1010.02
414.065	1019.51
414.442	1038.94
414.819	1056.57
415.197	1076
415.574	1116.23
415.951	1101.99
416.328	1137.24
416.705	1128.2
417.082	1148.77
417.46	1166.62
417.837	1181.08
418.214	1177.47
418.591	1213.63
418.967	1209.56
419.344	1237.81
419.721	1252.27
420.098	1281.42
420.475	1297.47
420.852	1323.68
421.228	1329.78
421.605	1353.28
421.982	1361.87
422.358	1371.81
422.735	1411.81
423.111	1423.11
423.488	1433.96
423.864	1465.15
424.241	1475.77
424.617	1504.69
424.994	1530.45
425.37	1524.58
425.746	1550.57
426.123	1589.44
426.499	1596.89
426.875	1622.88
427.251	1649.1
427.627	1678.7
428.003	1698.13
428.379	1673.5
428.756	1717.34
429.132	1772.48
429.507	1755.31
429.883	1807.96
430.259	1827.4
430.635	1848.41
431.011	1832.82
431.387	1911.91
431.763	1986.04
432.138	1978.13
432.514	1973.83
432.89	1979.71
433.265	2080.5
433.641	2132.25
434.016	2112.13
434.392	2174.96
434.767	2243.43
435.143	2227.16
435.518	2233.03
435.894	2289.08
436.269	2318.68
436.644	2348.74
437.02	2379.25
437.395	2376.08
437.77	2418.34
438.145	2452.46
438.52	2492.69
438.895	2539.92
439.271	2564.78
439.646	2623.53
440.021	2644.1
440.395	2660.37
440.77	2633.48
441.145	2680.03
441.52	2715.51
441.895	2718.22
442.27	2783.53
442.645	2729.29
443.019	2801.61
443.394	2819.01
443.769	2847.03
444.143	2852.23
444.518	2903.07
444.892	2843.64
445.267	2922.06
445.641	2958.44
446.016	3027.14
446.39	2996.86
446.764	3044.31
447.139	3045.67
447.513	3088.83
447.887	3107.81
448.262	3126.34
448.636	3142.16
449.01	3191.2
449.384	3214.93
449.758	3286.11
450.132	3265.1
450.506	3319.11
450.88	3316.62
451.254	3344.19
451.628	3405.66
452.002	3462.15
452.376	3497.18
452.75	3524.3
453.123	3565.65
453.497	3612.21
453.871	3610.85
454.244	3689.72
454.618	3734.69
454.992	3800.45
455.365	3814.91
455.739	3952.54
456.112	3934.91
456.486	3970.16
456.859	4008.81
457.232	4109.37
457.606	4166.99
457.979	4182.14
458.352	4296.94
458.725	4298.29
459.099	4363.37
459.472	4417.84
459.845	4518.85
460.218	4510.94
460.591	4599.3
460.964	4656.25
461.337	4689.47
461.71	4804.49
462.083	4886.3
462.456	4859.63
462.829	4916.35
463.201	4986.18
463.574	5022.11
463.947	5122.45
464.32	5251.94
464.692	5219.85
465.065	5265.5
465.438	5339.39
465.81	5487.86
466.183	5443.12
466.555	5586.62
466.928	5684.47
467.3	5653.06
467.672	5805.6
468.045	5820.74
468.417	5867.97
468.789	5882.43
469.161	6027.29
469.534	6089.66
469.906	6187.28
470.278	6229.31
470.65	6308.18
471.022	6450.55
471.394	6548.85
471.766	6600.15
472.138	6627.04
472.51	6806.02
472.882	6879.47
473.253	7023.64
473.625	7099.12
473.997	7213.24
474.369	7272.45
474.74	7299.12
475.112	7539.56
475.484	7602.61
475.855	7788.37
476.227	7781.14
476.598	8077.17
476.97	8057.97
477.341	8200.34
477.713	8403.49
478.084	8399.88
478.455	8660.89
478.827	8733.43
479.198	8977.49
479.569	9008.45
479.94	9255.67
480.311	9296.13
480.682	9476.69
481.053	9668.32
481.424	9834.42
481.795	10006.16
482.166	10084.81
482.537	10260.62
482.908	10437.79
483.279	10514.4
483.65	10693.6
484.021	10940.83
484.391	10981.51
484.762	11200.93
485.133	11368.39
485.503	11512.56
485.874	11731.54
486.244	11819.9
486.615	12070.52
486.985	12151.87
487.356	12431.18
487.726	12411.3
488.097	12743.27
488.467	12763.83
488.837	13039.53
489.207	13172.41
489.578	13403.36
489.948	13560.42
490.318	13739.85
490.688	13703.47
491.058	14003.12
491.428	14156.11
491.798	14246.73
492.168	14618.7
492.538	14617.12
492.908	14819.14
493.278	14980.27
493.648	15028.63
494.017	15213.03
494.387	15203.09
494.757	15432.46
495.126	15605.79
495.496	15662.96
495.866	15797.42
496.235	15851.89
496.605	16066.34
496.974	16081.26
497.344	16324.19
497.713	16332.1
498.082	16434.92
498.452	16592.2
498.821	16748.81
499.19	16678.53
499.559	16885.3
499.928	16906.55
500.298	17017.28
500.667	17087.79
501.036	17097.05
501.405	17219.31
501.774	17382.24
502.143	17405.29
502.512	17504.95
502.88	17700.42
503.249	17667.2
503.618	17875.34
503.987	17864.49
504.356	17901.1
504.724	18023.13
505.093	18107.87
505.462	18212.28
505.83	18266.51
506.199	18345.83
506.567	18577.01
506.936	18626.73
507.304	18709.44
507.672	18722.77
508.041	18874.86
508.409	19019.26
508.777	19167.28
509.145	19264.23
509.514	19208.41
509.882	19357.33
510.25	19377.44
510.618	19555.06
510.986	19535.18
511.354	19581.05
511.722	19836.41
512.09	20003.87
512.458	19872.57
512.826	20138.1
513.193	20207.48
513.561	20239.11
513.929	20420.35
514.297	20534.7
514.664	20653.79
515.032	20810.17
515.4	20864.18
515.767	21050.84
516.135	21112.09
516.502	20861.02
516.869	21294.91
517.237	21355.02
517.604	21164.74
517.972	21485.64
518.339	21627.1
518.706	21658.96
519.073	21799.3
519.44	21916.81
519.808	22021.67
520.175	22008.79
520.542	22348.66
520.909	22341.21
521.276	22427.98
521.643	22725.15
522.009	22725.38
522.376	22948.42
522.743	22948.65
523.11	23056.67
523.477	23394.96
523.843	23378.02
524.21	23680.61
524.577	23757.44
524.943	23852.81
525.31	23875.18
525.676	24205.34
526.043	24320.59
526.409	24359.91
526.776	24616.85
527.142	24682.16
527.508	24776.62
527.874	24967.58
528.241	24991.98
528.607	25038.54
528.973	25145.43
529.339	25185.43
529.705	25531.4
530.071	25598.3
530.437	25692.98
530.803	25711.97
531.169	25846.42
531.535	25940.43
531.901	25898.4
532.267	26092.97
532.632	26092.29
532.998	26340.2
533.364	26335.68
533.73	26317.82
534.095	26583.58
534.461	26511.94
534.826	26614.99
535.192	26675.33
535.557	26720.98
535.923	26680.75
536.288	26784.93
536.653	26750.58
537.019	26770.92
537.384	26870.13
537.749	26955.32
538.114	27025.6
538.479	26814.99
538.845	26932.72
539.21	26789.68
539.575	26905.15
539.94	26980.18
540.305	26994.19
540.67	26920.29
541.034	26919.17
541.399	26943.8
541.764	26971.37
542.129	26923.68
542.494	27145.37
542.858	27029.44
543.223	27072.16
543.587	27155.09
543.952	27004.59
544.316	27065.15
544.681	26855.89
545.045	27123.45
545.41	27089.56
545.774	26983.57
546.138	26935.44
546.503	26974.08
546.867	26932.05
547.231	26982.21
547.595	26935.89
547.959	27108.76
548.324	27037.58
548.688	27042.55
549.052	27008.43
549.416	26946.73
549.779	26899.05
550.143	26942.44
550.507	26983.12
550.871	26958.03
551.235	26907.41
551.599	27007.75
551.962	27044.13
552.326	27056.11
552.689	26903.12
553.053	26853.86
553.417	26884.14
553.78	27009.11
554.143	26976.79
554.507	26999.16
554.87	27041.42
555.234	27133.4
555.597	26896.57
555.96	27018.37
556.323	27049.33
556.686	26995.32
557.05	27171.14
557.413	27056.34
557.776	27085.94
558.139	27142.66
558.502	27120.74
558.865	27072.38
559.228	27303.34
559.59	27261.75
559.953	27251.81
560.316	27482.99
560.679	27293.84
561.041	27420.62
561.404	27517.57
561.767	27582.65
562.129	27354.63
562.492	27705.59
562.854	27574.06
563.217	27541.07
563.579	27500.62
563.941	27886.6
564.304	27755.98
564.666	27997.55
565.028	27851.8
565.39	27862.87
565.753	28000.72
566.115	28085.91
566.477	28247.94
566.839	28225.57
567.201	28365.45
567.563	28272.12
567.925	28403.65
568.287	28362.29
568.648	28388.28
569.01	28450.88
569.372	28668.72
569.734	28624.2
570.095	28664.43
570.457	28889.51
570.819	28797.76
571.18	28735.16
571.542	28928.15
571.903	28910.53
572.265	28995.95
572.626	29089.5
572.987	29184.64
573.349	29178.09
573.71	29305.32
574.071	29339.67
574.432	29427.8
574.794	29514.35
575.155	29533.79
575.516	29385.99
575.877	29682.26
576.238	29603.16
576.599	29619.43
576.96	29701.01
577.32	29666.44
577.681	29919.54
578.042	29841.57
578.403	29837.51
578.763	29952.98
579.124	29956.37
579.485	30105.52
579.845	30150.72
580.206	29968.8
580.566	29975.58
580.927	30055.35
581.287	30121.11
581.648	30073.88
582.008	30301.45
582.368	30216.25
582.728	30335.12
583.089	30235.24
583.449	30288.57
583.809	30372.63
584.169	30457.6
584.529	30336.48
584.889	30550.26
585.249	30422.12
585.609	30343.48
585.969	30559.97
586.329	30333.76
586.688	30481.78
587.048	30539.63
587.408	30414.89
587.768	30518.62
588.127	30690.37
588.487	30512.29
588.846	30692.85
589.206	30424.38
589.565	30528.11
589.925	30616.69
590.284	30655.56
590.643	30663.93
591.003	30655.11
591.362	30933.3
591.721	30912.05
592.08	30778.27
592.44	30774.66
592.799	30688.33
593.158	30811.49
593.517	30767.65
593.876	30835.45
594.235	30924.94
594.593	30905.73
594.952	30917.48
595.311	30773.53
595.67	30792.96
596.029	31022.56
596.387	31081.32
596.746	31054.2
597.104	30915.44
597.463	30948.66
597.822	31136.46
598.18	31020.3
598.538	31066.4
598.897	31219.39
599.255	31036.12
599.613	31387.52
599.972	31113.41
600.33	31314.76
600.688	31164.7
601.046	31337.13
601.404	31548.65
601.762	31365.15
602.12	31519.95
602.478	31356.11
602.836	31601.98
603.194	31261.42
603.552	31404.47
603.91	31361.53
604.268	31552.94
604.625	31515.43
604.983	31728.76
605.341	31505.26
605.698	31766.72
606.056	31842.2
606.413	31785.48
606.771	31999.71
607.128	31866.15
607.485	31805.82
607.843	31843.33
608.2	31976.21
608.557	32068.18
608.914	32116.54
609.272	32243.32
609.629	32189.99
609.986	32362.64
610.343	32257.1
610.7	32615.51
611.057	32330.32
611.414	32350.66
611.771	32555.4
612.127	32544.1
612.484	32707.04
612.841	32776.64
613.198	32594.95
613.554	32516.98
613.911	32787.26
614.267	32825.68
614.624	32799.69
614.98	32964.43
615.337	33103.64
615.693	32999.23
616.05	33177.98
616.406	33326.23
616.762	33162.62
617.118	33138.44
617.475	33028.83
617.831	33312.67
618.187	33314.48
618.543	33350.63
618.899	33502.95
619.255	33479.22
619.611	33456.17
619.967	33653.23
620.323	33689.16
620.678	33629.95
621.034	33676.5
621.39	33656.62
621.746	33521.03
622.101	34046.21
622.457	33678.31
622.812	33968.25
623.168	34015.7
623.523	33822.03
623.879	34036.72
624.234	33897.96
624.589	34017.28
624.945	34035.36
625.3	33991.75
625.655	34086.21
626.01	34091.86
626.365	34100.22
626.72	33960.11
627.075	33980.22
627.43	34137.96
627.785	34101.35
628.14	34000.11
628.495	33948.58
628.85	34063.84
629.205	33881.47
629.559	34098.41
629.914	34013.89
630.269	34040.56
630.623	33850.06
630.978	33825.65
631.332	33928.92
631.687	33892.99
632.041	33810.74
632.396	33866.55
632.75	33876.95
633.104	33826.1
633.459	33752.43
633.813	33847.12
634.167	33743.17
634.521	33756.27
634.875	33800.11
635.229	33635.82
635.583	33439.22
635.937	33616.16
636.291	33465.21
636.645	33532.1
636.999	33412.55
637.352	33456.39
637.706	33224.99
638.06	33365.32
638.413	33275.16
638.767	33200.13
639.121	33316.96
639.474	33158.32
639.828	33093.69
640.181	33038.1
640.534	33124.65
640.888	33096.4
641.241	32929.4
641.594	33060.7
641.947	33037.87
642.301	32924.43
642.654	33060.25
643.007	32810.99
643.36	33026.12
643.713	33066.57
644.066	33131.43
644.419	32924.88
644.771	32524.44
645.124	32341.85
645.477	32297.55
645.83	32191.79
646.182	32135.98
646.535	32035.64
646.888	32075.87
647.24	32029.99
647.593	32100.5
647.945	32161.74
648.298	31990.67
648.65	31838.13
649.002	31834.74
649.355	31779.15
649.707	31786.38
650.059	31764.91
650.411	32126.94
650.763	32346.59
651.115	32883.53
651.467	32652.12
651.819	32755.17
652.171	32643.08
652.523	32581.84
652.875	32750.2
653.227	32412.13
653.578	32801.27
653.93	32574.16
654.282	32612.57
654.633	32476.08
654.985	32657.77
655.337	32642.86
655.688	32773.7
656.039	32868.16
656.391	32501.84
656.742	32634.72
657.094	32725.79
657.445	32790.2
657.796	32744.55
658.147	32658.22
658.498	32774.83
658.849	32822.51
659.2	32658
659.551	32664.78
659.902	33008.27
660.253	32765.34
660.604	32862.74
660.955	32793.13
661.306	33039.68
661.656	32837.2
662.007	32906.35
662.358	32873.81
662.708	32912.91
663.059	32987.48
663.409	32851.21
663.76	33116.52
664.11	33027.71
664.461	33018.44
664.811	33041.26
665.161	33160.13
665.511	33025.9
665.862	33184.76
666.212	33027.71
666.562	33224.99
666.912	33097.99
667.262	33102.51
667.612	33060.25
667.962	33149.06
668.312	33017.76
668.662	33289.39
669.011	33215.72
669.361	33202.39
669.711	33177.98
670.06	32945.9
670.41	33116.06
670.76	33063.64
671.109	33211.65
671.459	33046.91
671.808	33118.1
672.157	33051.21
672.507	32911.78
672.856	33030.87
673.205	32918.1
673.554	33071.32
673.904	32941.38
674.253	33101.6
674.602	32856.86
674.951	32624.33
675.3	32240.16
675.649	32860.48
675.998	32863.87
676.346	32779.12
676.695	32874.71
677.044	32649.18
677.393	32735.06
677.741	32781.84
678.09	32639.47
678.438	32617.77
678.787	32706.36
679.135	32761.95
679.484	32340.94
679.832	32368.74
680.181	32400.83
680.529	32488.06
680.877	32300.72
681.225	32321.73
681.573	32408.51
681.922	32271.11
682.27	32199.93
682.618	32275.86
682.966	32015.3
683.314	32163.09
683.661	32070.44
684.009	31899.83
684.357	31781.86
684.705	31750.9
685.053	31756.55
685.4	31567.18
685.748	31573.51
686.095	31662.09
686.443	31345.94
686.79	31411.93
687.138	31342.1
687.485	31174.19
687.832	31173.74
688.18	31150.01
688.527	31000.41
688.874	30951.83
689.221	30920.19
689.568	30605.85
689.915	30626.64
690.262	30667.77
690.609	30585.74
690.956	30397.49
691.303	30295.8
691.65	30308.45
691.997	29989.82
692.344	30006.32
692.69	29969.25
693.037	29874.34
693.383	29532.43
693.73	29607.23
694.077	29458.76
694.423	29372.43
694.769	29214.02
695.116	29122.72
695.462	29101.93
695.808	28886.8
696.155	28997.75
696.501	28670.31
696.847	28729.74
697.193	28489.07
697.539	28459.46
697.885	28123.2
698.231	28189.64
698.577	28059.25
698.923	27973.83
699.269	27714.62
699.614	27615.87
699.96	27503.56
700.306	27616.1
700.651	27335.43
700.997	27304.24
701.342	27222.66
701.688	26960.75
702.033	26993.51
702.379	27020.63
702.724	26822.9
703.069	26873.97
703.415	26528.89
703.76	26489.35
704.105	26447.54
704.45	26332.97
704.795	26208.22
705.14	26046.42
705.485	26119.86
705.83	25882.36
706.175	25965.52
706.52	25889.14
706.865	25796.71
707.209	25639.42
707.554	25604.4
707.899	25590.61
708.243	25377.96
708.588	25418.87
708.932	25209.83
709.277	25229.49
709.621	25116.27
709.966	25028.82
710.31	25118.31
710.654	24864.98
710.998	24866.11
711.342	24852.1
711.687	24775.49
712.031	24724.42
712.375	24633.8
712.719	24535.5
713.063	24581.6
713.407	24714.7
713.75	24485.1
714.094	24430.64
714.438	24347.93
714.782	24410.3
715.125	24226.13
715.469	24423.19
715.812	24256.64
716.156	24080.37
716.499	24197.43
716.843	24215.96
717.186	24050.99
717.53	24093.48
717.873	24205.79
718.216	24067.94
718.559	24070.2
718.902	23900.71
719.246	23975.74
719.589	23924.89
719.932	23822.52
720.275	23845.12
720.617	23887.61
720.96	23790.89
721.303	23942.52
721.646	23928.74
721.989	23796.08
722.331	23789.3
722.674	23836.31
723.016	23807.83
723.359	23738.91
723.701	23846.7
724.044	23781.62
724.386	23709.08
724.729	23838.79
725.071	23785.91
725.413	23751.79
725.755	23737.78
726.097	23737.78
726.439	23621.4
726.782	23722.19
727.124	23845.35
727.465	23814.84
727.807	23739.81
728.149	23818.23
728.491	23669.31
728.833	23736.42
729.175	23808.51
729.516	23820.04
729.858	23819.36
730.199	23826.82
730.541	23853.71
730.882	23905.91
731.224	24024.55
731.565	23920.6
731.906	23940.94
732.248	23911.79
732.589	23904.1
732.93	23884.22
733.271	23916.76
733.612	23879.25
733.953	24126.47
734.294	24006.25
734.635	23941.39
734.976	24160.14
735.317	24011.9
735.658	24145.23
735.999	24139.8
736.339	24221.38
736.68	24261.61
737.021	24299.12
737.361	24267.94
737.702	24503.86
738.042	24385.9
738.383	24592.9
738.723	24648.49
739.063	24601.26
739.404	24686.91
739.744	24853.23
740.084	24751.54
740.424	24805.77
740.764	24812.78
741.104	25095.71
741.444	25064.98
741.784	25021.59
742.124	25166.44
742.464	25275.82
742.804	25251.86
743.143	25268.81
743.483	25560.78
743.823	25505.42
744.162	25652.76
744.502	25778.86
744.841	25805.75
745.181	26112.63
745.52	26023.14
745.86	26336.36
746.199	26325.96
746.538	26471.72
746.877	26643.69
747.216	26800.07
747.556	26905.15
747.895	27001.65
748.234	27090.46
748.573	27275.77
748.911	27328.65
749.25	27524.12
749.589	27522.99
749.928	27816.32
750.267	27941.06
750.605	27998.46
750.944	28317.55
751.283	28489.07
751.621	28497.43
751.96	28621.72
752.298	28922.28
752.636	28988.72
752.975	29080.01
753.313	29361.81
