Data from 291_FLMS001491_009.txt Node
Date: Thu Apr 19 16:45:53 BST 2018
User: hsy
Spectrometer: FLMS00149
Trigger mode: 0
Integration Time (sec): 1.000000E-2
Scans to average: 10
Electric dark correction enabled: true
Nonlinearity correction enabled: false
Boxcar width: 0
XAxis mode: Wavelengths
Number of Pixels in Spectrum: 2048
>>>>>Begin Spectral Data<<<<<
341.393	-17.9
341.776	-17.9
342.16	-17.9
342.543	-59.48
342.927	-74.62
343.31	-73.03
343.693	-64.67
344.077	-68.97
344.46	-66.26
344.843	-58.8
345.226	-42.75
345.61	-37.56
345.993	-20.61
346.376	-14.51
346.759	23.69
347.142	32.27
347.525	44.7
347.908	70.92
348.291	63.46
348.674	88.32
349.057	123.8
349.44	115.66
349.823	133.51
350.206	198.82
350.588	203.57
350.971	226.84
351.354	250.8
351.737	268.88
352.119	278.59
352.502	291.25
352.884	291.02
353.267	308.65
353.65	319.95
354.032	319.27
354.414	356.78
354.797	360.4
355.179	347.29
355.562	335.77
355.944	352.04
356.326	379.38
356.709	380.06
357.091	359.04
357.473	375.54
357.855	387.52
358.238	379.16
358.62	377.35
359.002	368.54
359.384	389.33
359.766	379.61
360.148	371.7
360.53	389.78
360.912	370.8
361.294	369.67
361.676	363.11
362.057	365.82
362.439	380.29
362.821	364.47
363.203	373.51
363.584	363.79
363.966	349.1
364.348	378.03
364.729	367.41
365.111	364.69
365.493	369.89
365.874	366.73
366.256	358.14
366.637	362.21
367.019	368.76
367.4	338.93
367.781	360.85
368.163	370.57
368.544	350.23
368.925	358.82
369.306	379.38
369.688	343.23
370.069	373.28
370.45	360.63
370.831	368.08
371.212	371.02
371.593	373.28
371.974	342.77
372.355	378.7
372.736	372.83
373.117	371.47
373.498	374.86
373.879	378.7
374.26	388.42
374.641	363.56
375.021	366.95
375.402	368.54
375.783	380.29
376.163	383.22
376.544	380.96
376.925	378.25
377.305	370.34
377.686	392.04
378.066	379.38
378.447	354.75
378.827	390.68
379.208	409.44
379.588	394.98
379.968	407.63
380.349	416.67
380.729	406.73
381.109	380.96
381.489	400.63
381.87	410.12
382.25	415.31
382.63	402.43
383.01	423
383.39	432.04
383.77	425.71
384.15	414.86
384.53	428.87
384.91	433.62
385.29	418.25
385.67	427.74
386.049	436.33
386.429	453.96
386.809	474.75
387.189	462.77
387.568	465.71
387.948	450.57
388.328	479.27
388.707	443.79
389.087	480.85
389.466	460.06
389.846	451.7
390.225	473.39
390.605	491.24
390.984	498.02
391.363	503.67
391.743	492.15
392.122	498.25
392.501	536.44
392.881	504.8
393.26	510
393.639	513.62
394.018	546.61
394.397	518.81
394.776	546.84
395.155	548.64
395.534	542.09
395.913	545.03
396.292	538.02
396.671	542.09
397.05	539.83
397.429	558.59
397.808	575.08
398.186	574.63
398.565	561.52
398.944	548.19
399.323	586.83
399.701	592.94
400.08	606.04
400.458	577.8
400.837	601.75
401.215	595.2
401.594	613.27
401.972	616.66
402.351	646.04
402.729	627.51
403.107	673.61
403.486	657.34
403.864	651.47
404.242	690.56
404.62	691.69
404.999	687.4
405.377	700.73
405.755	709.32
406.133	714.97
406.511	737.57
406.889	753.16
407.267	772.14
407.645	784.12
408.023	779.37
408.401	808.07
408.779	819.82
409.156	808.75
409.534	843.33
409.912	876.09
410.29	844.68
410.667	877.9
411.045	894.17
411.422	892.59
411.8	925.13
412.178	971.68
412.555	976.43
412.933	979.82
413.31	1016.65
413.687	1023.89
414.065	1033.15
414.442	1041.29
414.819	1057.33
415.197	1087.84
415.574	1101.17
415.951	1127.61
416.328	1112.7
416.705	1154.5
417.082	1156.09
417.46	1169.64
417.837	1200.38
418.214	1214.61
418.591	1225.91
418.967	1244.9
419.344	1258.23
419.721	1287.16
420.098	1286.93
420.475	1287.38
420.852	1290.55
421.228	1319.7
421.605	1328.51
421.982	1387.04
422.358	1381.16
422.735	1378.68
423.111	1397.89
423.488	1453.03
423.864	1459.58
424.241	1499.35
424.617	1492.8
424.994	1509.97
425.37	1535.28
425.746	1503.65
426.123	1536.41
426.499	1596.07
426.875	1586.58
427.251	1638.56
427.627	1678.78
428.003	1710.87
428.379	1721.04
428.756	1732.57
429.132	1767.82
429.507	1796.75
429.883	1825.9
430.259	1804.88
430.635	1849.4
431.011	1856.18
431.387	1917.65
431.763	1943.86
432.138	1948.38
432.514	1992.9
432.89	2015.72
433.265	2084.65
433.641	2078.77
434.016	2138.66
434.392	2152.9
434.767	2218.43
435.143	2237.86
435.518	2247.13
435.894	2292.78
436.269	2327.13
436.644	2353.57
437.02	2400.35
437.395	2396.28
437.77	2455.26
438.145	2519.44
438.52	2523.28
438.895	2544.3
439.271	2521.02
439.646	2650.06
440.021	2646.67
440.395	2659.77
440.77	2635.59
441.145	2685.08
441.52	2760.79
441.895	2747.46
442.27	2789.04
442.645	2789.94
443.019	2834.69
443.394	2844.4
443.769	2881.46
444.143	2879.2
444.518	2922.59
444.892	2931.18
445.267	2965.3
445.641	2992.42
446.016	3034
446.39	3022.93
446.764	3059.31
447.139	3042.59
447.513	3057.73
447.887	3123.27
448.262	3108.8
448.636	3194
449.01	3203.04
449.384	3259.08
449.758	3210.04
450.132	3328.46
450.506	3314.67
450.88	3354.22
451.254	3364.39
451.628	3433.31
452.002	3494.78
452.376	3458.62
452.75	3523.03
453.123	3564.61
453.497	3586.53
453.871	3623.59
454.244	3710.37
454.618	3750.14
454.992	3799.18
455.365	3835.34
455.739	3913.53
456.112	3957.59
456.486	3975.22
456.859	4020.87
457.232	4136.57
457.606	4209.34
457.979	4262.67
458.352	4298.83
458.725	4331.14
459.099	4365.94
459.472	4461.54
459.845	4469.67
460.218	4548.99
460.591	4640.51
460.964	4684.81
461.337	4753.96
461.71	4837.8
462.083	4918.92
462.456	4906.27
462.829	4980.62
463.201	5049.54
463.574	5079.82
463.947	5147.62
464.32	5207.73
464.692	5222.65
465.065	5271.46
465.438	5410.89
465.81	5491.79
466.183	5474.16
466.555	5603.43
466.928	5614.5
467.3	5614.05
467.672	5759.35
468.045	5838.67
468.417	5896.75
468.789	6000.25
469.161	6029.63
469.534	6092.68
469.906	6222.84
470.278	6276.4
470.65	6330.64
471.022	6463.52
471.394	6575.6
471.766	6582.84
472.138	6711.87
472.51	6845.43
472.882	6948.48
473.253	6996.84
473.625	7115.93
473.997	7270.95
474.369	7350.5
474.74	7379.2
475.112	7558.4
475.484	7663.26
475.855	7714.56
476.227	7818.51
476.598	8019.86
476.97	8106.86
477.341	8297.37
477.713	8443.35
478.084	8458.27
478.455	8658.71
478.827	8752.04
479.198	8973.51
479.569	9029.32
479.94	9139.15
480.311	9398.81
480.682	9568.07
481.053	9733.94
481.424	9891.45
481.795	10004.89
482.166	10126.47
482.537	10254.38
482.908	10472.22
483.279	10637.42
483.65	10794.7
484.021	11015.26
484.391	11165.54
484.762	11207.35
485.133	11377.74
485.503	11523.5
485.874	11746.99
486.244	11857.95
486.615	12212.29
486.985	12313.76
487.356	12429.01
487.726	12556.01
488.097	12838.72
488.467	12974.08
488.837	13176.56
489.207	13261.08
489.578	13534.07
489.948	13686.6
490.318	13784.68
490.688	13899.25
491.058	14114.39
491.428	14226.7
491.798	14340.15
492.168	14615.39
492.538	14635.28
492.908	14876.4
493.278	15060.8
493.648	15117.75
494.017	15294.92
494.387	15467.8
494.757	15583.73
495.126	15705.76
495.496	15709.6
495.866	15909.37
496.235	15983.04
496.605	16179.87
496.974	16204.73
497.344	16322.01
497.713	16452.86
498.082	16559.75
498.452	16721.1
498.821	16726.3
499.19	16825.05
499.559	16940.08
499.928	17128.77
500.298	17095.78
500.667	17303.01
501.036	17191.6
501.405	17432.04
501.774	17450.57
502.143	17570.57
502.512	17642.21
502.88	17811.47
503.249	17837.23
503.618	17871.58
503.987	17870.9
504.356	18141.18
504.724	18208.52
505.093	18224.79
505.462	18290.1
505.83	18373.71
506.199	18494.16
506.567	18740.26
506.936	18688.28
507.304	18905.22
507.672	18910.42
508.041	18946.13
508.409	19078.33
508.777	19216.18
509.145	19399.67
509.514	19406.9
509.882	19499.33
510.25	19528.26
510.618	19660.91
510.986	19784.07
511.354	19834.92
511.722	20017.74
512.09	20193.1
512.458	20077.85
512.826	20227.45
513.193	20294.11
513.561	20404.17
513.929	20418.18
514.297	20710.37
514.664	20836.47
515.032	20944.04
515.4	20978.62
515.767	21003.02
516.135	21200.08
516.502	21036.69
516.869	21348.77
517.237	21501.09
517.604	21289.34
517.972	21697.69
518.339	21898.36
518.706	21854.3
519.073	21851.59
519.44	22064.69
519.808	22263.55
520.175	22245.7
520.542	22493.15
520.909	22667.38
521.276	22508.52
521.643	22895.63
522.009	23005.91
522.376	23056.07
522.743	23182.4
523.11	23447.25
523.477	23488.38
523.843	23709.84
524.21	23959.33
524.577	24003.62
524.943	24097.4
525.31	24204.97
525.676	24444.51
526.043	24618.52
526.409	24510.95
526.776	24897.38
527.142	24851.51
527.508	24929.47
527.874	25184.15
528.241	25271.16
528.607	25379.63
528.973	25551.15
529.339	25532.62
529.705	25808.77
530.071	25918.37
530.437	25895.55
530.803	26157.24
531.169	26157.69
531.535	26189.78
531.901	26163.34
532.267	26380.28
532.632	26442.65
532.998	26463.67
533.364	26646.26
533.73	26661.63
534.095	26779.37
534.461	26803.32
534.826	26812.36
535.192	26823.89
535.557	27179.36
535.923	27022.3
536.288	27134.39
536.653	27120.15
537.019	27102.97
537.384	27161.96
537.749	27155.63
538.114	27219.81
538.479	27175.74
538.845	27198.34
539.21	27158.34
539.575	27147.27
539.94	27138.45
540.305	27409.63
540.67	27238.34
541.034	27337.77
541.399	27285.79
541.764	27462.06
542.129	27321.95
542.494	27396.98
542.858	27391.55
543.223	27316.08
543.587	27425.23
543.952	27435.39
544.316	27401.72
544.681	27188.4
545.045	27349.52
545.41	27437.43
545.774	27302.97
546.138	27426.36
546.503	27356.75
546.867	27416.86
547.231	27522.85
547.595	27374.61
547.959	27487.37
548.324	27346.13
548.688	27543.87
549.052	27422.06
549.416	27359.24
549.779	27274.72
550.143	27276.53
550.507	27503.87
550.871	27369.63
551.235	27341.61
551.599	27522.17
551.962	27481.27
552.326	27459.8
552.689	27416.19
553.053	27229.07
553.417	27421.61
553.78	27440.82
554.143	27475.39
554.507	27366.24
554.87	27399.92
555.234	27603.07
555.597	27344.1
555.96	27350.65
556.323	27431.1
556.686	27413.7
557.05	27561.94
557.413	27566.24
557.776	27396.53
558.139	27556.75
558.502	27531.89
558.865	27522.4
559.228	27611.89
559.59	27655.05
559.953	27714.48
560.316	27890.98
560.679	27858.43
561.041	27853.24
561.404	27871.09
561.767	28041.03
562.129	27890.3
562.492	28126.45
562.854	27970.97
563.217	27947.02
563.579	28025.89
563.941	28079.67
564.304	28080.8
564.666	28340.91
565.028	28230.85
565.39	28389.72
565.753	28503.16
566.115	28475.82
566.477	28528.02
566.839	28704.06
567.201	28871.97
567.563	28745.19
567.925	28923.94
568.287	28804.85
568.648	28821.8
569.01	28889.59
569.372	29244.39
569.734	29038.74
570.095	29265.63
570.457	29320.32
570.819	29278.28
571.18	29433.99
571.542	29424.95
571.903	29434.89
572.265	29630.36
572.626	29723.47
572.987	29649.57
573.349	29772.96
573.71	29877.14
574.071	29858.16
574.432	29942.67
574.794	30098.38
575.155	29986.74
575.516	30079.84
575.877	30158.94
576.238	30045.04
576.599	30292.27
576.96	30213.85
577.32	30272.83
577.681	30402.77
578.042	30521.64
578.403	30497.69
578.763	30438.03
579.124	30480.29
579.485	30544.47
579.845	30588.76
580.206	30623.56
580.566	30626.72
580.927	30504.92
581.287	30637.57
581.648	30609.77
582.008	30759.6
582.368	30765.93
582.728	30711.69
583.089	30831.46
583.449	30796.21
583.809	30588.53
584.169	30982.65
584.529	30752.6
584.889	30995.98
585.249	30799.15
585.609	30731.13
585.969	31031.46
586.329	30777.68
586.688	31004.34
587.048	30948.07
587.408	30918.69
587.768	30881.63
588.127	31022.42
588.487	30977.67
588.846	31337.66
589.206	30865.13
589.565	30972.93
589.925	31148.29
590.284	31118.24
590.643	31189.42
591.003	31211.34
591.362	31335.63
591.721	31188.06
592.08	31308.29
592.44	31472.35
592.799	31228.74
593.158	31237.1
593.517	31216.09
593.876	31398.23
594.235	31174.96
594.593	31449.75
594.952	31464.22
595.311	31379.02
595.67	31452.46
596.029	31484.1
596.387	31544.66
596.746	31683.64
597.104	31537.66
597.463	31546.02
597.822	31652.46
598.18	31522.29
598.538	31645.23
598.897	31734.04
599.255	31488.4
599.613	31843.64
599.972	31641.39
600.33	31809.06
600.688	31689.07
601.046	31855.17
601.404	31959.34
601.762	31875.73
602.12	32032.34
602.478	31927.71
602.836	32044.76
603.194	31791.44
603.552	31962.96
603.91	31797.54
604.268	31993.01
604.625	32076.63
604.983	32127.7
605.341	31967.48
605.698	32132.9
606.056	32368.82
606.413	32201.82
606.771	32396.62
607.128	32242.27
607.485	32254.93
607.843	32315.04
608.2	32583.73
608.557	32593.9
608.914	32464.19
609.272	32637.97
609.629	32793.22
609.986	32889.49
610.343	32877.74
610.7	33043.16
611.057	32856.49
611.414	32936.94
611.771	33073.89
612.127	33063.95
612.484	33230.95
612.841	33215.58
613.198	33054.23
613.554	33124.28
613.911	33305.97
614.267	33425.29
614.624	33338.52
614.98	33463.94
615.337	33587.1
615.693	33548.23
616.05	33686.98
616.406	33714.78
616.762	33657.38
617.118	33649.69
617.475	33710.26
617.831	33873.87
618.187	33913.87
618.543	33893.76
618.899	34234.54
619.255	34040.19
619.611	34150.02
619.967	34216.46
620.323	34319.28
620.678	34183.24
621.034	34209.45
621.39	34223.24
621.746	34198.38
622.101	34536.9
622.457	34159.51
622.812	34487.86
623.168	34458.71
623.523	34481.31
623.879	34612.61
624.234	34379.39
624.589	34402.44
624.945	34557.47
625.3	34620.06
625.655	34521.54
626.01	34582.33
626.365	34526.51
626.72	34402.67
627.075	34441.31
627.43	34594.3
627.785	34583
628.14	34560.18
628.495	34638.37
628.85	34659.61
629.205	34451.26
629.559	34640.18
629.914	34542.55
630.269	34475.89
630.623	34348.21
630.978	34329
631.332	34582.1
631.687	34423.46
632.041	34508.2
632.396	34413.74
632.75	34249.9
633.104	34376.68
633.459	34147.53
633.813	34268.44
634.167	34128.78
634.521	34113.86
634.875	34110.25
635.229	34109.8
635.583	33905.96
635.937	33984.15
636.291	33995.22
636.645	33963.13
636.999	33770.82
637.352	33885.17
637.706	33667.32
638.06	33837.03
638.413	33855.79
638.767	33599.3
639.121	33725.17
639.474	33694.21
639.828	33494.9
640.181	33750.71
640.534	33633.88
640.888	33481.56
641.241	33354.56
641.594	33443.6
641.947	33541.9
642.301	33376.93
642.654	33435.91
643.007	33366.76
643.36	33463.94
643.713	33439.08
644.066	33479.98
644.419	33277.95
644.771	32978.07
645.124	32769.94
645.477	32734.69
645.83	32639.78
646.182	32461.48
646.535	32438.2
646.888	32575.15
647.24	32382.16
647.593	32619.66
647.945	32496.5
648.298	32480.69
648.65	32308.03
649.002	32229.84
649.355	32324.53
649.707	32116.85
650.059	32319.79
650.411	32637.29
650.763	32757.29
651.115	33188.92
651.467	33192.76
651.819	33228.69
652.171	33095.81
652.523	33068.47
652.875	33142.59
653.227	32917.51
653.578	33236.37
653.93	33209.71
654.282	32935.59
654.633	33148.92
654.985	33116.15
655.337	33041.12
655.688	33099.2
656.039	33243.83
656.391	32995.93
656.742	33123.61
657.094	33133.78
657.445	33129.03
657.796	33173.32
658.147	33016.04
658.498	33199.08
658.849	33243.38
659.2	33047.68
659.551	33096.49
659.902	33402.92
660.253	33214.45
660.604	33296.94
660.955	33198.86
661.306	33426.65
661.656	33276.6
662.007	33385.75
662.358	33402.24
662.708	33488.79
663.059	33313.21
663.409	33276.82
663.76	33415.8
664.11	33382.13
664.461	33510.49
664.811	33594.78
665.161	33538.74
665.511	33510.49
665.862	33422.58
666.212	33618.06
666.562	33641.11
666.912	33510.94
667.262	33421
667.612	33552.07
667.962	33594.55
668.312	33416.71
668.662	33547.32
669.011	33719.52
669.361	33508.68
669.711	33699.64
670.06	33562.92
670.41	33416.71
670.76	33558.17
671.109	33533.77
671.459	33447.44
671.808	33455.58
672.157	33623.93
672.507	33435.46
672.856	33470.49
673.205	33392.53
673.554	33556.59
673.904	33367.89
674.253	33655.57
674.602	33469.13
674.951	33043.16
675.3	32813.56
675.649	33269.14
675.998	33434.78
676.346	33205.19
676.695	33412.64
677.044	33192.53
677.393	33297.61
677.741	33304.62
678.09	33207.9
678.438	33076.15
678.787	33169.48
679.135	33086.55
679.484	32872.77
679.832	33124.74
680.181	32899.66
680.529	32899.88
680.877	32878.19
681.225	32826.67
681.573	32924.29
681.922	32794.58
682.27	32664.18
682.618	32789.38
682.966	32668.48
683.314	32605.88
683.661	32525.88
684.009	32245.21
684.357	32313.91
684.705	32184.87
685.053	32249.73
685.4	32025.78
685.748	31890.64
686.095	32016.29
686.443	31759.12
686.79	31696.53
687.138	31809.74
687.485	31735.17
687.832	31602.06
688.18	31573.36
688.527	31419.92
688.874	31374.27
689.221	31274.16
689.568	31088.86
689.915	30970.67
690.262	31071.01
690.609	30941.06
690.956	30739.94
691.303	30625.14
691.65	30617.68
691.997	30427.18
692.344	30248.43
692.69	30222.44
693.037	30108.77
693.383	29981.99
693.73	30139.5
694.077	29869
694.423	29933.86
694.769	29812.06
695.116	29591.5
695.462	29560.31
695.808	29305.85
696.155	29388.34
696.501	29038.29
696.847	29108.34
697.193	28801.23
697.539	28877.39
697.885	28685.98
698.231	28543.84
698.577	28571.64
698.923	28408.93
699.269	28108.37
699.614	28074.25
699.96	28003.06
700.306	27934.82
700.651	27762.17
700.997	27811.88
701.342	27533.92
701.688	27504.55
702.033	27371.22
702.379	27369.86
702.724	27185.68
703.069	27312.91
703.415	26963.77
703.76	26887.16
704.105	26901.85
704.45	26745.02
704.795	26646.49
705.14	26511.35
705.485	26462.76
705.83	26315.42
706.175	26357.46
706.52	26230.23
706.865	26164.92
707.209	26043.34
707.554	25994.75
707.899	26067.07
708.243	25784.36
708.588	25739.39
708.932	25604.26
709.277	25544.6
709.621	25497.14
709.966	25315.9
710.31	25321.1
710.654	25227.77
710.998	25251.5
711.342	25286.75
711.687	25120.88
712.031	25229.12
712.375	25129.92
712.719	25094.44
713.063	24951.39
713.407	25038.62
713.75	24799.98
714.094	24886.76
714.438	24724.28
714.782	24721.57
715.125	24732.41
715.469	24804.5
715.812	24508.69
716.156	24628.91
716.499	24561.12
716.843	24649.48
717.186	24430.5
717.53	24433.67
717.873	24570.84
718.216	24562.48
718.559	24430.73
718.902	24287.68
719.246	24270.73
719.589	24263.05
719.932	24141.7
720.275	24223.28
720.617	24237.29
720.96	24173.79
721.303	24209.26
721.646	24290.39
721.989	24167.68
722.331	24211.07
722.674	24132.43
723.016	24184.41
723.359	24049.04
723.701	24124.52
724.044	24106.22
724.386	23907.35
724.729	24142.15
725.071	24127.23
725.413	24102.37
725.755	23977.63
726.097	24015.82
726.439	24065.09
726.782	23941.7
727.124	24116.84
727.465	24051.75
727.807	23952.77
728.149	24101.47
728.491	23935.15
728.833	24080.23
729.175	24004.52
729.516	24011.76
729.858	24125.42
730.199	24070.51
730.541	24098.76
730.882	24126.55
731.224	24243.16
731.565	24249.72
731.906	24251.3
732.248	24209.49
732.589	24152.77
732.93	24069.16
733.271	24185.54
733.612	24214.69
733.953	24366.55
734.294	24403.16
734.635	24370.62
734.976	24497.62
735.317	24359.32
735.658	24471.18
735.999	24448.13
736.339	24555.24
736.68	24600.21
737.021	24627.33
737.361	24654.22
737.702	24815.58
738.042	24790.94
738.383	24883.6
738.723	25020.77
739.063	24865.74
739.404	25091.73
739.744	25153.87
740.084	25037.27
740.424	25315
740.764	25246.75
741.104	25477.71
741.444	25415.79
741.784	25325.62
742.124	25597.48
742.464	25691.03
742.804	25671.15
743.143	25723.8
743.483	25911.82
743.823	25878.83
744.162	25966.05
744.502	26192.04
744.841	26110.91
745.181	26423.9
745.52	26457.12
745.86	26660.73
746.199	26609.43
746.538	26832.47
746.877	27100.94
747.216	27127.15
747.556	27249.64
747.895	27324.89
748.234	27468.39
748.573	27553.81
748.911	27672
749.25	27845.78
749.589	27827.02
749.928	28239.67
750.267	28458.19
750.605	28468.59
750.944	28650.73
751.283	28805.3
751.621	29076.26
751.96	29068.57
752.298	29203.94
752.636	29448.67
752.975	29570.48
753.313	29677.14
753.651	29949.68
