Data from 291_FLMS001491_005.txt Node
Date: Thu Apr 19 16:45:45 BST 2018
User: hsy
Spectrometer: FLMS00149
Trigger mode: 0
Integration Time (sec): 1.000000E-2
Scans to average: 10
Electric dark correction enabled: true
Nonlinearity correction enabled: false
Boxcar width: 0
XAxis mode: Wavelengths
Number of Pixels in Spectrum: 2048
>>>>>Begin Spectral Data<<<<<
341.393	-15
341.776	-15
342.16	-15
342.543	-49.57
342.927	-54.32
343.31	-63.59
343.693	-77.6
344.077	-72.85
344.46	-50.25
344.843	-38.95
345.226	-40.99
345.61	-24.26
345.993	-1.89
346.376	-7.99
346.759	-4.38
347.142	22.97
347.525	47.15
347.908	60.25
348.291	70.65
348.674	88.73
349.057	93.02
349.44	104.55
349.823	154.94
350.206	176.41
350.588	239.23
350.971	223.86
351.354	248.27
351.737	278.55
352.119	279.23
352.502	283.75
352.884	307.03
353.267	312.45
353.65	335.95
354.032	333.24
354.414	345.22
354.797	372.33
355.179	354.71
355.562	352
355.944	360.13
356.326	363.75
356.709	367.59
357.091	384.99
357.473	370.75
357.855	385.44
358.238	363.97
358.62	383.41
359.002	388.61
359.384	361.71
359.766	382.73
360.148	366.91
360.53	382.5
360.912	398.32
361.294	387.25
361.676	375.72
362.057	371.66
362.439	374.14
362.821	347.7
363.203	383.41
363.584	351.77
363.966	357.87
364.348	346.57
364.729	369.62
365.111	350.87
365.493	370.08
365.874	336.4
366.256	343.18
366.637	338.21
367.019	375.95
367.4	374.14
367.781	356.06
368.163	359
368.544	354.71
368.925	369.62
369.306	379.79
369.688	350.19
370.069	345.22
370.45	367.36
370.831	351.54
371.212	363.75
371.593	373.69
371.974	361.26
372.355	367.59
372.736	364.88
373.117	362.17
373.498	376.63
373.879	361.94
374.26	363.97
374.641	363.3
375.021	363.97
375.402	360.81
375.783	387.02
376.163	391.54
376.544	384.31
376.925	390.41
377.305	382.73
377.686	358.78
378.066	402.16
378.447	392.67
378.827	379.79
379.208	400.36
379.588	403.97
379.968	428.38
380.349	392.9
380.729	419.57
381.109	400.58
381.489	395.39
381.87	394.93
382.25	421.37
382.63	416.18
383.01	426.34
383.39	416.85
383.77	431.99
384.15	408.72
384.53	422.95
384.91	431.09
385.29	434.93
385.67	412.79
386.049	429.06
386.429	443.29
386.809	421.6
387.189	455.27
387.568	443.29
387.948	440.13
388.328	447.14
388.707	456.17
389.087	460.24
389.466	473.35
389.846	470.19
390.225	469.73
390.605	481.26
390.984	481.71
391.363	497.3
391.743	493.01
392.122	505.66
392.501	499.79
392.881	495.5
393.26	529.62
393.639	516.51
394.018	525.33
394.397	524.42
394.776	526.23
395.155	536.17
395.534	508.38
395.913	520.58
396.292	536.85
396.671	559.9
397.05	545.66
397.429	559.67
397.808	542.27
398.186	584.31
398.565	587.02
398.944	571.43
399.323	589.96
399.701	597.41
400.08	591.54
400.458	598.77
400.837	578.66
401.215	636.51
401.594	609.62
401.972	620.92
402.351	643.51
402.729	628.83
403.107	627.02
403.486	641.71
403.864	654.14
404.242	655.49
404.62	669.5
404.999	676.06
405.377	683.51
405.755	702.04
406.133	695.94
406.511	718.31
406.889	730.52
407.267	748.14
407.645	765.32
408.023	783.17
408.401	768.93
408.779	789.27
409.156	817.29
409.534	833.57
409.912	818.42
410.29	862.49
410.667	876.05
411.045	885.54
411.422	922.15
411.8	903.39
412.178	927.35
412.555	944.07
412.933	986.78
413.31	982.71
413.687	1008.25
414.065	1035.82
414.442	1034.92
414.819	1079.21
415.197	1090.51
415.574	1093.45
415.951	1102.26
416.328	1147.68
416.705	1156.5
417.082	1168.25
417.46	1158.98
417.837	1208.02
418.214	1197.4
418.591	1236.49
418.967	1207.57
419.344	1265.19
419.721	1267.23
420.098	1293.67
420.475	1298.64
420.852	1314.91
421.228	1323.04
421.605	1358.75
421.982	1376.6
422.358	1397.17
422.735	1391.74
423.111	1405.53
423.488	1469.71
423.864	1434.68
424.241	1485.07
424.617	1486.2
424.994	1555.81
425.37	1536.6
425.746	1558.29
426.123	1571.4
426.499	1593.32
426.875	1628.57
427.251	1655.92
427.627	1709.25
428.003	1716.93
428.379	1723.49
428.756	1761.22
429.132	1784.05
429.507	1793.31
429.883	1812.75
430.259	1859.53
430.635	1912.63
431.011	1881
431.387	1914.89
431.763	1964.84
432.138	1975
432.514	2006.64
432.89	2000.09
433.265	2077.15
433.641	2079.86
434.016	2138.84
434.392	2170.93
434.767	2221.55
435.143	2202.57
435.518	2255.68
435.894	2292.96
436.269	2353.07
436.644	2374.77
437.02	2403.02
437.395	2424.48
437.77	2479.17
438.145	2512.84
438.52	2525.95
438.895	2560.3
439.271	2555.33
439.646	2624.25
440.021	2650.92
440.395	2650.24
440.77	2685.95
441.145	2721.2
441.52	2743.35
441.895	2768.66
442.27	2792.16
442.645	2776.11
443.019	2863.79
443.394	2846.39
443.769	2899.05
444.143	2881.2
444.518	2930.01
444.892	2918.93
445.267	2979.95
445.641	3020.4
446.016	3015.43
446.39	3063.34
446.764	3060.4
447.139	3055.88
447.513	3109.44
447.887	3132.71
448.262	3148.08
448.636	3212.03
449.01	3236.67
449.384	3233.05
449.758	3278.02
450.132	3372.03
450.506	3338.13
450.88	3398.92
451.254	3319.38
451.628	3429.88
452.002	3463.33
452.376	3511.01
452.75	3531.57
453.123	3588.52
453.497	3596.43
453.871	3631.01
454.244	3725.24
454.618	3752.36
454.992	3826.48
455.365	3836.88
455.739	3925.24
456.112	3969.08
456.486	4026.48
456.859	4058.57
457.232	4170.65
457.606	4186.02
457.979	4213.14
458.352	4323.64
458.725	4341.72
459.099	4408.61
459.472	4472.34
459.845	4519.57
460.218	4574.94
460.591	4634.82
460.964	4682.73
461.337	4709.4
461.71	4893.35
462.083	4886.57
462.456	4933.34
462.829	4901.93
463.201	5040.01
463.574	5034.36
463.947	5140.8
464.32	5206.33
464.692	5296.27
465.065	5311.87
465.438	5401.36
465.81	5442.03
466.183	5500.79
466.555	5641.12
466.928	5647.9
467.3	5647.45
467.672	5749.82
468.045	5927.67
468.417	5865.98
468.789	5937.61
469.161	6030.94
469.534	6172.18
469.906	6251.05
470.278	6261.45
470.65	6348
471.022	6508.67
471.394	6602.45
471.766	6633.64
472.138	6783.24
472.51	6855.33
472.882	6932.84
473.253	7011.03
473.625	7108.65
473.997	7255.09
474.369	7326.73
474.74	7329.67
475.112	7481.98
475.484	7633.84
475.855	7778.92
476.227	7878.58
476.598	8034.73
476.97	8182.52
477.341	8276.99
477.713	8350.2
478.084	8436.53
478.455	8724.66
478.827	8749.06
479.198	9001.26
479.569	9015.95
479.94	9273.8
480.311	9435.37
480.682	9573.67
481.053	9756.49
481.424	9842.37
481.795	10001.69
482.166	10190.38
482.537	10330.27
482.908	10543.37
483.279	10637.38
483.65	10785.39
484.021	11081.66
484.391	11100.87
484.762	11307.19
485.133	11343.8
485.503	11524.36
485.874	11766.39
486.244	11769.55
486.615	12078.47
486.985	12238.01
487.356	12495.63
487.726	12601.84
488.097	12871.89
488.467	12887.03
488.837	13145.33
489.207	13360.02
489.578	13528.83
489.948	13769.95
490.318	13872.09
490.688	13870.96
491.058	14089.71
491.428	14335.36
491.798	14369.71
492.168	14692.86
492.538	14638.4
492.908	14868
493.278	15090.59
493.648	15086.98
494.017	15308.89
494.387	15361.32
494.757	15585.49
495.126	15743
495.496	15811.7
495.866	15900.51
496.235	16044.01
496.605	16107.06
496.974	16230.22
497.344	16442.87
497.713	16419.82
498.082	16615.98
498.452	16608.29
498.821	16837.89
499.19	16791.56
499.559	16974.38
499.928	17069.52
500.298	17068.62
500.667	17314.49
501.036	17314.04
501.405	17352.68
501.774	17464.54
502.143	17558.55
502.512	17701.6
502.88	17875.15
503.249	17796.74
503.618	17940.01
503.987	17999.89
504.356	18076.28
504.724	18157.4
505.093	18227.91
505.462	18380.22
505.83	18488.92
506.199	18519.43
506.567	18677.84
506.936	18771.85
507.304	18931.62
507.672	19071.96
508.041	19024.73
508.409	19167.32
508.777	19313.53
509.145	19345.85
509.514	19412.06
509.882	19542.9
510.25	19544.71
510.618	19720.53
510.986	19699.06
511.354	19923.46
511.722	20020.41
512.09	20174.3
512.458	20068.77
512.826	20309.44
513.193	20380.62
513.561	20376.55
513.929	20627.4
514.297	20727.51
514.664	20895.41
515.032	20916.88
515.4	21037.55
515.767	21093.6
516.135	21248.85
516.502	21096.54
516.869	21388.51
517.237	21539.91
517.604	21352.8
517.972	21717.54
518.339	21797.76
518.706	21908.72
519.073	21952.56
519.44	21983.97
519.808	22266.67
520.175	22295.6
520.542	22458.76
520.909	22618.76
521.276	22668.02
521.643	22875.25
522.009	23016.94
522.376	23146.2
522.743	23229.13
523.11	23417.83
523.477	23573.53
523.843	23584.61
524.21	23881.1
524.577	24010.81
524.943	24180.75
525.31	24192.73
525.676	24570.57
526.043	24557.46
526.409	24639.04
526.776	24835.87
527.142	24963.78
527.508	24962.87
527.874	25183.43
528.241	25277.89
528.607	25330.55
528.973	25648.51
529.339	25512.01
529.705	25829.07
530.071	25926.92
530.437	25959.91
530.803	26135.27
531.169	26192.67
531.535	26139.57
531.901	26207.81
532.267	26395.61
532.632	26439.22
532.998	26378.88
533.364	26535.04
533.73	26607.8
534.095	26753.79
534.461	26759.21
534.826	26796.5
535.192	26946.1
535.557	27104.06
535.923	26997.62
536.288	27058.64
536.653	27145.19
537.019	27124.63
537.384	27122.82
537.749	27199.65
538.114	27111.97
538.479	27266.99
538.845	27225.64
539.21	27082.59
539.575	27120.33
539.94	27237.84
540.305	27378.63
540.67	27237.62
541.034	27270.38
541.399	27298.41
541.764	27365.07
542.129	27289.82
542.494	27316.26
542.858	27371.62
543.223	27262.25
543.587	27402.58
543.952	27208.69
544.316	27391.29
544.681	27257.5
545.045	27336.6
545.41	27417.95
545.774	27335.02
546.138	27329.37
546.503	27316.26
546.867	27295.24
547.231	27356.94
547.595	27449.81
547.959	27381.34
548.324	27313.55
548.688	27380.21
549.052	27435.13
549.416	27264.96
549.779	27220.89
550.143	27196.04
550.507	27388.8
550.871	27298.41
551.235	27125.53
551.599	27349.25
551.962	27368.46
552.326	27272.64
552.689	27344.28
553.053	27144.06
553.417	27290.05
553.78	27412.75
554.143	27299.08
554.507	27405.75
554.87	27370.95
555.234	27556.7
555.597	27411.4
555.96	27446.2
556.323	27366.88
556.686	27379.08
557.05	27491.62
557.413	27465.63
557.776	27462.02
558.139	27573.88
558.502	27549.02
558.865	27525.29
559.228	27645.74
559.59	27602.13
559.953	27706.31
560.316	27876.02
560.679	27837.83
561.041	27701.11
561.404	27843.02
561.767	27939.29
562.129	27832.4
562.492	28087.76
562.854	28026.07
563.217	27963.02
563.579	28134.99
563.941	28094.77
564.304	28149.23
564.666	28296.8
565.028	28328.89
565.39	28271.49
565.753	28396.68
566.115	28440.75
566.477	28454.53
566.839	28471.48
567.201	28812.27
567.563	28684.13
567.925	28833.28
568.287	28722.55
568.648	28708.54
569.01	28897.01
569.372	29111.47
569.734	28964.35
570.095	29241.41
570.457	29328.64
570.819	29291.35
571.18	29161.18
571.542	29489.08
571.903	29354.17
572.265	29536.77
572.626	29628.97
572.987	29572.47
573.349	29622.41
573.71	29678.68
574.071	29665.35
574.432	29900.6
574.794	30009.3
575.155	29899.69
575.516	29940.82
575.877	29927.04
576.238	29997.54
576.599	30174.94
576.96	30225.11
577.32	30085.68
577.681	30083.64
578.042	30382.85
578.403	30345.11
578.763	30220.82
579.124	30371.32
579.485	30422.62
579.845	30488.61
580.206	30424.88
580.566	30369.96
580.927	30395.05
581.287	30486.12
581.648	30543.74
582.008	30670.52
582.368	30680.01
582.728	30652.89
583.089	30591.88
583.449	30675.27
583.809	30633.69
584.169	30662.39
584.529	30721.82
584.889	30951.64
585.249	30562.28
585.609	30496.29
585.969	30896.28
586.329	30725.44
586.688	30802.04
587.048	30786.22
587.408	30728.37
587.768	30821.48
588.127	30732.89
588.487	30724.76
588.846	31103.73
589.206	30703.06
589.565	30776.28
589.925	30983.73
590.284	30869.61
590.643	31046.56
591.003	31078.87
591.362	31154.12
591.721	31055.14
592.08	31113.22
592.44	31229.83
592.799	31075.48
593.158	31111.19
593.517	31111.87
593.876	31184.41
594.235	31162.03
594.593	31229.15
594.952	31316.83
595.311	31124.75
595.67	31322.93
596.029	31458.52
596.387	31369.94
596.746	31541.01
597.104	31298.98
597.463	31348.7
597.822	31454.68
598.18	31469.6
598.538	31401.58
598.897	31717.27
599.255	31383.72
599.613	31741.45
599.972	31547.56
600.33	31713.66
600.688	31680.44
601.046	31701.45
601.404	31934.44
601.762	31816.93
602.12	31931.51
602.478	31997.94
602.836	31936.25
603.194	31892.64
603.552	31883.14
603.91	31855.12
604.268	32013.76
604.625	31885.4
604.983	32117.49
605.341	31838.17
605.698	32142.35
606.056	32274.55
606.413	32045.17
606.771	32374.21
607.128	32385.05
607.485	32225.06
607.843	32385.73
608.2	32459.63
608.557	32549.12
608.914	32440.87
609.272	32624.82
609.629	32899.84
609.986	32754.31
610.343	32692.16
610.7	33052.15
611.057	32818.04
611.414	32784.59
611.771	32915.43
612.127	33041.31
612.484	33053.51
612.841	33192.04
613.198	33227.29
613.554	33107.52
613.911	33293.28
614.267	33276.78
614.624	33199.95
614.98	33393.16
615.337	33655.98
615.693	33581.63
616.05	33613.49
616.406	33791.57
616.762	33690.78
617.118	33612.82
617.475	33593.16
617.831	33938.68
618.187	33913.15
618.543	33848.52
618.899	34088.06
619.255	34078.34
619.611	34048.51
619.967	34120.15
620.323	34178.9
620.678	34113.82
621.034	34134.38
621.39	34237.43
621.746	34182.52
622.101	34580.02
622.457	34233.82
622.812	34458.22
623.168	34447.82
623.523	34427.26
623.879	34472.91
624.234	34401.72
624.589	34519.46
624.945	34524.88
625.3	34578.89
625.655	34641.94
626.01	34569.18
626.365	34541.38
626.72	34510.42
627.075	34429.07
627.43	34610.76
627.785	34594.71
628.14	34594.49
628.495	34596.75
628.85	34554.26
629.205	34539.35
629.559	34676.97
629.914	34435.17
630.269	34425.22
630.623	34367.83
630.978	34335.06
631.332	34486.69
631.687	34406.92
632.041	34272.91
632.396	34509.29
632.75	34234.5
633.104	34331.22
633.459	34250.77
633.813	34326.24
634.167	34117.89
634.521	34159.02
634.875	34206.93
635.229	34237.89
635.583	33981.62
635.937	34054.61
636.291	34014.84
636.645	34013.26
636.999	33851.23
637.352	33944.56
637.706	33684.23
638.06	33848.29
638.413	33825.92
638.767	33653.04
639.121	33634.29
639.474	33561.29
639.828	33551.8
640.181	33646.49
640.534	33712.25
640.888	33422.77
641.241	33340.06
641.594	33505.47
641.947	33555.64
642.301	33279.04
642.654	33489.2
643.007	33320.4
643.36	33496.21
643.713	33375.76
644.066	33439.71
644.419	33329.21
644.771	32907.07
645.124	32605.84
645.477	32627.31
645.83	32504.6
646.182	32476.58
646.535	32399.06
646.888	32521.32
647.24	32468.89
647.593	32524.26
647.945	32351.16
648.298	32443.36
648.65	32217.15
649.002	32087.66
649.355	32229.35
649.707	32104.38
650.059	32184.83
650.411	32604.71
650.763	32798.37
651.115	33237.69
651.467	33020.52
651.819	32998.37
652.171	32979.16
652.523	33011.48
652.875	33053.51
653.227	32928.77
653.578	33211.02
653.93	33035.88
654.282	32960.86
654.633	32961.31
654.985	32996.11
655.337	33127.18
655.688	32946.17
656.039	33153.17
656.391	32969.22
656.742	33078.37
657.094	33065.49
657.445	33063.68
657.796	33152.04
658.147	33086.73
658.498	33077.24
658.849	33235.43
659.2	33157.46
659.551	33130.57
659.902	33371.69
660.253	33163.34
660.604	33330.56
660.955	33153.17
661.306	33336.67
661.656	33225.71
662.007	33354.07
662.358	33206.5
662.708	33496.44
663.059	33265.48
663.409	33252.6
663.76	33444.23
664.11	33476.78
664.461	33461.86
664.811	33447.17
665.161	33441.3
665.511	33303.45
665.862	33589.09
666.212	33511.35
666.562	33506.6
666.912	33513.38
667.262	33421.41
667.612	33543.67
667.962	33536.66
668.312	33385.03
668.662	33579.82
669.011	33654.4
669.361	33502.76
669.711	33513.38
670.06	33376.66
670.41	33365.37
670.76	33493.72
671.109	33528.53
671.459	33421.64
671.808	33459.6
672.157	33416.44
672.507	33390.9
672.856	33195.65
673.205	33288.76
673.554	33251.02
673.904	33275.88
674.253	33482.65
674.602	33277.01
674.951	32975.32
675.3	32676.12
675.649	33211.02
675.998	33233.62
676.346	33188.2
676.695	33286.05
677.044	32961.08
677.393	33213.05
677.741	33320.4
678.09	33068.42
678.438	33126.05
678.787	33089.21
679.135	32948.43
679.484	32802.89
679.832	32960.4
680.181	32917.02
680.529	32860.52
680.877	32726.06
681.225	32634.76
681.573	33004.02
681.922	32607.87
682.27	32563.8
682.618	32577.14
682.966	32409.23
683.314	32482.23
683.661	32293.98
684.009	32244.94
684.357	32230.48
684.705	32143.25
685.053	32080.43
685.4	32017.6
685.748	31788.23
686.095	31804.95
686.443	31652.64
686.79	31675.69
687.138	31880.66
687.485	31717.95
687.832	31382.37
688.18	31360.67
688.527	31149.15
688.874	31167.23
689.221	31164.07
689.568	30994.58
689.915	30906.67
690.262	30899.67
690.609	30795.26
690.956	30595.95
691.303	30612.67
691.65	30441.83
691.997	30392.79
692.344	30242.51
692.69	30240.02
693.037	30096.3
693.383	29930.65
693.73	29908.51
694.077	29772.01
694.423	29648.4
694.769	29461.06
695.116	29488.63
695.462	29418.8
695.808	29228.75
696.155	29252.71
696.501	28982.2
696.847	29048.19
697.193	28782.89
697.539	28687.3
697.885	28570.46
698.231	28540.63
698.577	28353.75
698.923	28330.47
699.269	28103.13
699.614	28020.65
699.96	27846.41
700.306	27883.7
700.651	27633.54
700.997	27624.95
701.342	27541.11
701.688	27430.83
702.033	27396.03
702.379	27409.82
702.724	27121.01
703.069	27189.71
703.415	26739.1
703.76	26751.75
704.105	26777.06
704.45	26642.15
704.795	26549.5
705.14	26456.85
705.485	26471.08
705.83	26259.11
706.175	26335.49
706.52	26190.41
706.865	26037.65
707.209	25897.09
707.554	25849.18
707.899	25880.59
708.243	25751.78
708.588	25745.23
708.932	25488.51
709.277	25559.7
709.621	25492.35
709.966	25361.73
710.31	25363.99
710.654	25157.9
710.998	25198.35
711.342	25197.9
711.687	25058.24
712.031	25110.89
712.375	24948.19
712.719	24930.56
713.063	24889.88
713.407	24966.72
713.75	24851.47
714.094	24739.15
714.438	24589.1
714.782	24618.93
715.125	24630.23
715.469	24757.46
715.812	24381.87
716.156	24385.26
716.499	24490.8
716.843	24568.76
717.186	24389.1
717.53	24512.94
717.873	24457.58
718.216	24470.68
718.559	24301.88
718.902	24151.82
719.246	24326.73
719.589	24216.91
719.932	24145.95
720.275	24159.96
720.617	24304.36
720.96	24162.44
721.303	24262.33
721.646	24207.41
721.989	24112.95
722.331	24095.33
722.674	24069.79
723.016	24118.83
723.359	24021.66
723.701	24072.5
724.044	24125.38
724.386	24047.42
724.729	24053.75
725.071	24072.95
725.413	24063.92
725.755	24016.23
726.097	24030.92
726.439	23979.62
726.782	24001.32
727.124	24121.31
727.465	24113.63
727.807	23974.43
728.149	24084.03
728.491	24014.43
728.833	24143.24
729.175	24104.37
729.516	24161.31
729.858	24105.27
730.199	24273.85
730.541	24027.76
730.882	24182.78
731.224	24243.35
731.565	24074.99
731.906	24187.3
732.248	24251.25
732.589	24104.59
732.93	24173.52
733.271	24257.81
733.612	24316.56
733.953	24366.96
734.294	24341.42
734.635	24216.23
734.976	24505.71
735.317	24456.45
735.658	24483.57
735.999	24385.49
736.339	24336.68
736.68	24610.79
737.021	24514.52
737.361	24559.72
737.702	24739.15
738.042	24618.25
738.383	24723.56
738.723	24848.3
739.063	24886.27
739.404	24888.75
739.744	24914.29
740.084	24882.2
740.424	25032.25
740.764	25140.27
741.104	25266.6
741.444	25192.93
741.784	25294.62
742.124	25390.43
742.464	25359.7
742.804	25452.58
743.143	25544.78
743.483	25676.98
743.823	25765.11
744.162	25880.59
744.502	25799.24
744.841	25900.48
745.181	26222.5
745.52	26238.55
745.86	26311.31
746.199	26394.02
746.538	26594.47
746.877	26885.76
747.216	26827.23
747.556	27019.32
747.895	27163.72
748.234	27284.62
748.573	27363.04
748.911	27417.27
749.25	27659.53
749.589	27707.66
749.928	27956.69
750.267	28080.76
750.605	28151.27
750.944	28417.7
751.283	28420.18
751.621	28632.83
751.96	28699.5
752.298	28932.26
752.636	29102.2
752.975	29247.51
753.313	29305.81
