Data from 291_FLMS001491_010.txt Node
Date: Thu Apr 19 16:45:56 BST 2018
User: hsy
Spectrometer: FLMS00149
Trigger mode: 0
Integration Time (sec): 1.000000E-2
Scans to average: 10
Electric dark correction enabled: true
Nonlinearity correction enabled: false
Boxcar width: 0
XAxis mode: Wavelengths
Number of Pixels in Spectrum: 2048
>>>>>Begin Spectral Data<<<<<
341.393	-15.17
341.776	-15.17
342.16	-15.17
342.543	-57.2
342.927	-65.34
343.31	-59.69
343.693	-68.28
344.077	-83.19
344.46	-61.27
344.843	-53.13
345.226	-33.7
345.61	-24.21
345.993	-15.17
346.376	-12.46
346.759	18.28
347.142	24.6
347.525	43.36
347.908	64.15
348.291	64.83
348.674	78.84
349.057	117.03
349.44	130.36
349.823	134.21
350.206	154.32
350.588	216.46
350.971	244.03
351.354	268.21
351.737	292.62
352.119	280.42
352.502	289.46
352.884	303.92
353.267	323.81
353.65	326.52
354.032	337.59
354.414	342.11
354.797	338.04
355.179	341.66
355.562	351.15
355.944	342.34
356.326	369
356.709	371.04
357.091	368.1
357.473	366.97
357.855	354.31
358.238	390.24
358.62	363.58
359.002	359.06
359.384	367.87
359.766	368.32
360.148	364.48
360.53	364.48
360.912	375.56
361.294	366.52
361.676	360.19
362.057	384.14
362.439	397.02
362.821	374.88
363.203	375.78
363.584	370.58
363.966	347.53
364.348	375.33
364.729	337.36
365.111	340.3
365.493	371.94
365.874	355.89
366.256	350.25
366.637	362
367.019	354.54
367.4	368.1
367.781	353.63
368.163	371.71
368.544	351.6
368.925	346.86
369.306	375.1
369.688	351.83
370.069	354.99
370.45	345.27
370.831	359.06
371.212	353.63
371.593	363.13
371.974	337.82
372.355	367.19
372.736	367.42
373.117	366.74
373.498	371.49
373.879	363.58
374.26	363.8
374.641	347.08
375.021	374.65
375.402	368.78
375.783	380.3
376.163	384.82
376.544	369.68
376.925	378.94
377.305	386.85
377.686	389.79
378.066	392.5
378.447	385.5
378.827	376.01
379.208	374.2
379.588	409.9
379.968	385.72
380.349	398.15
380.729	394.54
381.109	409.68
381.489	427.53
381.87	402.9
382.25	391.6
382.63	410.13
383.01	425.27
383.39	428.21
383.77	420.3
384.15	421.43
384.53	434.54
384.91	437.47
385.29	431.15
385.67	431.37
386.049	453.52
386.429	417.59
386.809	460.52
387.189	442.22
387.568	462.11
387.948	459.17
388.328	466.63
388.707	465.95
389.087	438.83
389.466	483.12
389.846	471.37
390.225	504.59
390.605	484.48
390.984	488.32
391.363	492.84
391.743	510.24
392.122	494.2
392.501	509.56
392.881	507.98
393.26	498.94
393.639	512.73
394.018	504.37
394.397	520.41
394.776	532.39
395.155	523.57
395.534	532.39
395.913	534.42
396.292	562.22
396.671	558.15
397.05	564.25
397.429	551.37
397.808	579.62
398.186	577.13
398.565	579.62
398.944	569.45
399.323	576.45
399.701	559.05
400.08	577.58
400.458	593.4
400.837	591.14
401.215	612.39
401.594	634.76
401.972	620.07
402.351	639.5
402.729	630.69
403.107	666.85
403.486	640.63
403.864	679.05
404.242	670.46
404.62	692.16
404.999	698.26
405.377	697.81
405.755	720.86
406.133	732.83
406.511	734.64
406.889	759.05
407.267	783.45
407.645	774.87
408.023	765.83
408.401	798.59
408.779	811.93
409.156	832.94
409.534	818.48
409.912	870.23
410.29	895.32
410.667	879.5
411.045	914.75
411.422	914.52
411.8	947.07
412.178	946.39
412.555	981.64
412.933	991.58
413.31	989.1
413.687	1028.87
414.065	1014.86
414.442	1070.45
414.819	1059.15
415.197	1091.24
415.574	1111.35
415.951	1125.37
416.328	1140.73
416.705	1171.69
417.082	1157
417.46	1174.86
417.837	1185.03
418.214	1191.8
418.591	1228.87
418.967	1219.37
419.344	1244.01
419.721	1291.46
420.098	1299.15
420.475	1308.41
420.852	1333.95
421.228	1338.92
421.605	1360.61
421.982	1396.32
422.358	1410.78
422.735	1405.58
423.111	1433.15
423.488	1457.11
423.864	1463.66
424.241	1484
424.617	1504.34
424.994	1509.76
425.37	1575.52
425.746	1587.05
426.123	1567.61
426.499	1586.37
426.875	1626.82
427.251	1652.36
427.627	1701.4
428.003	1701.4
428.379	1745.24
428.756	1731.68
429.132	1770.77
429.507	1810.55
429.883	1815.74
430.259	1866.14
430.635	1874.72
431.011	1881.28
431.387	1904.33
431.763	1975.74
432.138	1941.84
432.514	2004.66
432.89	2052.57
433.265	2089.41
433.641	2135.73
434.016	2142.74
434.392	2200.59
434.767	2260.25
435.143	2252.57
435.518	2272.68
435.894	2289.4
436.269	2315.84
436.644	2377.08
437.02	2406.69
437.395	2428.61
437.77	2489.17
438.145	2513.8
438.52	2550.41
438.895	2579.34
439.271	2590.64
439.646	2619.79
440.021	2650.98
440.395	2680.13
440.77	2673.35
441.145	2692.78
441.52	2752.22
441.895	2749.73
442.27	2809.16
442.645	2835.6
443.019	2844.42
443.394	2851.42
443.769	2909.95
444.143	2884.64
444.518	2928.71
444.892	2962.61
445.267	2963.74
445.641	2973.23
446.016	3036.28
446.39	3039.44
446.764	3077.63
447.139	3060.46
447.513	3151.98
447.887	3151.75
448.262	3165.76
448.636	3212.54
449.01	3237.63
449.384	3283.28
449.758	3245.31
450.132	3353.56
450.506	3380.9
450.88	3390.84
451.254	3381.8
451.628	3450.05
452.002	3502.03
452.376	3524.85
452.75	3547
453.123	3577.05
453.497	3643.27
453.871	3657.05
454.244	3764.39
454.618	3748.35
454.992	3850.72
455.365	3894.78
455.739	3946.99
456.112	3991.73
456.486	4041.45
456.859	4064.5
457.232	4135
457.606	4200.09
457.979	4270.37
458.352	4294.32
458.725	4392.17
459.099	4394.88
459.472	4491.83
459.845	4532.73
460.218	4613.18
460.591	4678.04
460.964	4642.34
461.337	4771.82
461.71	4881.2
462.083	4915.77
462.456	4962.33
462.829	4963.23
463.201	5083.45
463.574	5112.83
463.947	5136.33
464.32	5305.14
464.692	5288.19
465.065	5345.82
465.438	5413.61
465.81	5483.67
466.183	5544.91
466.555	5656.55
466.928	5704.23
467.3	5733.38
467.672	5857.9
468.045	5980.83
468.417	5960.94
468.789	6010.21
469.161	6095.4
469.534	6171.56
469.906	6313.7
470.278	6351.44
470.65	6393.25
471.022	6530.2
471.394	6643.86
471.766	6713.02
472.138	6711.66
472.51	6894.93
472.882	7010.86
473.253	7036.85
473.625	7141.93
473.997	7297.18
474.369	7407.46
474.74	7434.58
475.112	7593.44
475.484	7752.54
475.855	7845.42
476.227	7929.71
476.598	8147.33
476.97	8160.66
477.341	8384.16
477.713	8533.08
478.084	8576.24
478.455	8746.18
478.827	8856.01
479.198	9082.67
479.569	9159.5
479.94	9393.4
480.311	9534.41
480.682	9653.28
481.053	9846.94
481.424	9960.16
481.795	10043.78
482.166	10291.9
482.537	10347.27
482.908	10557.66
483.279	10735.73
483.65	10927.37
484.021	11069.51
484.391	11242.61
484.762	11351.76
485.133	11477.86
485.503	11576.84
485.874	11911.3
486.244	11974.57
486.615	12226.99
486.985	12331.17
487.356	12547.21
487.726	12594.22
488.097	12989.91
488.467	13049.8
488.837	13202.56
489.207	13399.62
489.578	13674.19
489.948	13762.77
490.318	13945.59
490.688	13945.59
491.058	14160.96
491.428	14438.91
491.798	14468.97
492.168	14894.27
492.538	14841.84
492.908	14970.43
493.278	15192.57
493.648	15209.74
494.017	15491.54
494.387	15595.95
494.757	15696.06
495.126	15791.19
495.496	15933.11
495.866	16049.49
496.235	16138.53
496.605	16253.56
496.974	16389.15
497.344	16529.48
497.713	16553.43
498.082	16711.62
498.452	16818.06
498.821	16999.98
499.19	17056.25
499.559	17193.42
499.928	17225.28
500.298	17267.09
500.667	17497.14
501.036	17433.41
501.405	17615.78
501.774	17663.69
502.143	17764.48
502.512	17912.04
502.88	17974.19
503.249	17957.01
503.618	18129.66
503.987	18248.98
504.356	18370.34
504.724	18435.65
505.093	18492.82
505.462	18432.03
505.83	18551.12
506.199	18719.71
506.567	18851.23
506.936	18816.65
507.304	19072.69
507.672	19100.26
508.041	19161.73
508.409	19323.08
508.777	19360.82
509.145	19555.39
509.514	19564.43
509.882	19644.88
510.25	19729.85
510.618	19886.23
510.986	19891.88
511.354	20101.59
511.722	20262.26
512.09	20443.28
512.458	20354.01
512.826	20500.22
513.193	20612.54
513.561	20627.9
513.929	20702.03
514.297	20881.68
514.664	21080.77
515.032	21104.73
515.4	21245.06
515.767	21397.83
516.135	21389.01
516.502	21263.14
516.869	21557.6
517.237	21740.87
517.604	21549.69
517.972	21852.28
518.339	22031.93
518.706	21992.61
519.073	22221.08
519.44	22255.43
519.808	22518.25
520.175	22494.75
520.542	22735.42
520.909	22746.72
521.276	22792.82
521.643	23047.95
522.009	23157.55
522.376	23396.64
522.743	23312.35
523.11	23620.59
523.477	23706.47
523.843	23832.79
524.21	24058.1
524.577	24184.19
524.943	24324.98
525.31	24338.99
525.676	24717.97
526.043	24767.68
526.409	24747.34
526.776	25053.32
527.142	24996.83
527.508	25304.39
527.874	25352.53
528.241	25479.75
528.607	25705.51
528.973	25852.17
529.339	25796.13
529.705	26054.2
530.071	26155.67
530.437	26161.09
530.803	26331.03
531.169	26459.62
531.535	26498.48
531.901	26410.35
532.267	26478.82
532.632	26694.86
532.998	26753.17
533.364	26877.68
533.73	26867.51
534.095	27028.19
534.461	27001.97
534.826	27120.61
535.192	27018.02
535.557	27207.62
535.923	27189.77
536.288	27332.36
536.653	27340.5
537.019	27332.36
537.384	27348.86
537.749	27288.97
538.114	27474.73
538.479	27509.08
538.845	27531.68
539.21	27299.37
539.575	27458.91
539.94	27468.85
540.305	27563.31
540.67	27468.85
541.034	27536.65
541.399	27499.14
541.764	27613.71
542.129	27584.56
542.494	27476.76
542.858	27623.65
543.223	27440.83
543.587	27629.08
543.952	27535.97
544.316	27527.16
544.681	27490.77
545.045	27664.56
545.41	27655.52
545.774	27481.74
546.138	27469.08
546.503	27548.4
546.867	27439.25
547.231	27547.72
547.595	27560.83
547.959	27593.82
548.324	27587.49
548.688	27369.65
549.052	27548.63
549.416	27412.13
549.779	27478.35
550.143	27459.59
550.507	27619.81
550.871	27506.59
551.235	27338.01
551.599	27591.56
551.962	27542.75
552.326	27543.2
552.689	27481.28
553.053	27443.09
553.417	27515.63
553.78	27583.88
554.143	27460.27
554.507	27546.82
554.87	27665.68
555.234	27592.01
555.597	27467.5
555.96	27366.48
556.323	27518.34
556.686	27451.45
557.05	27709.53
557.413	27545.91
557.776	27566.93
558.139	27547.72
558.502	27606.7
558.865	27599.92
559.228	27690.54
559.59	27661.84
559.953	27691.45
560.316	27859.13
560.679	27733.48
561.041	27850.31
561.404	27974.38
561.767	28009.18
562.129	27840.14
562.492	28086.01
562.854	28032.23
563.217	27977.77
563.579	27947.49
563.941	28152.9
564.304	28267.7
564.666	28314.93
565.028	28253.69
565.39	28330.98
565.753	28391.32
566.115	28357.64
566.477	28451.88
566.839	28423.18
567.201	28734.58
567.563	28615.72
567.925	28737.07
568.287	28824.07
568.648	28745.66
569.01	28923.73
569.372	29058.64
569.734	28975.03
570.095	29109.94
570.457	29208.7
570.819	29176.15
571.18	29218.41
571.542	29372.53
571.903	29340.67
572.265	29475.13
572.626	29643.94
572.987	29475.81
573.349	29636.25
573.71	29763.71
574.071	29740.66
574.432	29859.75
574.794	30090.25
575.155	29921.9
575.516	29985.4
575.877	29928.45
576.238	29995.12
576.599	30135.45
576.96	30115.34
577.32	30142.46
577.681	30163.02
578.042	30301.1
578.403	30219.29
578.763	30258.16
579.124	30259.06
579.485	30527.3
579.845	30607.08
580.206	30431.26
580.566	30487.53
580.927	30463.35
581.287	30548.55
581.648	30494.09
582.008	30662.67
582.368	30671.48
582.728	30664.25
583.089	30657.24
583.449	30673.97
583.809	30621.09
584.169	30646.4
584.529	30649.11
584.889	30805.26
585.249	30711.48
585.609	30414.09
585.969	30759.84
586.329	30714.64
586.688	30803.46
587.048	30742.21
587.408	30857.69
587.768	30732.27
588.127	30796
588.487	30757.13
588.846	30982.21
589.206	30647.98
589.565	30681.42
589.925	30987.63
590.284	30857.92
590.643	30869.44
591.003	31032.38
591.362	31006.84
591.721	31090.45
592.08	31035.54
592.44	31111.47
592.799	31028.08
593.158	31051.81
593.517	30952.38
593.876	31170.9
594.235	31218.59
594.593	31132.03
594.952	31186.5
595.311	31199.83
595.67	31267.62
596.029	31290.45
596.387	31375.19
596.746	31485.25
597.104	31235.08
597.463	31159.15
597.822	31490.67
598.18	31190.34
598.538	31477.56
598.897	31535.87
599.255	31481.86
599.613	31711.23
599.972	31570.22
600.33	31562.76
600.688	31533.61
601.046	31643.43
601.404	31741.06
601.762	31754.62
602.12	31805.24
602.478	31903.99
602.836	31851.11
603.194	31630.1
603.552	31732.92
603.91	31713.04
604.268	31821.06
604.625	31751.23
604.983	31901.73
605.341	31884.33
605.698	32017.21
606.056	32038.9
606.413	31937.44
606.771	32092.69
607.128	32021.28
607.485	32014.5
607.843	32148.28
608.2	32170.43
608.557	32310.99
608.914	32222.4
609.272	32314.38
609.629	32518.44
609.986	32512.11
610.343	32415.62
610.7	32741.94
611.057	32697.19
611.414	32562.51
611.771	32759.56
612.127	32757.3
612.484	32887.92
612.841	32884.3
613.198	32643.18
613.554	32795.27
613.911	33014.92
614.267	32980.12
614.624	32982.61
614.98	33168.82
615.337	33263.05
615.693	33239.32
616.05	33242.04
616.406	33336.95
616.762	33298.08
617.118	33362.03
617.475	33363.16
617.831	33611.29
618.187	33651.52
618.543	33575.81
618.899	33736.71
619.255	33800.21
619.611	33682.7
619.967	33958.4
620.323	33853.09
620.678	33740.55
621.034	33715.92
621.39	33783.49
621.746	33829.14
622.101	34122.24
622.457	33915.24
622.812	33997.5
623.168	34128.34
623.523	33994.56
623.879	34278.39
624.234	34056.7
624.589	34037.95
624.945	34106.42
625.3	34239.98
625.655	34307.77
626.01	34245.17
626.365	34392.97
626.72	34199.52
627.075	34066.42
627.43	34225.74
627.785	34282.23
628.14	34368.33
628.495	34212.86
628.85	34300.31
629.205	34166.76
629.559	34366.07
629.914	34110.71
630.269	34242.01
630.623	34041.34
630.978	33951.85
631.332	34297.15
631.687	34226.64
632.041	34069.36
632.396	34136.93
632.75	34115.46
633.104	34078.4
633.459	33828.23
633.813	34052.86
634.167	33904.84
634.521	34072.07
634.875	33908.91
635.229	33782.13
635.583	33744.62
635.937	33710.72
636.291	33665.3
636.645	33740.55
636.999	33538.98
637.352	33698.97
637.706	33414.46
638.06	33652.65
638.413	33391.41
638.767	33483.61
639.121	33524.97
639.474	33425.53
639.828	33386.66
640.181	33418.98
640.534	33559.77
640.888	33321.13
641.241	33157.52
641.594	33165.43
641.947	33409.71
642.301	33183.51
642.654	33203.84
643.007	33153.22
643.36	33167.69
643.713	33035.71
644.066	33243.62
644.419	32975.83
644.771	32787.36
645.124	32429.18
645.477	32354.6
645.83	32336.52
646.182	32286.81
646.535	32208.84
646.888	32390.76
647.24	32205
647.593	32419.23
647.945	32308.5
648.298	32163.65
648.65	32112.57
649.002	31997.1
649.355	31974.5
649.707	31976.53
650.059	31960.04
650.411	32348.5
650.763	32665.55
651.115	32996.62
651.467	32854.25
651.819	32865.1
652.171	32915.49
652.523	32796.17
652.875	32902.16
653.227	32741.03
653.578	33073.68
653.93	32988.48
654.282	32842.72
654.633	32884.53
654.985	32942.83
655.337	32983.29
655.688	32888.15
656.039	32990.52
656.391	32678.66
656.742	32950.07
657.094	32985.09
657.445	33034.58
657.796	33102.38
658.147	33009.95
658.498	33078.2
658.849	33188.93
659.2	33004.3
659.551	32995.94
659.902	33170.85
660.253	33004.98
660.604	33109.16
660.955	33003.85
661.306	33184.18
661.656	33070.29
662.007	33268.25
662.358	33256.27
662.708	33297.18
663.059	33193.22
663.409	33115.03
663.76	33366.55
664.11	33325.65
664.461	33360.9
664.811	33358.64
665.161	33363.84
665.511	33298.08
665.862	33362.71
666.212	33419.43
666.562	33483.61
666.912	33438.41
667.262	33355.48
667.612	33394.35
667.962	33418.08
668.312	33341.69
668.662	33605.64
669.011	33513.44
669.361	33395.7
669.711	33463.05
670.06	33395.03
670.41	33418.75
670.76	33430.51
671.109	33451.07
671.459	33313.22
671.808	33410.17
672.157	33324.75
672.507	33131.98
672.856	33259.44
673.205	33298.98
673.554	33369.04
673.904	33200.91
674.253	33337.63
674.602	33172.66
674.951	32652.45
675.3	32552.56
675.649	33122.72
675.998	33147.8
676.346	33148.25
676.695	33139.89
677.044	32893.34
677.393	32971.08
677.741	33155.26
678.09	32838.43
678.438	32898.09
678.787	32936.51
679.135	32835.49
679.484	32792.33
679.832	32807.02
680.181	32751.65
680.529	32646.57
680.877	32540.13
681.225	32557.08
681.573	32673.69
681.922	32473.47
682.27	32350.99
682.618	32354.6
682.966	32202.06
683.314	32402.06
683.661	32362.51
684.009	32088.17
684.357	32077.32
684.705	32040.71
685.053	31961.62
685.4	31843.2
685.748	31592.14
686.095	31715.97
686.443	31471.69
686.79	31572.25
687.138	31662.42
687.485	31417.22
687.832	31268.53
688.18	31302.43
688.527	31202.99
688.874	31153.73
689.221	31094.75
689.568	30916
689.915	30748.09
690.262	30726.85
690.609	30690.46
690.956	30491.83
691.303	30651.6
691.65	30339.51
691.997	30190.14
692.344	30035.34
692.69	29998.28
693.037	30008.67
693.383	29680.32
693.73	29912.63
694.077	29708.57
694.423	29663.82
694.769	29465.19
695.116	29494.11
695.462	29197.4
695.808	29164.63
696.155	29153.56
696.501	28902.71
696.847	28835.6
697.193	28665.43
697.539	28713.12
697.885	28377.53
698.231	28413.69
698.577	28264.54
698.923	28276.52
699.269	28025.68
699.614	27784.78
699.96	27778
700.306	27733.03
700.651	27613.93
700.997	27464.33
701.342	27396.54
701.688	27286.94
702.033	27222.08
702.379	27137.34
702.724	26992.48
703.069	27079.94
703.415	26745.03
703.76	26622.77
704.105	26599.5
704.45	26574.19
704.795	26459.39
705.14	26213.75
705.485	26245.38
705.83	26083.81
706.175	26119.74
706.52	26059.63
706.865	25932.62
707.209	25797.03
707.554	25828.45
707.899	25781.21
708.243	25572.18
708.588	25527.89
708.932	25387.55
709.277	25374.45
709.621	25310.49
709.966	25056.26
710.31	25209.48
710.654	24910.28
710.998	24991.41
711.342	24982.82
711.687	24924.51
712.031	24843.16
712.375	24643.17
712.719	24703.28
713.063	24657.18
713.407	24741.02
713.75	24581.47
714.094	24536.73
714.438	24472.32
714.782	24501.02
715.125	24312.78
715.469	24544.41
715.812	24297.86
716.156	24266.45
716.499	24274.14
716.843	24299.67
717.186	24188.26
717.53	24369.5
717.873	24308.94
718.216	24250.41
718.559	24099.9
718.902	24042.05
719.246	24096.29
719.589	24091.09
719.932	23981.94
720.275	24007.25
720.617	23953.47
720.96	24048.83
721.303	24001.83
721.646	24081.82
721.989	23820.59
722.331	24021.04
722.674	24061.94
723.016	23972.45
723.359	23887.48
723.701	23855.39
724.044	23909.85
724.386	23773.81
724.729	23976.29
725.071	23960.02
725.413	23859.91
725.755	23829.18
726.097	23781.27
726.439	23909.63
726.782	23872.34
727.124	23926.8
727.465	23947.36
727.807	23953.24
728.149	23889.29
728.491	23961.83
728.833	24038.21
729.175	24071.2
729.516	24014.71
729.858	23969.29
730.199	24075.27
730.541	23972.67
730.882	24050.64
731.224	24145.33
731.565	23950.75
731.906	24097.19
732.248	24174.48
732.589	24124.99
732.93	24039.34
733.271	24174.48
733.612	24205.66
733.953	24233.46
734.294	24264.42
734.635	24279.56
734.976	24364.3
735.317	24323.4
735.658	24400.69
735.999	24488.82
736.339	24484.3
736.68	24520.68
737.021	24595.03
737.361	24647.23
737.702	24792.54
738.042	24667.35
738.383	24821.01
738.723	24820.56
739.063	24887.68
739.404	25120.22
739.744	25030.95
740.084	25077.5
740.424	25237.73
740.764	25238.18
741.104	25359.53
741.444	25278.63
741.784	25336.25
742.124	25508.23
742.464	25546.19
742.804	25678.62
743.143	25776.47
743.483	25814.66
743.823	25862.79
744.162	25987.76
744.502	26110.92
744.841	26019.4
745.181	26401.76
745.52	26472.04
745.86	26678.37
746.199	26734.18
746.538	26841.07
746.877	26982.31
747.216	27140.28
747.556	27174.4
747.895	27414.39
748.234	27401.96
748.573	27625.91
748.911	27754.95
749.25	27885.34
749.589	27963.08
749.928	28258.66
750.267	28408.94
750.605	28577.98
750.944	28608.94
751.283	28811.64
751.621	29043.05
751.96	29101.35
752.298	29337.73
752.636	29548.12
752.975	29542.7
753.313	29833.76
