Data from 291_FLMS001491_008.txt Node
Date: Thu Apr 19 16:45:51 BST 2018
User: hsy
Spectrometer: FLMS00149
Trigger mode: 0
Integration Time (sec): 1.000000E-2
Scans to average: 10
Electric dark correction enabled: true
Nonlinearity correction enabled: false
Boxcar width: 0
XAxis mode: Wavelengths
Number of Pixels in Spectrum: 2048
>>>>>Begin Spectral Data<<<<<
341.393	-24.76
341.776	-24.76
342.16	-24.76
342.543	-78.09
342.927	-82.84
343.31	-73.35
343.693	-64.08
344.077	-72.22
344.46	-61.59
344.843	-47.58
345.226	-51.88
345.61	-26.34
345.993	-24.08
346.376	-13.69
346.759	3.49
347.142	52.07
347.525	33.54
347.908	66.76
348.291	68.57
348.674	101.57
349.057	108.8
349.44	114.9
349.823	146.08
350.206	174.11
350.588	219.75
350.971	227.66
351.354	257.49
351.737	275.35
352.119	291.39
352.502	311.5
352.884	308.57
353.267	292.52
353.65	318.96
354.032	333.88
354.414	350.15
354.797	338.17
355.179	368.68
355.562	362.12
355.944	358.96
356.326	379.52
356.709	374.78
357.091	358.06
357.473	395.34
357.855	356.25
358.238	382.01
358.62	378.85
359.002	375
359.384	363.93
359.766	371.61
360.148	359.64
360.53	378.17
360.912	360.77
361.294	378.39
361.676	379.75
362.057	374.33
362.439	370.94
362.821	377.94
363.203	363.03
363.584	351.05
363.966	350.82
364.348	373.65
364.729	358.73
365.111	354.67
365.493	357.83
365.874	357.38
366.256	357.83
366.637	363.25
367.019	358.06
367.4	363.93
367.781	360.99
368.163	355.12
368.544	322.58
368.925	358.06
369.306	350.6
369.688	368.9
370.069	326.87
370.45	358.28
370.831	355.34
371.212	356.02
371.593	352.41
371.974	354.67
372.355	358.73
372.736	376.59
373.117	385.85
373.498	374.33
373.879	366.87
374.26	352.41
374.641	346.08
375.021	367.77
375.402	367.09
375.783	371.16
376.163	402.57
376.544	389.24
376.925	387.43
377.305	379.3
377.686	390.82
378.066	395.57
378.447	394.44
378.827	391.28
379.208	396.25
379.588	393.76
379.968	414.78
380.349	379.75
380.729	389.47
381.109	411.39
381.489	419.75
381.87	400.99
382.25	416.36
382.63	431.95
383.01	417.26
383.39	395.34
383.77	405.06
384.15	433.08
384.53	431.5
384.91	428.79
385.29	431.5
385.67	443.48
386.049	442.12
386.429	457.71
386.809	461.1
387.189	442.35
387.568	464.72
387.948	449.8
388.328	428.34
388.707	470.14
389.087	469.69
389.466	454.78
389.846	485.51
390.225	457.49
390.605	475.34
390.984	491.61
391.363	493.87
391.743	485.51
392.122	500.88
392.501	493.42
392.881	499.75
393.26	516.24
393.639	512.18
394.018	495.91
394.397	499.97
394.776	525.06
395.155	523.7
395.534	516.7
395.913	518.05
396.292	534.1
396.671	544.94
397.05	558.05
397.429	572.06
397.808	554.66
398.186	565.73
398.565	570.25
398.944	564.6
399.323	589.01
399.701	577.26
400.08	572.74
400.458	597.15
400.837	605.51
401.215	579.07
401.594	598.28
401.972	633.75
402.351	621.1
402.729	641.66
403.107	645.96
403.486	652.29
403.864	633.98
404.242	662.68
404.62	673.75
404.999	677.6
405.377	686.18
405.755	715.33
406.133	725.5
406.511	728.44
406.889	740.19
407.267	736.58
407.645	781.1
408.023	763.02
408.401	777.71
408.779	785.84
409.156	807.31
409.534	817.48
409.912	840.3
410.29	857.93
410.667	885.27
411.045	891.15
411.422	903.35
411.8	924.14
412.178	912.39
412.555	954.88
412.933	1002.56
413.31	990.36
413.687	1020.86
414.065	1045.27
414.442	1039.85
414.819	1065.38
415.197	1043.01
415.574	1094.76
415.951	1097.47
416.328	1125.04
416.705	1120.3
417.082	1130.01
417.46	1170.01
417.837	1199.39
418.214	1222.67
418.591	1199.39
418.967	1233.29
419.344	1237.58
419.721	1273.29
420.098	1273.51
420.475	1320.97
420.852	1310.12
421.228	1330.69
421.605	1333.4
421.982	1371.14
422.358	1386.73
422.735	1429.21
423.111	1401.19
423.488	1429.44
423.864	1437.8
424.241	1471.92
424.617	1493.84
424.994	1501.98
425.37	1532.94
425.746	1515.09
426.123	1573.16
426.499	1582.66
426.875	1607.51
427.251	1631.02
427.627	1692.48
428.003	1671.92
428.379	1697.46
428.756	1698.13
429.132	1761.41
429.507	1782.65
429.883	1825.14
430.259	1854.29
430.635	1839.82
431.011	1888.18
431.387	1902.42
431.763	1936.77
432.138	1957.34
432.514	1985.13
432.89	2005.02
433.265	2074.39
433.641	2101.96
434.016	2090.67
434.392	2184.9
434.767	2211.79
435.143	2226.48
435.518	2236.2
435.894	2291.79
436.269	2316.42
436.644	2368.17
437.02	2386.02
437.395	2368.62
437.77	2435.74
438.145	2485.68
438.52	2530.65
438.895	2551.9
439.271	2543.76
439.646	2570.43
440.021	2637.32
440.395	2634.83
440.77	2652.46
441.145	2665.57
441.52	2743.3
441.895	2749.41
442.27	2788.27
442.645	2772
443.019	2808.84
443.394	2828.05
443.769	2848.84
444.143	2879.35
444.518	2907.82
444.892	2929.06
445.267	2939.68
445.641	2944.65
446.016	2994.37
446.39	3021.49
446.764	3062.62
447.139	3035.73
447.513	3092.45
447.887	3090.41
448.262	3120.24
448.636	3173.35
449.01	3205.44
449.384	3221.26
449.758	3266.23
450.132	3291.76
450.506	3270.07
450.88	3360.46
451.254	3353.68
451.628	3403.17
452.002	3417.18
452.376	3487.24
452.75	3519.55
453.123	3543.96
453.497	3617.63
453.871	3646.1
454.244	3726.55
454.618	3754.8
454.992	3783.73
455.365	3827.79
455.739	3921.13
456.112	3980.56
456.486	3948.7
456.859	4056.72
457.232	4103.04
457.606	4189.37
457.979	4209.25
458.352	4312.08
458.725	4346.43
459.099	4379.64
459.472	4416.03
459.845	4506.2
460.218	4513.43
460.591	4569.92
460.964	4647.21
461.337	4703.7
461.71	4801.33
462.083	4855.79
462.456	4876.13
462.829	4883.13
463.201	4978.95
463.574	5028.89
463.947	5151.38
464.32	5181.43
464.692	5250.58
465.065	5280.64
465.438	5337.13
465.81	5442.22
466.183	5518.6
466.555	5590.46
466.928	5677.69
467.3	5653.96
467.672	5766.05
468.045	5883.33
468.417	5891.24
468.789	5968.3
469.161	5999.72
469.534	6073.84
469.906	6209.88
470.278	6221.4
470.65	6347.5
471.022	6495.52
471.394	6555.86
471.766	6623.88
472.138	6709.98
472.51	6886.02
472.882	6959.92
473.253	7003.53
473.625	7034.04
473.997	7262.05
474.369	7324.65
474.74	7390.64
475.112	7493.46
475.484	7600.35
475.855	7789.72
476.227	7817.52
476.598	8076.5
476.97	8159.88
477.341	8298.64
477.713	8412.76
478.084	8443.27
478.455	8641.23
478.827	8723.49
479.198	8980.88
479.569	9050.03
479.94	9207.99
480.311	9318.72
480.682	9575.44
481.053	9772.95
481.424	9856.11
481.795	9979.5
482.166	10153.05
482.537	10288.19
482.908	10469.2
483.279	10621.51
483.65	10797.78
484.021	10955.07
484.391	11095.17
484.762	11160.94
485.133	11349.18
485.503	11498.1
485.874	11732.45
486.244	11880.24
486.615	12097.63
486.985	12171.98
487.356	12442.26
487.726	12601.35
488.097	12814.45
488.467	12881.12
488.837	13114.78
489.207	13256.93
489.578	13537.6
489.948	13609.46
490.318	13723.81
490.688	13781.66
491.058	14110.01
491.428	14277.24
491.798	14334.19
492.168	14600.17
492.538	14714.06
492.908	14919.03
493.278	15079.25
493.648	15055.07
494.017	15263.43
494.387	15402.86
494.757	15498.45
495.126	15618.67
495.496	15730.76
495.866	15895.73
496.235	15905.22
496.605	16186.11
496.974	16180.24
497.344	16281.48
497.713	16382.49
498.082	16626.55
498.452	16629.94
498.821	16743.39
499.19	16838.07
499.559	17020.67
499.928	16982.7
500.298	17108.35
500.667	17266.09
501.036	17282.13
501.405	17423.14
501.774	17403.03
502.143	17500.88
502.512	17564.61
502.88	17709.24
503.249	17718.73
503.618	17892.96
503.987	17858.39
504.356	18041.88
504.724	18150.13
505.093	18087.76
505.462	18233.74
505.83	18140.19
506.199	18439.84
506.567	18556.67
506.936	18589.89
507.304	18911.01
507.672	18925.25
508.041	19023.78
508.409	19073.27
508.777	19296.09
509.145	19234.4
509.514	19231.68
509.882	19540.15
510.25	19418.12
510.618	19624.22
510.986	19560.71
511.354	19742.63
511.722	19983.75
512.09	20121.38
512.458	20037.31
512.826	20248.83
513.193	20257.65
513.561	20390.07
513.929	20503.29
514.297	20595.04
514.664	20726.33
515.032	20738.31
515.4	20937.85
515.767	21070.73
516.135	21153.67
516.502	20957.51
516.869	21395.69
517.237	21338.52
517.604	21398.86
517.972	21685.18
518.339	21696.25
518.706	21753.65
519.073	21854.89
519.44	21971.72
519.808	22306.41
520.175	22188.44
520.542	22469.34
520.909	22494.42
521.276	22562.67
521.643	22786.84
522.009	22846.73
522.376	23055.76
522.743	23082.66
523.11	23367.85
523.477	23465.24
523.843	23569.87
524.21	23793.6
524.577	23956.08
524.943	24149.75
525.31	24048.51
525.676	24360.14
526.043	24473.58
526.409	24544.09
526.776	24793.35
527.142	24823.4
527.508	24826.56
527.874	25033.79
528.241	25121.02
528.607	25224.97
528.973	25538.64
529.339	25426.55
529.705	25621.57
530.071	25833.54
530.437	25851.85
530.803	25951.05
531.169	26025.4
531.535	26168.68
531.901	26245.96
532.267	26221.56
532.632	26434.43
532.998	26432.17
533.364	26467.43
533.73	26525.28
534.095	26671.49
534.461	26703.13
534.826	26693.63
535.192	26805.5
535.557	26959.62
535.923	26848.43
536.288	26923.23
536.653	26960.29
537.019	26943.35
537.384	26997.58
537.749	27025.38
538.114	27044.36
538.479	26975.89
538.845	27080.74
539.21	27062.44
539.575	27075.77
539.94	27113.06
540.305	27283.68
540.67	27210.46
541.034	27212.26
541.399	27265.6
541.764	27215.88
542.129	27292.49
542.494	27246.84
542.858	27252.26
543.223	27124.36
543.587	27188.99
543.952	27218.37
544.316	27312.38
544.681	27210.68
545.045	27236.67
545.41	27279.83
545.774	27258.82
546.138	27160.97
546.503	27335.65
546.867	27147.41
547.231	27244.35
547.595	27258.37
547.959	27248.65
548.324	27275.31
548.688	27323.45
549.052	27173.17
549.416	27099.73
549.779	27090.23
550.143	27232.83
550.507	27279.83
550.871	27265.37
551.235	27219.95
551.599	27367.74
551.962	27266.5
552.326	27271.92
552.689	27242.55
553.053	27102.21
553.417	27087.07
553.78	27355.76
554.143	27277.57
554.507	27257.69
554.87	27278.93
555.234	27515.76
555.597	27174.3
555.96	27266.5
556.323	27299.72
556.686	27234.41
557.05	27403.9
557.413	27344.01
557.776	27313.5
558.139	27518.25
558.502	27358.02
558.865	27527.06
559.228	27493.61
559.59	27460.62
559.953	27521.18
560.316	27641.63
560.679	27602.76
561.041	27708.3
561.404	27741.97
561.767	27891.79
562.129	27727.96
562.492	27883.66
562.854	27783.55
563.217	27798.92
563.579	27845.24
563.941	27949.65
564.304	28007.27
564.666	28204.33
565.028	28113.48
565.39	28175.86
565.753	28396.87
566.115	28362.52
566.477	28354.83
566.839	28466.7
567.201	28597.77
567.563	28507.15
567.925	28594.38
568.287	28692.68
568.648	28664.2
569.01	28813.13
569.372	29000.69
569.734	28915.04
570.095	29117.98
570.457	29193
570.819	29174.02
571.18	29145.77
571.542	29295.37
571.903	29343.96
572.265	29300.35
572.626	29486.78
572.987	29480
573.349	29614.46
573.71	29642.48
574.071	29689.94
574.432	29881.12
574.794	30016.03
575.155	29905.3
575.516	29763.61
575.877	29949.14
576.238	29926.77
576.599	29988.01
576.96	30149.14
577.32	30185.07
577.681	30055.13
578.042	30304.84
578.403	30117.73
578.763	30204.73
579.124	30259.19
579.485	30530.37
579.845	30469.13
580.206	30389.13
580.566	30392.52
580.927	30278.85
581.287	30475.46
581.648	30486.53
582.008	30575.11
582.368	30520.65
582.728	30599.97
583.089	30629.35
583.449	30632.29
583.809	30636.81
584.169	30790.25
584.529	30654.21
584.889	30803.36
585.249	30728.78
585.609	30543.48
585.969	30794.32
586.329	30695.11
586.688	30863.24
587.048	30588.9
587.408	30754.32
587.768	30809.91
588.127	30716.13
588.487	30782.79
588.846	31045.38
589.206	30682.91
589.565	30801.77
589.925	30934.88
590.284	30812.62
590.643	30800.87
591.003	31040.86
591.362	31001.54
591.721	31011.26
592.08	31013.29
592.44	31103.91
592.799	30993.18
593.158	31031.37
593.517	30994.76
593.876	31129.45
594.235	31020.3
594.593	31053.75
594.952	31204.25
595.311	31173.74
595.67	31033.63
596.029	31239.96
596.387	31302.55
596.746	31453.06
597.104	31233.18
597.463	31243.8
597.822	31499.38
598.18	31316.56
598.538	31332.38
598.897	31485.37
599.255	31331.93
599.613	31664.35
599.972	31435.43
600.33	31488.08
600.688	31296.23
601.046	31551.13
601.404	31752.48
601.762	31466.84
602.12	31785.93
602.478	31757.91
602.836	31769.66
603.194	31592.49
603.552	31734.41
603.91	31625.26
604.268	31762.65
604.625	31706.61
604.983	31837.23
605.341	31716.1
605.698	31982.08
606.056	32155.64
606.413	31947.51
606.771	32091.23
607.128	32042.42
607.485	32074.74
607.843	31985.25
608.2	32102.31
608.557	32421.85
608.914	32219.59
609.272	32406.7
609.629	32574.61
609.986	32552.01
610.343	32557.21
610.7	32766.02
611.057	32598.79
611.414	32428.4
611.771	32732.35
612.127	32731.89
612.484	32792.46
612.841	32936.86
613.198	32836.52
613.554	32743.64
613.911	33040.13
614.267	33031.77
614.624	33064.09
614.98	33073.58
615.337	33370.07
615.693	33219.56
616.05	33351.99
616.406	33435.83
616.762	33368.26
617.118	33449.16
617.475	33478.77
617.831	33592.89
618.187	33437.64
618.543	33683.73
618.899	33795.37
619.255	33716.5
619.611	33669.27
619.967	34015.48
620.323	33975.7
620.678	33817.51
621.034	33707.69
621.39	33820
621.746	33984.74
622.101	34209.14
622.457	34029.71
622.812	34199.65
623.168	34145.64
623.523	34185.19
623.879	34219.54
624.234	34087.34
624.589	34278.29
624.945	34210.05
625.3	34290.04
625.655	34266.99
626.01	34274
626.365	34296.6
626.72	34187.9
627.075	34104.29
627.43	34128.69
627.785	34172.08
628.14	34169.14
628.495	34284.17
628.85	34178.41
629.205	34147.45
629.559	34121.01
629.914	34183.15
630.269	34110.16
630.623	34042.59
630.978	33990.17
631.332	34238.07
631.687	34222.25
632.041	34145.87
632.396	34079.43
632.75	33989.04
633.104	34067.45
633.459	33940.22
633.813	33844.63
634.167	33908.36
634.521	33904.97
634.875	33937.74
635.229	33820.68
635.583	33686.67
635.937	33720.79
636.291	33614.81
636.645	33611.64
636.999	33583.62
637.352	33767.57
637.706	33450.52
638.06	33651.64
638.413	33543.17
638.767	33312.44
639.121	33482.83
639.474	33229.96
639.828	33373.23
640.181	33286.23
640.534	33368.94
640.888	33178.89
641.241	33111.77
641.594	33226.8
641.947	33363.52
642.301	32987.03
642.654	33236.51
643.007	33070.19
643.36	33115.84
643.713	33111.32
644.066	33233.12
644.419	33046.69
644.771	32788.84
645.124	32329.87
645.477	32342.3
645.83	32401.05
646.182	32384.33
646.535	32178.24
646.888	32351.79
647.24	32194.28
647.593	32398.34
647.945	32208.29
648.298	32207.16
648.65	32118.8
649.002	31989.99
649.355	31908.41
649.707	31800.39
650.059	31899.6
650.411	32379.36
650.763	32491.22
651.115	32863.19
651.467	32796.75
651.819	32866.13
652.171	32853.7
652.523	32789.75
652.875	32783.42
653.227	32719.69
653.578	33058.89
653.93	32855.73
654.282	32793.13
654.633	32753.81
654.985	32969.63
655.337	32811.67
655.688	32909.52
656.039	32916.75
656.391	32745.9
656.742	32816.64
657.094	32817.99
657.445	32964.2
657.796	32879.01
658.147	32873.58
658.498	33002.62
658.849	32931.89
659.2	32999.46
659.551	32914.94
659.902	33243.29
660.253	32995.39
660.604	33147.02
660.955	32956.52
661.306	33124.65
661.656	33036.74
662.007	33137.31
662.358	33003.75
662.708	33176.85
663.059	33126.23
663.409	33038.33
663.76	33241.94
664.11	33375.94
664.461	33439.67
664.811	33352.44
665.161	33364.87
665.511	33159.68
665.862	33194.03
666.212	33443.97
666.562	33384.31
666.912	33238.55
667.262	33114.93
667.612	33250.07
667.962	33418.66
668.312	33191.54
668.662	33490.74
669.011	33340.92
669.361	33291.2
669.711	33405.1
670.06	33179.79
670.41	33180.92
670.76	33131.43
671.109	33351.99
671.459	33196.74
671.808	33183.41
672.157	33213.46
672.507	33121.04
672.856	33139.11
673.205	33185.22
673.554	33100.7
673.904	33081.49
674.253	33407.81
674.602	33098.44
674.951	32648.05
675.3	32643.08
675.649	33048.27
675.998	33053.69
676.346	33047.37
676.695	33008.27
677.044	32909.97
677.393	32933.47
677.741	33063.18
678.09	33024.99
678.438	32847.14
678.787	32935.96
679.135	32801.27
679.484	32590.65
679.832	32797.88
680.181	32707.94
680.529	32709.07
680.877	32641.05
681.225	32466.82
681.573	32660.48
681.922	32519.02
682.27	32461.84
682.618	32528.74
682.966	32310.44
683.314	32364.67
683.661	32264.56
684.009	32211.68
684.357	31968.52
684.705	31989.54
685.053	32013.04
685.4	31894.85
685.748	31810.34
686.095	31771.24
686.443	31479.05
686.79	31563.34
687.138	31643.11
687.485	31431.59
687.832	31367.41
688.18	31318.82
688.527	31312.04
688.874	31203.8
689.221	31202.89
689.568	31008.78
689.915	30711.38
690.262	30884.71
690.609	30818.27
690.956	30682
691.303	30421.45
691.65	30421.45
691.997	30276.82
692.344	30154.79
692.69	30140.78
693.037	30103.94
693.383	29691.07
693.73	29811.07
694.077	29698.98
694.423	29595.25
694.769	29397.29
695.116	29413.79
695.462	29257.18
695.808	29098.54
696.155	29169.05
696.501	28786.46
696.847	28872.11
697.193	28638.67
697.539	28657.88
697.885	28443.42
698.231	28441.38
698.577	28233.71
698.923	28321.84
699.269	27950.32
699.614	27924.34
699.96	27782.65
700.306	27864.45
700.651	27546.95
700.997	27501.52
701.342	27325.93
701.688	27353.73
702.033	27271.92
702.379	27168.2
702.724	26960.97
703.069	27060.4
703.415	26718.27
703.76	26690.02
704.105	26532.73
704.45	26354.89
704.795	26483.47
705.14	26235.34
705.485	26323.47
705.83	26077.15
706.175	26096.14
706.52	26022.24
706.865	25922.13
707.209	25907.67
707.554	25744.73
707.899	25803.04
708.243	25600.56
708.588	25678.75
708.932	25469.71
709.277	25501.8
709.621	25295.48
709.966	25122.83
710.31	25250.73
710.654	25050.97
710.998	25140.68
711.342	25048.03
711.687	24907.01
712.031	24984.98
712.375	24679
712.719	24758.09
713.063	24714.93
713.407	24749.05
713.75	24648.26
714.094	24618.66
714.438	24603.52
714.782	24560.13
715.125	24447.59
715.469	24575.27
715.812	24371.44
716.156	24383.86
716.499	24469.06
716.843	24504.31
717.186	24217.09
717.53	24509.28
717.873	24413.92
718.216	24288.5
718.559	24351.55
718.902	24063.19
719.246	24203.3
719.589	24107.94
719.932	24060.94
720.275	24160.82
720.617	24106.13
720.96	23991.56
721.303	24088.28
721.646	24082.4
721.989	24003.31
722.331	24081.95
722.674	23990.43
723.016	24005.34
723.359	23928.51
723.701	24043.99
724.044	24028.62
724.386	23803.54
724.729	24151.1
725.071	24060.26
725.413	23939.58
725.755	23914.72
726.097	23895.74
726.439	23951.33
726.782	23850.32
727.124	23979.36
727.465	24006.93
727.807	23910.66
728.149	24013.25
728.491	23873.82
728.833	23952.92
729.175	23969.19
729.516	23915.63
729.858	23924.22
730.199	24053.7
730.541	24051.9
730.882	24115.17
731.224	24041.5
731.565	24028.39
731.906	24091.22
732.248	24103.65
732.589	24063.42
732.93	24102.29
733.271	24153.36
733.612	24198.11
733.953	24299.8
734.294	24271.1
734.635	24193.14
734.976	24388.38
735.317	24331.66
735.658	24286.69
735.999	24322.62
736.339	24408.04
736.68	24504.77
737.021	24448.27
737.361	24582.05
737.702	24758.09
738.042	24643.97
738.383	24680.13
738.723	24819.11
739.063	24838.09
739.404	24871.99
739.744	24889.39
740.084	24899.78
740.424	25016.39
740.764	25083.51
741.104	25170.28
741.444	25034.24
741.784	25160.12
742.124	25409.83
742.464	25394.01
742.804	25472.2
743.143	25502.93
743.483	25614.34
743.823	25744.28
744.162	25704.28
744.502	25894.33
744.841	26046.19
745.181	26172.52
745.52	26110.37
745.86	26443.02
746.199	26335.9
746.538	26467.65
746.877	26763.69
747.216	26806.17
747.556	26990.12
747.895	27226.5
748.234	27190.8
748.573	27284.35
748.911	27445.7
749.25	27543.33
749.589	27703.55
749.928	27872.59
750.267	28057.21
750.605	28080.04
750.944	28424.66
751.283	28429.86
751.621	28666.92
751.96	28719.8
752.298	28863.75
752.636	29194.13
752.975	29294.92
753.313	29357.75
