Data from 291_FLMS001491_004.txt Node
Date: Thu Apr 19 16:45:42 BST 2018
User: hsy
Spectrometer: FLMS00149
Trigger mode: 0
Integration Time (sec): 1.000000E-2
Scans to average: 10
Electric dark correction enabled: true
Nonlinearity correction enabled: false
Boxcar width: 0
XAxis mode: Wavelengths
Number of Pixels in Spectrum: 2048
>>>>>Begin Spectral Data<<<<<
341.393	-12.2
341.776	-12.2
342.16	-12.2
342.543	-42.03
342.927	-61.69
343.31	-70.73
343.693	-75.48
344.077	-69.38
344.46	-70.73
344.843	-26.89
345.226	-66.21
345.61	-20.11
345.993	-9.04
346.376	5.2
346.759	9.94
347.142	12.66
347.525	40.22
347.908	51.52
348.291	76.83
348.674	92.88
349.057	119.32
349.44	117.96
349.823	153.44
350.206	174.23
350.588	225.08
350.971	238.86
351.354	248.13
351.737	265.08
352.119	307.56
352.502	302.59
352.884	302.14
353.267	312.76
353.65	334.23
354.032	314.34
354.414	346.66
354.797	366.32
355.179	354.79
355.562	373.1
355.944	372.42
356.326	369.03
356.709	369.48
357.091	381.91
357.473	366.32
357.855	355.02
358.238	380.33
358.62	372.42
359.002	382.14
359.384	382.59
359.766	386.43
360.148	396.83
360.53	384.85
360.912	366.54
361.294	372.19
361.676	362.93
362.057	367.67
362.439	360.44
362.821	359.99
363.203	351.86
363.584	371.97
363.966	357.96
364.348	374.23
364.729	348.01
365.111	350.05
365.493	368.58
365.874	361.35
366.256	355.47
366.637	367.45
367.019	350.27
367.4	360.89
367.781	361.8
368.163	342.82
368.544	367
368.925	350.95
369.306	386.66
369.688	366.09
370.069	336.71
370.45	363.83
370.831	366.32
371.212	388.69
371.593	375.36
371.974	373.78
372.355	360.67
372.736	366.54
373.117	359.09
373.498	359.31
373.879	380.55
374.26	371.97
374.641	385.75
375.021	372.42
375.402	386.88
375.783	404.28
376.163	388.24
376.544	389.59
376.925	391.4
377.305	376.71
377.686	393.89
378.066	389.82
378.447	386.88
378.827	421.23
379.208	395.02
379.588	389.82
379.968	393.66
380.349	399.54
380.729	416.49
381.109	399.09
381.489	408.12
381.87	398.86
382.25	409.25
382.63	418.97
383.01	414.9
383.39	417.84
383.77	419.65
384.15	421.46
384.53	412.87
384.91	432.76
385.29	422.14
385.67	433.89
386.049	455.13
386.429	445.64
386.809	463.72
387.189	470.5
387.568	447.45
387.948	447.45
388.328	468.01
388.707	483.38
389.087	465.3
389.466	467.11
389.846	481.12
390.225	487.9
390.605	466.88
390.984	467.11
391.363	475.92
391.743	476.6
392.122	494.45
392.501	513.43
392.881	491.51
393.26	497.39
393.639	532.42
394.018	507.11
394.397	519.31
394.776	527.22
395.155	533.09
395.534	558.86
395.913	532.64
396.292	563.83
396.671	541
397.05	573.54
397.429	559.99
397.808	577.84
398.186	561.12
398.565	571.06
398.944	590.27
399.323	575.13
399.701	593.88
400.08	610.15
400.458	598.85
400.837	592.3
401.215	588.23
401.594	634.56
401.972	629.36
402.351	616.48
402.729	638.18
403.107	639.98
403.486	671.62
403.864	672.07
404.242	663.26
404.62	689.47
404.999	709.59
405.377	694.67
405.755	724.95
406.133	718.17
406.511	735.8
406.889	753.43
407.267	746.65
407.645	780.32
408.023	765.63
408.401	786.19
408.779	808.57
409.156	793.65
409.534	829.36
409.912	844.95
410.29	845.4
410.667	856.47
411.045	868.9
411.422	901.67
411.8	932.63
412.178	957.04
412.555	962.69
412.933	968.11
413.31	976.02
413.687	1045.85
414.065	1039.97
414.442	1038.84
414.819	1071.38
415.197	1079.52
415.574	1112.06
415.951	1131.27
416.328	1149.12
416.705	1143.92
417.082	1166.52
417.46	1195.22
417.837	1190.48
418.214	1166.97
418.591	1214.88
418.967	1207.43
419.344	1239.52
419.721	1276.35
420.098	1265.05
420.475	1298.72
420.852	1328.55
421.228	1297.59
421.605	1328.1
421.982	1365.16
422.358	1386.4
422.735	1394.99
423.111	1419.17
423.488	1446.29
423.864	1424.82
424.241	1485.16
424.617	1494.42
424.994	1525.38
425.37	1538.26
425.746	1561.77
426.123	1570.81
426.499	1586.17
426.875	1617.13
427.251	1639.28
427.627	1674.08
428.003	1699.62
428.379	1726.51
428.756	1739.39
429.132	1751.37
429.507	1794.98
429.883	1827.97
430.259	1851.48
430.635	1858.03
431.011	1865.04
431.387	1909.55
431.763	1985.94
432.138	1972.15
432.514	2005.15
432.89	2031.13
433.265	2057.8
433.641	2073.17
434.016	2084.24
434.392	2175.31
434.767	2242.88
435.143	2241.3
435.518	2246.27
435.894	2314.52
436.269	2311.8
436.644	2359.49
437.02	2389.54
437.395	2413.04
437.77	2420.28
438.145	2500.95
438.52	2510.67
438.895	2571.68
439.271	2579.59
439.646	2568.97
440.021	2650.1
440.395	2636.99
440.77	2646.26
441.145	2674.96
441.52	2743.88
441.895	2767.84
442.27	2819.36
442.645	2758.57
443.019	2826.59
443.394	2855.97
443.769	2860.72
444.143	2872.24
444.518	2913.6
444.892	2887.61
445.267	2940.71
445.641	3000.83
446.016	3038.11
446.39	3027.72
446.764	3046.02
447.139	3022.97
447.513	3054.16
447.887	3102.52
448.262	3127.15
448.636	3150.43
449.01	3202.85
449.384	3200.59
449.758	3250.99
450.132	3296.41
450.506	3322.85
450.88	3338.22
451.254	3375.5
451.628	3413.47
452.002	3425.22
452.376	3526.91
452.75	3526.23
453.123	3541.6
453.497	3627.48
453.871	3623.18
454.244	3696.85
454.618	3764.42
454.992	3816.17
455.365	3843.97
455.739	3901.37
456.112	3931.42
456.486	3999.89
456.859	4020.46
457.232	4121.7
457.606	4115.6
457.979	4193.34
458.352	4266.33
458.725	4331.19
459.099	4353.11
459.472	4447.57
459.845	4511.07
460.218	4523.72
460.591	4595.81
460.964	4640.78
461.337	4753.32
461.71	4787.22
462.083	4886.2
462.456	4892.53
462.829	4870.61
463.201	5002.58
463.574	4992.86
463.947	5074.44
464.32	5161.67
464.692	5247.09
465.065	5248.68
465.438	5356.92
465.81	5424.72
466.183	5433.53
466.555	5587.88
466.928	5657.03
467.3	5619.29
467.672	5711.71
468.045	5824.71
468.417	5847.98
468.789	5902.9
469.161	5978.37
469.534	6074.64
469.906	6191.93
470.278	6260.85
470.65	6301.98
471.022	6432.83
471.394	6501.98
471.766	6633.27
472.138	6647.73
472.51	6782.87
472.882	6854.06
473.253	6952.59
473.625	7006.6
473.997	7233.03
474.369	7237.55
474.74	7335.63
475.112	7431.89
475.484	7534.49
475.855	7736.07
476.227	7778.1
476.598	8018.09
476.97	8094.93
477.341	8286.11
477.713	8366.79
478.084	8458.53
478.455	8636.38
478.827	8711.86
479.198	8926.09
479.569	9045.19
479.94	9156.14
480.311	9343.94
480.682	9517.94
481.053	9716.35
481.424	9780.99
481.795	9843.13
482.166	10108.21
482.537	10157.47
482.908	10360.63
483.279	10533.28
483.65	10690.57
484.021	10923.78
484.391	11076.09
484.762	11195.41
485.133	11229.31
485.503	11399.25
485.874	11695.06
486.244	11724.89
486.615	12038.78
486.985	12145.22
487.356	12390.18
487.726	12467.47
488.097	12780.91
488.467	12781.58
488.837	13033.1
489.207	13221.8
489.578	13335.47
489.948	13514.22
490.318	13711.5
490.688	13748.57
491.058	13970.48
491.428	14145.16
491.798	14269.46
492.168	14541.31
492.538	14595.55
492.908	14784.02
493.278	14948.08
493.648	14939.04
494.017	15161.64
494.387	15265.14
494.757	15427.62
495.126	15540.61
495.496	15596.2
495.866	15799.81
496.235	15943.99
496.605	16009.3
496.974	16010.43
497.344	16225.11
497.713	16218.33
498.082	16417.65
498.452	16598.43
498.821	16608.6
499.19	16714.14
499.559	16853.79
499.928	16893.12
500.298	16906
500.667	17081.58
501.036	17116.39
501.405	17202.03
501.774	17289.26
502.143	17408.36
502.512	17522.25
502.88	17659.42
503.249	17629.82
503.618	17780.32
503.987	17853.99
504.356	17977.83
504.724	17991.17
505.093	18115.46
505.462	18119.98
505.83	18226.41
506.199	18377.6
506.567	18635.22
506.936	18555.9
507.304	18793.4
507.672	18813.74
508.041	18849.22
508.409	18980.29
508.777	19107.97
509.145	19288.76
509.514	19164.02
509.882	19398.81
510.25	19386.83
510.618	19569.65
510.986	19510.67
511.354	19670.67
511.722	19817.56
512.09	19962.86
512.458	19859.14
512.826	19994.05
513.193	20205.12
513.561	20261.16
513.929	20358.33
514.297	20596.75
514.664	20533.47
515.032	20680.81
515.4	20884.2
515.767	20923.07
516.135	20975.04
516.502	20847.81
516.869	21226.33
517.237	21328.25
517.604	21230.18
517.972	21552.43
518.339	21585.2
518.706	21661.35
519.073	21681.24
519.44	21866.32
519.808	22046.88
520.175	22084.39
520.542	22382.46
520.909	22507.88
521.276	22373.87
521.643	22736.13
522.009	22776.58
522.376	22867.65
522.743	22957.14
523.11	23220.18
523.477	23520.51
523.843	23413.85
524.21	23627.18
524.577	23814.97
524.943	23885.7
525.31	23955.53
525.676	24210.66
526.043	24356.87
526.409	24315.74
526.776	24680.71
527.142	24682.51
527.508	24807.71
527.874	24955.05
528.241	25139
528.607	25077.53
528.973	25368.6
529.339	25239.11
529.705	25549.61
530.071	25731.75
530.437	25629.61
530.803	25835.48
531.169	25989.37
531.535	25936.04
531.901	25957.74
532.267	25943.72
532.632	26224.85
532.998	26276.15
533.364	26288.57
533.73	26365.86
534.095	26450.83
534.461	26514.33
534.826	26635.01
535.192	26655.12
535.557	26818.73
535.923	26734.44
536.288	26845.62
536.653	26840.65
537.019	26816.7
537.384	26773.53
537.749	26795.68
538.114	26863.02
538.479	26765.17
538.845	26900.99
539.21	26849.69
539.575	26883.13
539.94	26983.7
540.305	27037.26
540.67	26851.5
541.034	27047.88
541.399	26996.58
541.764	26939.63
542.129	27029.35
542.494	26919.52
542.858	27017.59
543.223	27017.82
543.587	27107.08
543.952	26996.58
544.316	27049.68
544.681	26962.91
545.045	27106.86
545.41	27078.16
545.774	26981.89
546.138	27041.1
546.503	27091.72
546.867	27010.14
547.231	27198.83
547.595	27116.35
547.959	27145.27
548.324	27044.49
548.688	27112.73
549.052	27134.43
549.416	27002
549.779	26977.14
550.143	26969.46
550.507	27123.35
550.871	27148.21
551.235	27059.18
551.599	27175.1
551.962	27120.19
552.326	27117.93
552.689	27050.36
553.053	26856.92
553.417	26919.74
553.78	27163.35
554.143	27042
554.507	27178.72
554.87	27169.91
555.234	27260.98
555.597	27112.06
555.96	27224.37
556.323	27256.68
556.686	27091.94
557.05	27330.13
557.413	27055.33
557.776	27202.22
558.139	27170.13
558.502	27308.66
558.865	27204.26
559.228	27332.61
559.59	27322.22
559.953	27384.82
560.316	27650.57
560.679	27451.71
561.041	27551.82
561.404	27654.41
561.767	27738.25
562.129	27579.39
562.492	27795.2
562.854	27718.14
563.217	27667.52
563.579	27677.01
563.941	27808.08
564.304	27802.21
564.666	28059.38
565.028	27951.58
565.39	27964.46
565.753	28063.67
566.115	28089.88
566.477	28219.82
566.839	28171.91
567.201	28542.53
567.563	28345.7
567.925	28616.65
568.287	28528.52
568.648	28478.8
569.01	28560.6
569.372	28765.8
569.734	28671.11
570.095	28807.15
570.457	28921.73
570.819	28930.31
571.18	28829.75
571.542	29129.18
571.903	29128.05
572.265	29271.77
572.626	29172.34
572.987	29280.59
573.349	29408.27
573.71	29379.11
574.071	29545.66
574.432	29495.04
574.794	29653.46
575.155	29681.48
575.516	29461.37
575.877	29757.64
576.238	29631.54
576.599	29842.83
576.96	29968.25
577.32	29916.73
577.681	29892.1
578.042	30193.56
578.403	29995.82
578.763	29953.56
579.124	30112.43
579.485	30227.68
579.845	30225.19
580.206	30180.68
580.566	30126.21
580.927	30252.31
581.287	30303.61
581.648	30156.95
582.008	30365.76
582.368	30388.58
582.728	30409.37
583.089	30382.03
583.449	30368.92
583.809	30402.82
584.169	30429.03
584.529	30438.3
584.889	30718.06
585.249	30390.84
585.609	30383.61
585.969	30680.78
586.329	30398.07
586.688	30565.75
587.048	30573.21
587.408	30580.66
587.768	30371.4
588.127	30483.49
588.487	30547.9
588.846	30729.36
589.206	30645.75
589.565	30521.46
589.925	30712.64
590.284	30709.02
590.643	30752.19
591.003	30707.22
591.362	30866.08
591.721	30781.56
592.08	30772.3
592.44	30954.21
592.799	30805.97
593.158	30807.33
593.517	30762.35
593.876	30922.58
594.235	30818.85
594.593	30834.67
594.952	30988.34
595.311	30780.43
595.67	30860.43
596.029	31213.64
596.387	31203.7
596.746	31188.11
597.104	31048
597.463	30989.92
597.822	31189.46
598.18	31080.99
598.538	31080.76
598.897	31302
599.255	31151.72
599.613	31457.93
599.972	31137.03
600.33	31344.49
600.688	31363.47
601.046	31392.17
601.404	31447.31
601.762	31336.35
602.12	31540.41
602.478	31496.35
602.836	31592.84
603.194	31471.04
603.552	31539.74
603.91	31556.23
604.268	31513.3
604.625	31480.98
604.983	31716.68
605.341	31590.36
605.698	31758.04
606.056	31927.97
606.413	31699.28
606.771	31982.66
607.128	31993.28
607.485	31883.46
607.843	31866.96
608.2	32107.63
608.557	32118.7
608.914	32105.37
609.272	32223.79
609.629	32357.79
609.986	32402.99
610.343	32292.48
610.7	32563.66
611.057	32560.5
611.414	32377.68
611.771	32728.4
612.127	32637.79
612.484	32651.57
612.841	32765.92
613.198	32620.61
613.554	32581.52
613.911	32913.03
614.267	32785.8
614.624	32874.39
614.98	32846.14
615.337	33183.31
615.693	33126.59
616.05	33250.88
616.406	33211.33
616.762	33080.71
617.118	33177.66
617.475	33145.12
617.831	33351.89
618.187	33363.87
618.543	33376.75
618.899	33619.91
619.255	33519.57
619.611	33475.28
619.967	33793.24
620.323	33700.13
620.678	33640.02
621.034	33498.55
621.39	33742.62
621.746	33740.58
622.101	34023.96
622.457	33635.05
622.812	33850.64
623.168	33938.54
623.523	33954.59
623.879	34047.47
624.234	33837.98
624.589	34099.89
624.945	34115.49
625.3	34054.7
625.655	34019.67
626.01	34111.87
626.365	34247.69
626.72	34072.1
627.075	33995.94
627.43	34101.48
627.785	33945.77
628.14	34038.43
628.495	33988.71
628.85	34122.72
629.205	34000.24
629.559	34170.4
629.914	33868.49
630.269	34097.41
630.623	33718.44
630.978	33687.93
631.332	33979.9
631.687	33830.52
632.041	33897.87
632.396	33888.83
632.75	33771.77
633.104	33862.61
633.459	33690.87
633.813	33736.29
634.167	33702.39
634.521	33582.17
634.875	33652.9
635.229	33603.18
635.583	33562.96
635.937	33500.81
636.291	33373.59
636.645	33456.75
636.999	33148.51
637.352	33407.71
637.706	33132.69
638.06	33283.42
638.413	33224.66
638.767	33116.42
639.121	33266.7
639.474	33063.31
639.828	33155.29
640.181	33115.06
640.534	33176.75
640.888	32889.76
641.241	32779.03
641.594	32854.28
641.947	32993.93
642.301	32992.13
642.654	32885.91
643.007	32892.69
643.36	32935.63
643.713	32855.63
644.066	32920.94
644.419	32834.62
644.771	32522.08
645.124	32190.79
645.477	32158.48
645.83	32071.93
646.182	32127.74
646.535	31934.3
646.888	31964.13
647.24	32037.35
647.593	32155.31
647.945	32009.55
648.298	31786.96
648.65	31792.61
649.002	31711.71
649.355	31603.69
649.707	31620.41
650.059	31630.81
650.411	32004.36
650.763	32229.89
651.115	32732.47
651.467	32534.51
651.819	32668.07
652.171	32556.43
652.523	32521.86
652.875	32511.24
653.227	32314.4
653.578	32618.58
653.93	32590.78
654.282	32461.75
654.633	32434.4
654.985	32478.92
655.337	32510.56
655.688	32558.24
656.039	32694.06
656.391	32339.94
656.742	32594.62
657.094	32466.49
657.445	32525.02
657.796	32651.12
658.147	32530.67
658.498	32689.76
658.849	32786.93
659.2	32611.35
659.551	32572.7
659.902	32885.91
660.253	32751.91
660.604	32924.56
660.955	32759.82
661.306	32945.35
661.656	32713.04
662.007	32808.4
662.358	32896.76
662.708	32923.43
663.059	32787.16
663.409	32738.35
663.76	33051.56
664.11	32913.48
664.461	33076.19
664.811	33021.05
665.161	33037.32
665.511	33047.04
665.862	33067.83
666.212	33061.73
666.562	33178.79
666.912	33022.41
667.262	32945.8
667.612	33013.6
667.962	33108.96
668.312	33032.8
668.662	33231.44
669.011	33210.2
669.361	33070.54
669.711	33142.18
670.06	33057.21
670.41	33028.28
670.76	33022.63
671.109	33026.93
671.459	33066.25
671.808	33035.52
672.157	33063.54
672.507	32901.73
672.856	32761.85
673.205	32981.73
673.554	32968.17
673.904	32785.8
674.253	33117.77
674.602	32819.93
674.951	32415.42
675.3	32205.71
675.649	32895.41
675.998	32849.31
676.346	32890.21
676.695	32948.06
677.044	32714.62
677.393	32698.35
677.741	32833.03
678.09	32534.29
678.438	32518.02
678.787	32632.59
679.135	32642.53
679.484	32398.24
679.832	32532.25
680.181	32405.25
680.529	32404.57
680.877	32246.16
681.225	32122.77
681.573	32462.2
681.922	32161.19
682.27	32164.35
682.618	32145.14
682.966	32002.1
683.314	32007.97
683.661	32061.76
684.009	31774.53
684.357	31765.04
684.705	31616.57
685.053	31674.65
685.4	31598.27
685.748	31413.19
686.095	31416.35
686.443	31229.91
686.79	31332.96
687.138	31302.91
687.485	31190.82
687.832	31140.65
688.18	31050.71
688.527	30853.65
688.874	30766.87
689.221	30683.94
689.568	30629.93
689.915	30556.26
690.262	30515.36
690.609	30443.72
690.956	30178.87
691.303	30247.34
691.65	30199.43
691.997	30081.92
692.344	29975.48
692.69	29707.92
693.037	29745.88
693.383	29407.36
693.73	29608.71
694.077	29540.24
694.423	29381.37
694.769	29146.58
695.116	29140.02
695.462	28930.76
695.808	28911.1
696.155	28884.89
696.501	28672.01
696.847	28567.38
697.193	28434.28
697.539	28410.33
697.885	28229.09
698.231	28037
698.577	28050.56
698.923	28001.75
699.269	27690.12
699.614	27732.15
699.96	27661.65
700.306	27562.67
700.651	27312.28
700.997	27265.5
701.342	27220.98
701.688	27025.05
702.033	26928.56
702.379	26910.93
702.724	26761.33
703.069	26787.32
703.415	26390.49
703.76	26411.96
704.105	26500.09
704.45	26342.36
704.795	26247.22
705.14	26043.83
705.485	26095.13
705.83	25725.2
706.175	25847.23
706.52	25638.87
706.865	25573.11
707.209	25579.44
707.554	25561.81
707.899	25451.31
708.243	25516.39
708.588	25319.11
708.932	25144.42
709.277	25150.53
709.621	25100.36
709.966	24959.57
710.31	24923.19
710.654	24832.34
710.998	24824.21
711.342	24863.75
711.687	24678.67
712.031	24641.61
712.375	24546.25
712.719	24500.6
713.063	24498.56
713.407	24574.5
713.75	24441.17
714.094	24408.85
714.438	24291.34
714.782	24295.41
715.125	24195.97
715.469	24289.08
715.812	24111
716.156	24140.16
716.499	24049.76
716.843	24016.54
717.186	24002.31
717.53	24132.02
717.873	24132.92
718.216	24025.81
718.559	23968.18
718.902	23881.41
719.246	24011.8
719.589	23843.21
719.932	23700.17
720.275	23822.42
720.617	23827.62
720.96	23822.65
721.303	23788.3
721.646	23913.5
721.989	23734.07
722.331	23770.67
722.674	23775.87
723.016	23706.27
723.359	23694.52
723.701	23739.94
724.044	23684.8
724.386	23552.6
724.729	23691.81
725.071	23685.93
725.413	23747.62
725.755	23619.94
726.097	23598.48
726.439	23681.19
726.782	23628.08
727.124	23770.67
727.465	23789.43
727.807	23664.24
728.149	23700.17
728.491	23725.7
728.833	23716.89
729.175	23641.19
729.516	23704.46
729.858	23762.77
730.199	23839.37
730.541	23888.19
730.882	23812.71
731.224	23824.46
731.565	23684.35
731.906	23965.7
732.248	23816.32
732.589	23799.6
732.93	23863.78
733.271	24003.21
733.612	23973.15
733.953	24112.13
734.294	23951.69
734.635	23832.82
734.976	24077.56
735.317	24088.18
735.658	24005.02
735.999	24105.35
736.339	24143.09
736.68	24257.89
737.021	24274.39
737.361	24232.58
737.702	24482.97
738.042	24412.01
738.383	24479.81
738.723	24616.98
739.063	24512.12
739.404	24808.39
739.744	24698.33
740.084	24683.42
740.424	24795.28
740.764	24838.67
741.104	24995.73
741.444	24938.55
741.784	25017.42
742.124	25195.72
742.464	25232.33
742.804	25192.78
743.143	25340.58
743.483	25442.49
743.823	25478.65
744.162	25626.44
744.502	25764.97
744.841	25767.68
745.181	25970.16
745.52	26016.04
745.86	26122.93
746.199	26190.05
746.538	26331.06
746.877	26550.94
747.216	26726.3
747.556	26769.24
747.895	26834.77
748.234	26999.06
748.573	27080.64
748.911	27253.29
749.25	27460.52
749.589	27476.79
749.928	27674.07
750.267	27905.48
750.605	28091.01
750.944	28254.85
751.283	28356.77
751.621	28592.24
751.96	28576.88
752.298	28779.81
752.636	28991.78
752.975	29044.66
753.313	29183.19
