Data from 291_FLMS001491_007.txt Node
Date: Thu Apr 19 16:45:49 BST 2018
User: hsy
Spectrometer: FLMS00149
Trigger mode: 0
Integration Time (sec): 1.000000E-2
Scans to average: 10
Electric dark correction enabled: true
Nonlinearity correction enabled: false
Boxcar width: 0
XAxis mode: Wavelengths
Number of Pixels in Spectrum: 2048
>>>>>Begin Spectral Data<<<<<
341.393	-18.39
341.776	-18.39
342.16	-18.39
342.543	-73.76
342.927	-68.33
343.31	-68.78
343.693	-86.64
344.077	-54.09
344.46	-40.08
344.843	-41.67
345.226	-50.7
345.61	-38.28
345.993	-13.87
346.376	-3.47
346.759	2.18
347.142	24.32
347.525	40.82
347.908	70.42
348.291	72.46
348.674	84.66
349.057	102.74
349.44	126.69
349.823	159.01
350.206	163.98
350.588	202.62
350.971	226.8
351.354	254.6
351.737	257.54
352.119	297.76
352.502	285.11
352.884	301.38
353.267	314.03
353.65	323.52
354.032	329.62
354.414	334.82
354.797	335.73
355.179	337.53
355.562	334.37
355.944	374.37
356.326	359
356.709	386.35
357.091	383.86
357.473	389.06
357.855	369.85
358.238	384.54
358.62	366.01
359.002	362.17
359.384	385.67
359.766	363.3
360.148	371.43
360.53	368.95
360.912	368.27
361.294	387.02
361.676	373.46
362.057	365.33
362.439	364.2
362.821	371.2
363.203	356.74
363.584	360.58
363.966	351.77
364.348	383.18
364.729	364.65
365.111	368.49
365.493	335.5
365.874	350.64
366.256	347.48
366.637	339.79
367.019	360.81
367.4	339.57
367.781	361.04
368.163	350.87
368.544	366.46
368.925	367.59
369.306	374.82
369.688	354.71
370.069	348.61
370.45	363.75
370.831	375.95
371.212	354.93
371.593	360.36
371.974	333.24
372.355	366.69
372.736	366.01
373.117	396.06
373.498	347.7
373.879	358.78
374.26	374.82
374.641	362.84
375.021	354.71
375.402	357.87
375.783	391.77
376.163	387.02
376.544	373.92
376.925	387.7
377.305	370.98
377.686	384.31
378.066	393.35
378.447	390.64
378.827	400.36
379.208	388.83
379.588	396.97
379.968	398.1
380.349	415.27
380.729	392.9
381.109	418.89
381.489	408.27
381.87	381.6
382.25	416.4
382.63	424.08
383.01	424.76
383.39	415.5
383.77	409.4
384.15	423.63
384.53	418.89
384.91	427.93
385.29	436.74
385.67	433.35
386.049	435.38
386.429	439.23
386.809	437.87
387.189	458.21
387.568	443.52
387.948	470.19
388.328	447.59
388.707	473.12
389.087	469.73
389.466	462.05
389.846	471.77
390.225	471.09
390.605	488.49
390.984	483.74
391.363	481.71
391.743	499.11
392.122	507.92
392.501	497.98
392.881	516.06
393.26	529.84
393.639	511.31
394.018	519
394.397	547.25
394.776	529.17
395.155	540.24
395.534	547.25
395.913	526.91
396.292	547.25
396.671	569.84
397.05	568.94
397.429	542.95
397.808	558.77
398.186	570.97
398.565	579.11
398.944	581.59
399.323	587.92
399.701	595.61
400.08	587.02
400.458	607.36
400.837	619.33
401.215	614.14
401.594	591.54
401.972	639.45
402.351	624.98
402.729	655.72
403.107	653.46
403.486	646
403.864	673.57
404.242	671.31
404.62	660.69
404.999	710.18
405.377	704.3
405.755	706.79
406.133	718.99
406.511	728.94
406.889	742.27
407.267	747.01
407.645	767.8
408.023	780.46
408.401	805.09
408.779	793.34
409.156	814.81
409.534	842.6
409.912	849.38
410.29	856.39
410.667	862.49
411.045	909.95
411.422	892.32
411.8	946.33
412.178	928.7
412.555	968.03
412.933	978.87
413.31	1004.86
413.687	1029.27
414.065	1027.46
414.442	1051.19
414.819	1043.05
415.197	1079.21
415.574	1077.18
415.951	1111.07
416.328	1135.7
416.705	1154.69
417.082	1184.06
417.46	1163.5
417.837	1202.82
418.214	1163.5
418.591	1210.96
418.967	1214.12
419.344	1256.61
419.721	1267.23
420.098	1267.23
420.475	1285.31
420.852	1293.44
421.228	1319.43
421.605	1329.6
421.982	1390.61
422.358	1381.12
422.735	1395.13
423.111	1443.49
423.488	1443.95
423.864	1449.37
424.241	1439.88
424.617	1497.5
424.994	1480.55
425.37	1523.04
425.746	1530.72
426.123	1541.12
426.499	1586.77
426.875	1605.52
427.251	1665.18
427.627	1678.74
428.003	1700.66
428.379	1688.91
428.756	1757.16
429.132	1768.23
429.507	1797.83
429.883	1840.54
430.259	1815.69
430.635	1836.25
431.011	1892.07
431.387	1934.1
431.763	1956.7
432.138	1966.19
432.514	2048.45
432.89	2046.42
433.265	2057.04
433.641	2122.57
434.016	2130.93
434.392	2134.32
434.767	2215.22
435.143	2205.06
435.518	2222.68
435.894	2309.46
436.269	2332.96
436.644	2353.75
437.02	2375.45
437.395	2435.56
437.77	2457.93
438.145	2498.83
438.52	2499.06
438.895	2564.14
439.271	2538.38
439.646	2615.67
440.021	2637.13
440.395	2648.66
440.77	2633.29
441.145	2694.08
441.52	2754.42
441.895	2741.76
442.27	2798.71
442.645	2793.29
443.019	2836.68
443.394	2829.45
443.769	2895.66
444.143	2894.3
444.518	2926.62
444.892	2935.21
445.267	2938.82
445.641	2988.99
446.016	2995.99
446.39	3005.26
446.764	3079.16
447.139	3046.84
447.513	3093.62
447.887	3109.21
448.262	3095.43
448.636	3203.22
449.01	3225.37
449.384	3202.77
449.758	3272.37
450.132	3310.79
450.506	3298.81
450.88	3385.36
451.254	3361.86
451.628	3407.51
452.002	3438.47
452.376	3514.4
452.75	3560.27
453.123	3571.35
453.497	3563.66
453.871	3645.7
454.244	3725.47
454.618	3788.97
454.992	3810.89
455.365	3872.81
455.739	3901.28
456.112	3959.13
456.486	4001.62
456.859	4062.18
457.232	4160.03
457.606	4162.52
457.979	4188.96
458.352	4330.87
458.725	4365.9
459.099	4366.13
459.472	4437.99
459.845	4484.77
460.218	4560.7
460.591	4585.56
460.964	4618.32
461.337	4725.89
461.71	4868.71
462.083	4866.91
462.456	4920.69
462.829	4967.92
463.201	5036.62
463.574	5029.16
463.947	5121.14
464.32	5206.33
464.692	5219.44
465.065	5301.7
465.438	5338.98
465.81	5410.62
466.183	5471.41
466.555	5611.75
466.928	5690.84
467.3	5658.75
467.672	5755.02
468.045	5891.51
468.417	5878.18
468.789	5943.26
469.161	6025.52
469.534	6118.17
469.906	6242.91
470.278	6276.59
470.65	6362.91
471.022	6494.66
471.394	6577.37
471.766	6644.03
472.138	6693.75
472.51	6850.81
472.882	6951.37
473.253	7065.49
473.625	7073.63
473.997	7325.15
474.369	7268.42
474.74	7372.83
475.112	7546.16
475.484	7675.65
475.855	7815.53
476.227	7905.02
476.598	8092.36
476.97	8157.89
477.341	8350.43
477.713	8457.32
478.084	8474.49
478.455	8749.52
478.827	8766.24
479.198	9076.06
479.569	9065.44
479.94	9335.49
480.311	9402.15
480.682	9530.29
481.053	9747.23
481.424	9925.53
481.795	10016.6
482.166	10161.68
482.537	10337.04
482.908	10511.5
483.279	10645.29
483.65	10816.58
484.021	11059.51
484.391	11189.9
484.762	11296.12
485.133	11332.5
485.503	11569.78
485.874	11738.36
486.244	11842.77
486.615	12149.43
486.985	12267.16
487.356	12518.68
487.726	12581.51
488.097	12817.21
488.467	12909.41
488.837	13247.93
489.207	13300.58
489.578	13511.65
489.948	13697.41
490.318	13836.61
490.688	13909.15
491.058	14177.4
491.428	14290.84
491.798	14391.63
492.168	14658.06
492.538	14719.3
492.908	14961.56
493.278	15100.76
493.648	15216.24
494.017	15322.45
494.387	15470.47
494.757	15623.46
495.126	15694.19
495.496	15914.07
495.866	15964.02
496.235	16043.11
496.605	16228.64
496.974	16262.99
497.344	16369.65
497.713	16462.76
498.082	16639.93
498.452	16848.51
498.821	16984.78
499.19	16929.41
499.559	17008.06
499.928	17059.35
500.298	17161.5
500.667	17415.28
501.036	17338.89
501.405	17474.26
501.774	17484.65
502.143	17664.99
502.512	17698.66
502.88	17816.17
503.249	17811.42
503.618	17961.93
503.987	18004.41
504.356	18154.69
504.724	18202.6
505.093	18342.48
505.462	18323.05
505.83	18476.94
506.199	18579.09
506.567	18740.21
506.936	18778.4
507.304	18993.77
507.672	18918.97
508.041	19112.41
508.409	19246.87
508.777	19247.09
509.145	19390.14
509.514	19391.72
509.882	19648.21
510.25	19574.54
510.618	19758.49
510.986	19814.99
511.354	20023.57
511.722	19994.87
512.09	20234.41
512.458	20125.04
512.826	20396.67
513.193	20331.36
513.561	20483.9
513.929	20555.98
514.297	20759.6
514.664	20885.02
515.032	20963.66
515.4	21062.41
515.767	21103.99
516.135	21200.04
516.502	21087.95
516.869	21611.32
517.237	21579.91
517.604	21463.31
517.972	21844.31
518.339	21944.42
518.706	21891.32
519.073	21974.25
519.44	22041.82
519.808	22275.71
520.175	22316.39
520.542	22516.84
520.909	22694.23
521.276	22797.96
521.643	22990.72
522.009	23001.34
522.376	23207.44
522.743	23272.98
523.11	23368.11
523.477	23626.64
523.843	23709.57
524.21	23968.32
524.577	24028.21
524.943	24175.1
525.31	24213.52
525.676	24508.2
526.043	24526.28
526.409	24731.92
526.776	24865.02
527.142	24936.66
527.508	24944.34
527.874	25151.8
528.241	25237.44
528.607	25279.48
528.973	25661.84
529.339	25527.83
529.705	25761.5
530.071	25857.77
530.437	26022.96
530.803	26074.71
531.169	26182.73
531.535	26168.72
531.901	26156.29
532.267	26374.59
532.632	26453.46
532.998	26494.81
533.364	26538.88
533.73	26672.89
534.095	26781.36
534.461	26801.7
534.826	26858.87
535.192	27021.8
535.557	27000.11
535.923	27091.63
536.288	26997.17
536.653	27219.99
537.019	26980.45
537.384	27151.29
537.749	27077.17
538.114	27167.56
538.479	27117.39
538.845	27189.03
539.21	27120.33
539.575	27146.77
539.94	27207.79
540.305	27336.15
540.67	27242.36
541.034	27276.26
541.399	27299.08
541.764	27411.17
542.129	27307.45
542.494	27404.39
542.858	27483.49
543.223	27249.14
543.587	27345.86
543.952	27276.71
544.316	27382.25
544.681	27223.15
545.045	27239.2
545.41	27380.66
545.774	27126.21
546.138	27383.83
546.503	27326.43
546.867	27252.08
547.231	27405.3
547.595	27381.57
547.959	27532.3
548.324	27353.32
548.688	27326.2
549.052	27243.49
549.416	27267.22
549.779	27243.49
550.143	27261.35
550.507	27259.54
550.871	27273.55
551.235	27215.7
551.599	27451.4
551.962	27351.06
552.326	27314.9
552.689	27328.91
553.053	27156.04
553.417	27301.34
553.78	27325.3
554.143	27273.55
554.507	27323.72
554.87	27299.08
555.234	27483.49
555.597	27248.69
555.96	27205.75
556.323	27255.47
556.686	27177.96
557.05	27439.87
557.413	27422.47
557.776	27377.05
558.139	27457.27
558.502	27386.99
558.865	27455.92
559.228	27551.06
559.59	27559.42
559.953	27563.03
560.316	27690.94
560.679	27661.33
561.041	27776.81
561.404	27740.43
561.767	27872.85
562.129	27879.63
562.492	28160.08
562.854	27960.99
563.217	27828.34
563.579	27936.13
563.941	28027.65
564.304	28096.35
564.666	28331.83
565.028	28136.35
565.39	28173.19
565.753	28274.88
566.115	28296.12
566.477	28415.44
566.839	28527.53
567.201	28678.94
567.563	28588.09
567.925	28729.78
568.287	28748.09
568.648	28822.21
569.01	28892.04
569.372	29085.7
569.734	28934.97
570.095	29110.11
570.457	29208.19
570.819	29155.08
571.18	29199.6
571.542	29335.64
571.903	29289.09
572.265	29389.2
572.626	29623.54
572.987	29454.96
573.349	29658.57
573.71	29595.3
574.071	29735.63
574.432	29910.32
574.794	30045.9
575.155	30022.85
575.516	29953.7
575.877	30042.06
576.238	30021.05
576.599	30171.55
576.96	30074.83
577.32	30172.46
577.681	30189.86
578.042	30289.74
578.403	30382.62
578.763	30335.16
579.124	30385.33
579.485	30533.12
579.845	30502.62
580.206	30476.4
580.566	30420.58
580.927	30408.83
581.287	30507.36
581.648	30570.86
582.008	30684.08
582.368	30600.92
582.728	30622.61
583.089	30578.09
583.449	30574.7
583.809	30677.98
584.169	30714.81
584.529	30640.24
584.889	30922.94
585.249	30787.13
585.609	30677.98
585.969	30846.56
586.329	30686.79
586.688	30841.14
587.048	30815.38
587.408	30855.83
587.768	30849.27
588.127	30850.63
588.487	30719.33
588.846	30940.12
589.206	30813.12
589.565	30715.49
589.925	31070.51
590.284	30854.92
590.643	30932.44
591.003	30944.64
591.362	31111.64
591.721	31073
592.08	30933.34
592.44	31141.02
592.799	31071.87
593.158	31037.52
593.517	30880.01
593.876	31112.09
594.235	30997.74
594.593	31028.03
594.952	31202.03
595.311	31073.67
595.67	31095.37
596.029	31276.61
596.387	31255.82
596.746	31435.25
597.104	31235.48
597.463	31325.19
597.822	31366.32
598.18	31245.65
598.538	31236.38
598.897	31527.22
599.255	31229.6
599.613	31732.64
599.972	31538.75
600.33	31365.19
600.688	31386.21
601.046	31493.32
601.404	31778.06
601.762	31595.24
602.12	31731.74
602.478	31706.65
602.836	31847.44
603.194	31627.33
603.552	31777.84
603.91	31734.45
604.268	31829.81
604.625	31626.43
604.983	31917.04
605.341	31642.93
605.698	31934.44
606.056	32162.23
606.413	32013.99
606.771	32166.53
607.128	32109.35
607.485	32004.72
607.843	32082.69
608.2	32312.96
608.557	32346.64
608.914	32197.49
609.272	32348.44
609.629	32619.62
609.986	32598.83
610.343	32475.22
610.7	32715.21
611.057	32661.43
611.414	32630.92
611.771	32791.6
612.127	32866.62
612.484	32830.92
612.841	32878.37
613.198	32765.61
613.554	32771.48
613.911	32988.43
614.267	33158.14
614.624	33121.76
614.98	33058.26
615.337	33444.91
615.693	33379.38
616.05	33301.64
616.406	33422.31
616.762	33543.67
617.118	33478.81
617.475	33471.35
617.831	33667.5
618.187	33596.77
618.543	33632.48
618.899	33880.61
619.255	33784.79
619.611	33789.54
619.967	33996.54
620.323	34044.22
620.678	33828.4
621.034	33846.26
621.39	33873.83
621.746	33891
622.101	34257.09
622.457	34015.97
622.812	34211.9
623.168	34242.63
623.523	34217.55
623.879	34253.48
624.234	34044.44
624.589	34269.3
624.945	34269.52
625.3	34250.77
625.655	34339.58
626.01	34241.05
626.365	34447.37
626.72	34243.53
627.075	34169.64
627.43	34272.91
627.785	34328.05
628.14	34234.27
628.495	34275.4
628.85	34393.59
629.205	34215.29
629.559	34370.99
629.914	34236.08
630.269	34196.53
630.623	34022.75
630.978	33992.92
631.332	34279.01
631.687	34045.35
632.041	34094.84
632.396	34118.34
632.75	34100.71
633.104	34079.92
633.459	33870.21
633.813	33972.13
634.167	33816.2
634.521	34077.21
634.875	34054.39
635.229	33913.37
635.583	33784.56
635.937	33885.35
636.291	33726.94
636.645	33737.11
636.999	33582.99
637.352	33679.48
637.706	33500.05
638.06	33637
638.413	33505.47
638.767	33434.74
639.121	33489.66
639.474	33401.75
639.828	33358.13
640.181	33334.63
640.534	33417.34
640.888	33272.49
641.241	33029.78
641.594	33166.95
641.947	33208.08
642.301	33161.76
642.654	33238.14
643.007	33048.76
643.36	33165.14
643.713	33063.68
644.066	33288.08
644.419	32925.38
644.771	32801.54
645.124	32379.4
645.477	32382.79
645.83	32227.32
646.182	32353.64
646.535	32143.25
646.888	32164.72
647.24	32136.47
647.593	32291.04
647.945	32216.7
648.298	32053.31
648.65	32196.58
649.002	31952.52
649.355	31982.13
649.707	31917.72
650.059	31888.57
650.411	32244.04
650.763	32489
651.115	32873.63
651.467	32792.5
651.819	32840.63
652.171	32760.18
652.523	32731.03
652.875	32771.03
653.227	32686.51
653.578	32935.09
653.93	32814.65
654.282	32701.65
654.633	32713.63
654.985	32799.5
655.337	32797.02
655.688	32787.08
656.039	32949.78
656.391	32570.58
656.742	32749.79
657.094	32860.97
657.445	32860.29
657.796	32889.9
658.147	32694.65
658.498	32858.94
658.849	33008.76
659.2	32887.64
659.551	32733.29
659.902	33149.1
660.253	32858.03
660.604	33157.24
660.955	32962.44
661.306	33097.8
661.656	32982.55
662.007	33061.64
662.358	33090.34
662.708	33169.21
663.059	33182.55
663.409	32935.09
663.76	33158.82
664.11	33121.53
664.461	33219.83
664.811	33196.33
665.161	33212.83
665.511	33181.64
665.862	33156.33
666.212	33379.15
666.562	33322.2
666.912	33237.23
667.262	33103
667.612	33103.23
667.962	33210.79
668.312	33277.01
668.662	33351.58
669.011	33250.57
669.361	33194.07
669.711	33340.06
670.06	33187.74
670.41	33232.26
670.76	33173.73
671.109	33318.36
671.459	33078.59
671.808	33105.26
672.157	33209.66
672.507	32903.68
672.856	33017.13
673.205	33006.51
673.554	33212.6
673.904	33088.08
674.253	33347.51
674.602	32960.63
674.951	32709.34
675.3	32333.08
675.649	33034.98
675.998	32993.62
676.346	33000.63
676.695	33160.85
677.044	32732.61
677.393	32934.19
677.741	32943.46
678.09	32874.08
678.438	32723.8
678.787	32817.36
679.135	32704.82
679.484	32656.68
679.832	32707.3
680.181	32609.91
680.529	32629.79
680.877	32535.1
681.225	32524.71
681.573	32623.46
681.922	32344.83
682.27	32338.95
682.618	32393.41
682.966	32271.16
683.314	32107.55
683.661	32036.81
684.009	31955.46
684.357	31926.31
684.705	31674.11
685.053	31831.62
685.4	31682.47
685.748	31621
686.095	31649.7
686.443	31408.13
686.79	31390.28
687.138	31518.18
687.485	31370.39
687.832	31248.13
688.18	31131.3
688.527	31058.76
688.874	31061.7
689.221	30891.98
689.568	30807.01
689.915	30699.45
690.262	30731.54
690.609	30614.03
690.956	30352.34
691.303	30420.58
691.65	30184.43
691.997	30135.85
692.344	29985.57
692.69	29920.26
693.037	29946.7
693.383	29685.91
693.73	29671.9
694.077	29550.1
694.423	29486.15
694.769	29392.81
695.116	29334.74
695.462	29092.94
695.808	29035.76
696.155	29116.44
696.501	28815.88
696.847	28877.8
697.193	28614.98
697.539	28528.43
697.885	28383.58
698.231	28224.94
698.577	28290.47
698.923	28153.53
699.269	27905.62
699.614	27731.84
699.96	27704.5
700.306	27780.88
700.651	27525.97
700.997	27306.54
701.342	27368.24
701.688	27287.79
702.033	27130.73
702.379	27080.79
702.724	26930.73
703.069	26964.4
703.415	26618.65
703.76	26612.77
704.105	26576.17
704.45	26420.92
704.795	26288.94
705.14	26339.34
705.485	26175.5
705.83	26033.36
706.175	26224.76
706.52	26026.12
706.865	25823.42
707.209	25892.79
707.554	25753.36
707.899	25766.24
708.243	25560.37
708.588	25568.96
708.932	25313.37
709.277	25393.82
709.621	25124.9
709.966	25042.65
710.31	25184.56
710.654	24970.33
710.998	25140.05
711.342	25129.65
711.687	24924.68
712.031	24940.73
712.375	24687.63
712.719	24699.6
713.063	24670.68
713.407	24895.08
713.75	24618.48
714.094	24647.4
714.438	24494.64
714.782	24602.21
715.125	24475.2
715.469	24565.6
715.812	24392.04
716.156	24281.99
716.499	24291.48
716.843	24337.81
717.186	24252.38
717.53	24343.91
717.873	24370.12
718.216	24208.77
718.559	24237.47
718.902	24017.81
719.246	24206.06
719.589	23994.09
719.932	23953.86
720.275	23988.66
720.617	23953.64
720.96	23882.45
721.303	23894.88
721.646	23960.87
721.989	23876.12
722.331	24011.71
722.674	23889.68
723.016	23919.51
723.359	23869.34
723.701	23829.8
724.044	23755.22
724.386	23724.72
724.729	23810.81
725.071	23885.16
725.413	23947.76
725.755	23955.44
726.097	23839.29
726.439	23700.08
726.782	23769.46
727.124	23895.33
727.465	23787.31
727.807	23787.54
728.149	23808.55
728.491	23726.07
728.833	23867.31
729.175	23804.71
729.516	23738.73
729.858	23846.52
730.199	23898.5
730.541	23897.82
730.882	23837.71
731.224	23918.83
731.565	23796.8
731.906	23902.79
732.248	23949.79
732.589	23975.78
732.93	23872.28
733.271	24027.98
733.612	23962.22
733.953	24136.46
734.294	23994.76
734.635	24089
734.976	24229.56
735.317	24237.7
735.658	24152.73
735.999	24190.01
736.339	24250.58
736.68	24273.18
737.021	24331.7
737.361	24319.05
737.702	24574.18
738.042	24506.16
738.383	24566.5
738.723	24687.4
739.063	24717.91
739.404	24846.49
739.744	24789.77
740.084	24648.98
740.424	24872.48
740.764	24942.31
741.104	25110.44
741.444	25076.32
741.784	25013.04
742.124	25155.41
742.464	25304.33
742.804	25423.43
743.143	25488.28
743.483	25672.91
743.823	25700.03
744.162	25687.83
744.502	25803.08
744.841	25949.97
745.181	26201.03
745.52	26202.84
745.86	26330.97
746.199	26427.69
746.538	26566.9
746.877	26761.7
747.216	26840.34
747.556	26906.78
747.895	27187
748.234	27119.2
748.573	27335.47
748.911	27484.16
749.25	27675.12
749.589	27551.28
749.928	27821.1
750.267	28021.55
750.605	28144.71
750.944	28331.83
751.283	28504.25
751.621	28758.48
751.96	28711.7
752.298	28860.85
752.636	29142.2
752.975	29320.73
753.313	29339.03
753.651	29812.92
