Data from 3278_FLMS001491_004.txt Node
Date: Thu Apr 19 15:16:09 BST 2018
User: hsy
Spectrometer: FLMS00149
Trigger mode: 0
Integration Time (sec): 1.000000E-2
Scans to average: 10
Electric dark correction enabled: true
Nonlinearity correction enabled: false
Boxcar width: 0
XAxis mode: Wavelengths
Number of Pixels in Spectrum: 2048
>>>>>Begin Spectral Data<<<<<
341.393	-3.04
341.776	-3.04
342.16	-3.04
342.543	-63.15
342.927	-48.01
343.31	-62.7
343.693	-65.41
344.077	-71.51
344.46	-56.82
344.843	-49.82
345.226	-56.14
345.61	-26.99
345.993	-2.13
346.376	-5.75
346.759	15.95
347.142	27.92
347.525	51.88
347.908	51.2
348.291	54.81
348.674	94.36
349.057	101.14
349.44	137.3
349.823	148.6
350.206	184.08
350.588	229.27
350.971	269.27
351.354	256.39
351.737	274.47
352.119	289.16
352.502	301.36
352.884	321.7
353.267	334.58
353.65	325.32
354.032	333.45
354.414	334.58
354.797	359.44
355.179	369.61
355.562	352.66
355.944	373
356.326	389.04
356.709	389.72
357.091	393.56
357.473	380.68
357.855	388.82
358.238	391.76
358.62	391.53
359.002	392.89
359.384	389.95
359.766	394.47
360.148	412.09
360.53	370.96
360.912	391.98
361.294	400.57
361.676	387.46
362.057	376.39
362.439	381.36
362.821	374.58
363.203	365.77
363.584	381.36
363.966	366.9
364.348	384.98
364.729	364.19
365.111	359.67
365.493	358.54
365.874	376.16
366.256	375.03
366.637	356.95
367.019	363.73
367.4	369.61
367.781	399.44
368.163	376.61
368.544	361.7
368.925	376.84
369.306	373.9
369.688	359.89
370.069	349.95
370.45	371.64
370.831	358.54
371.212	375.26
371.593	375.26
371.974	371.87
372.355	374.58
372.736	385.65
373.117	387.69
373.498	389.04
373.879	375.26
374.26	378.42
374.641	369.16
375.021	371.19
375.402	409.16
375.783	408.93
376.163	395.37
376.544	385.2
376.925	395.14
377.305	402.6
377.686	423.39
378.066	401.7
378.447	391.08
378.827	422.49
379.208	407.12
379.588	407.57
379.968	435.14
380.349	402.38
380.729	406.44
381.109	437.86
381.489	423.39
381.87	428.82
382.25	418.87
382.63	427.23
383.01	442.38
383.39	410.29
383.77	447.8
384.15	431.98
384.53	423.62
384.91	442.38
385.29	459.78
385.67	447.8
386.049	446.67
386.429	459.32
386.809	454.8
387.189	448.7
387.568	445.99
387.948	458.42
388.328	467.23
388.707	454.8
389.087	476.95
389.466	465.88
389.846	468.82
390.225	472.88
390.605	474.46
390.984	479.66
391.363	486.67
391.743	494.8
392.122	467.01
392.501	482.6
392.881	486.89
393.26	533.22
393.639	509.04
394.018	522.15
394.397	517.18
394.776	507.01
395.155	515.82
395.534	516.72
395.913	521.7
396.292	529.6
396.671	527.34
397.05	538.87
397.429	548.14
397.808	543.62
398.186	558.53
398.565	570.73
398.944	556.72
399.323	570.28
399.701	565.08
400.08	590.62
400.458	581.58
400.837	582.03
401.215	566.44
401.594	591.3
401.972	593.56
402.351	592.88
402.729	608.02
403.107	595.37
403.486	601.02
403.864	617.74
404.242	617.96
404.62	617.96
404.999	629.26
405.377	642.6
405.755	635.36
406.133	646.66
406.511	657.28
406.889	646.21
407.267	667.45
407.645	658.41
408.023	671.3
408.401	710.39
408.779	677.4
409.156	678.08
409.534	690.28
409.912	727.79
410.29	711.97
410.667	739.54
411.045	724.85
411.422	753.33
411.8	767.79
412.178	791.97
412.555	756.04
412.933	757.17
413.31	788.81
413.687	786.55
414.065	815.92
414.442	793.78
414.819	801.91
415.197	796.72
415.574	836.49
415.951	848.01
416.328	833.1
416.705	827.9
417.082	858.64
417.46	857.73
417.837	848.47
418.214	860.67
418.591	870.84
418.967	862.25
419.344	919.88
419.721	917.17
420.098	903.61
420.475	920.33
420.852	905.19
421.228	918.97
421.605	916.04
421.982	934.79
422.358	944.96
422.735	967.11
423.111	970.72
423.488	986.32
423.864	994
424.241	995.13
424.617	1009.82
424.994	1010.04
425.37	1005.75
425.746	990.84
426.123	1036.48
426.499	1058.18
426.875	1060.21
427.251	1053.66
427.627	1111.74
428.003	1106.54
428.379	1143.15
428.756	1098.18
429.132	1103.37
429.507	1127.1
429.883	1164.39
430.259	1157.61
430.635	1194.22
431.011	1177.27
431.387	1199.19
431.763	1223.15
432.138	1220.89
432.514	1232.86
432.89	1243.71
433.265	1272.41
433.641	1287.32
434.016	1292.52
434.392	1316.25
434.767	1334.1
435.143	1344.27
435.518	1358.06
435.894	1355.57
436.269	1383.59
436.644	1390.15
437.02	1428.11
437.395	1433.54
437.77	1449.58
438.145	1446.42
438.52	1461.11
438.895	1487.55
439.271	1492.52
439.646	1513.08
440.021	1509.01
440.395	1537.26
440.77	1526.87
441.145	1572.06
441.52	1548.79
441.895	1564.38
442.27	1582.23
442.645	1579.52
443.019	1621.33
443.394	1590.14
443.769	1577.94
444.143	1597.37
444.518	1653.64
444.892	1648.67
445.267	1633.08
445.641	1657.94
446.016	1670.14
446.39	1674.66
446.764	1684.83
447.139	1684.83
447.513	1710.14
447.887	1725.05
448.262	1706.3
448.636	1745.84
449.01	1777.71
449.384	1779.52
449.758	1801.21
450.132	1805.5
450.506	1806.63
450.88	1837.14
451.254	1862.9
451.628	1869.46
452.002	1900.64
452.376	1936.57
452.75	1904.71
453.123	1927.76
453.497	1987.19
453.871	1958.49
454.244	2023.58
454.618	2050.47
454.992	2098.6
455.365	2065.16
455.739	2134.31
456.112	2122.78
456.486	2166.4
456.859	2180.63
457.232	2249.56
457.606	2235.32
457.979	2294.3
458.352	2306.96
458.725	2318.03
459.099	2339.05
459.472	2403
459.845	2467.18
460.218	2446.16
460.591	2500.63
460.964	2482.55
461.337	2539.04
461.71	2544.92
462.083	2619.95
462.456	2629.44
462.829	2628.98
463.201	2687.74
463.574	2688.64
463.947	2741.75
464.32	2752.6
464.692	2767.29
465.065	2797.79
465.438	2835.31
465.81	2904.91
466.183	2872.82
466.555	2976.55
466.928	2970.22
467.3	2995.53
467.672	3049.54
468.045	3117.11
468.417	3145.13
468.789	3146.94
469.161	3212.92
469.534	3226.26
469.906	3282.53
470.278	3325.92
470.65	3363.43
471.022	3423.54
471.394	3461.05
471.766	3484.56
472.138	3528.62
472.51	3622.18
472.882	3713.7
473.253	3734.04
473.625	3755.28
473.997	3844.55
474.369	3883.64
474.74	3905.56
475.112	3983.3
475.484	4078.21
475.855	4140.13
476.227	4196.85
476.598	4240.69
476.97	4348.49
477.341	4418.32
477.713	4469.16
478.084	4553.45
478.455	4654.69
478.827	4675.26
479.198	4823.28
479.569	4796.16
479.94	4923.16
480.311	5030.5
480.682	5182.82
481.053	5283.38
481.424	5397.05
481.795	5454.45
482.166	5585.52
482.537	5706.87
482.908	5812.86
483.279	5882.68
483.65	5962.46
484.021	6146.18
484.391	6239.06
484.762	6317.7
485.133	6341.43
485.503	6444.03
485.874	6658.94
486.244	6790.91
486.615	6927.18
486.985	7084.46
487.356	7177.11
487.726	7311.35
488.097	7594.05
488.467	7615.75
488.837	7832.69
489.207	7916.08
489.578	8057.99
489.948	8274.94
490.318	8439.68
490.688	8444.2
491.058	8776.17
491.428	8878.99
491.798	9040.34
492.168	9248.7
492.538	9438.97
492.908	9607.33
493.278	9785.86
493.648	9878.74
494.017	10010.49
494.387	10254.32
494.757	10430.81
495.126	10634.42
495.496	10733.4
495.866	10932.04
496.235	11083.68
496.605	11341.75
496.974	11534.29
497.344	11781.06
497.713	11947.38
498.082	12106.02
498.452	12311.22
498.821	12535.39
499.19	12693.35
499.559	12960.46
499.928	13122.72
500.298	13307.35
500.667	13554.35
501.036	13616.49
501.405	13852.87
501.774	14077.72
502.143	14356.59
502.512	14439.52
502.88	14703.47
503.249	14823.69
503.618	15152.95
503.987	15252.38
504.356	15474.75
504.724	15736.89
505.093	15838.81
505.462	16064.11
505.83	16281.05
506.199	16594.27
506.567	16808.95
506.936	16997.42
507.304	17289.62
507.672	17374.13
508.041	17657.52
508.409	17855.93
508.777	18076.26
509.145	18184.06
509.514	18317.16
509.882	18491.62
510.25	18735.45
510.618	18945.39
510.986	18969.12
511.354	19201.88
511.722	19444.59
512.09	19730.23
512.458	19708.08
512.826	19876.44
513.193	20033.95
513.561	20147.17
513.929	20359.59
514.297	20495.86
514.664	20721.62
515.032	20765
515.4	20932.46
515.767	21128.16
516.135	21287.7
516.502	21048.84
516.869	21490.18
517.237	21567.7
517.604	21424.65
517.972	21856.05
518.339	21893.56
518.706	21948.25
519.073	22010.4
519.44	22120.45
519.808	22340.33
520.175	22298.07
520.542	22599.08
520.909	22740.32
521.276	22800.21
521.643	23111.84
522.009	23056.92
522.376	23144.6
522.743	23144.6
523.11	23540.98
523.477	23592.5
523.843	23637.47
524.21	23850.8
524.577	23897.8
524.943	24018.7
525.31	23929.89
525.676	24356.1
526.043	24444.23
526.409	24473.83
526.776	24703.21
527.142	24635.41
527.508	24730.1
527.874	24937.32
528.241	25006.93
528.607	25045.12
528.973	25092.12
529.339	25147.26
529.705	25347.26
530.071	25321.5
530.437	25418.44
530.803	25455.73
531.169	25611.88
531.535	25520.59
531.901	25627.02
532.267	25573.24
532.632	25587.7
532.998	25623.86
533.364	25637.19
533.73	25670.64
534.095	25862.5
534.461	25693.01
534.826	25812.56
535.192	25672.45
535.557	25948.6
535.923	25768.72
536.288	25838.32
536.653	25815.72
537.019	25731.88
537.384	25860.24
537.749	25749.05
538.114	25838.09
538.479	25709.51
538.845	25515.16
539.21	25507.71
539.575	25571.66
539.94	25510.64
540.305	25649.62
540.67	25390.19
541.034	25432.45
541.399	25409.63
541.764	25397.88
542.129	25320.82
542.494	25263.64
542.858	25410.31
543.223	25354.04
543.587	25245.57
543.952	25201.5
544.316	25047.83
544.681	25043.31
545.045	25265.45
545.41	25135.29
545.774	25010.09
546.138	24816.42
546.503	24999.7
546.867	24890.77
547.231	24858.46
547.595	24924.44
547.959	24837.21
548.324	24845.35
548.688	24654.85
549.052	24762.64
549.416	24706.14
549.779	24575.98
550.143	24559.26
550.507	24603.55
550.871	24611.91
551.235	24454.63
551.599	24556.54
551.962	24459.37
552.326	24504.34
552.689	24430.22
553.053	24150.45
553.417	24317.68
553.78	24425.25
554.143	24253.95
554.507	24272.71
554.87	24365.81
555.234	24383.44
555.597	24197.46
555.96	24230.45
556.323	24298.92
556.686	24187.97
557.05	24255.53
557.413	24193.62
557.776	24110.68
558.139	24274.97
558.502	24218.47
558.865	24161.75
559.228	24282.43
559.59	24190.45
559.953	24105.26
560.316	24280.39
560.679	24243.11
561.041	24241.75
561.404	24387.96
561.767	24384.34
562.129	24280.39
562.492	24489.43
562.854	24460.05
563.217	24454.63
563.579	24487.62
563.941	24504.34
564.304	24581.85
564.666	24720.61
565.028	24733.94
565.39	24668.18
565.753	24760.38
566.115	24678.12
566.477	24812.81
566.839	24797.44
567.201	24973.48
567.563	25057.32
567.925	25115.62
568.287	25151.56
568.648	25081.05
569.01	25168.96
569.372	25283.3
569.734	25276.75
570.095	25425.9
570.457	25544.31
570.819	25478.33
571.18	25426.35
571.542	25527.37
571.903	25593.35
572.265	25627.48
572.626	25651.88
572.987	25667.02
573.349	25714.93
573.71	25841.93
574.071	25770.3
574.432	25939.56
574.794	26122.15
575.155	25957.86
575.516	25948.6
575.877	26009.61
576.238	25954.47
576.599	26102.94
576.96	26146.11
577.32	26090.29
577.681	26120.8
578.042	26191.98
578.403	26158.08
578.763	26092.32
579.124	26174.58
579.485	26289.15
579.845	26287.35
580.206	26242.37
580.566	26142.72
580.927	26115.37
581.287	26199.21
581.648	26132.32
582.008	26264.75
582.368	26187.24
582.728	26166.9
583.089	26137.07
583.449	26160.57
583.809	26135.26
584.169	26197.4
584.529	25931.65
584.889	26305.2
585.249	26020.69
585.609	25964.64
585.969	26191.08
586.329	25980.69
586.688	25984.75
587.048	25969.61
587.408	25944.08
587.768	25869.73
588.127	25909.73
588.487	25816.62
588.846	25942.95
589.206	25693.01
589.565	25555.39
589.925	25891.88
590.284	25732.33
590.643	25650.53
591.003	25642.84
591.362	25848.71
591.721	25744.31
592.08	25731.43
592.44	25772.1
592.799	25598.78
593.158	25658.89
593.517	25518.78
593.876	25643.29
594.235	25611.66
594.593	25530.76
594.952	25669.28
595.311	25494.37
595.67	25481.94
596.029	25705.21
596.387	25610.08
596.746	25682.84
597.104	25553.81
597.463	25493.47
597.822	25685.1
598.18	25461.83
598.538	25571.43
598.897	25658.89
599.255	25396.97
599.613	25744.08
599.972	25506.12
600.33	25497.31
600.688	25469.97
601.046	25458.89
601.404	25650.53
601.762	25509.51
602.12	25528.04
602.478	25609.85
602.836	25541.15
603.194	25371.21
603.552	25481.72
603.91	25576.86
604.268	25617.31
604.625	25504.09
604.983	25657.53
605.341	25568.49
605.698	25577.08
606.056	25800.13
606.413	25666.34
606.771	25654.37
607.128	25718.32
607.485	25590.19
607.843	25584.31
608.2	25697.3
608.557	25813.23
608.914	25660.92
609.272	25872.67
609.629	25973.68
609.986	25966.22
610.343	25780.01
610.7	26142.04
611.057	25969.84
611.414	25902.72
611.771	26100.91
612.127	26168.03
612.484	26072.21
612.841	26228.59
613.198	26103.62
613.554	26123.73
613.911	26292.32
614.267	26335.71
614.624	26303.84
614.98	26335.48
615.337	26577.96
615.693	26579.54
616.05	26528.7
616.406	26585.64
616.762	26519.66
617.118	26491.41
617.475	26407.34
617.831	26579.32
618.187	26592.65
618.543	26663.83
618.899	26784.28
619.255	26903.83
619.611	26871.96
619.967	26878.52
620.323	26951.96
620.678	26886.2
621.034	26729.37
621.39	26835.81
621.746	26822.25
622.101	27109.47
622.457	26849.14
622.812	27130.26
623.168	27022.47
623.523	27040.55
623.879	27002.35
624.234	26852.53
624.589	26943.15
624.945	27025.41
625.3	27128.91
625.655	27070.38
626.01	26988.57
626.365	27050.72
626.72	26988.8
627.075	27023.15
627.43	26975.69
627.785	27043.48
628.14	27035.8
628.495	27044.39
628.85	27069.02
629.205	27005.74
629.559	27113.09
629.914	26972.3
630.269	27022.24
630.623	26964.39
630.978	26774.56
631.332	26977.95
631.687	26947.44
632.041	26872.87
632.396	26951.28
632.75	26804.62
633.104	26846.88
633.459	26742.93
633.813	26517.85
634.167	26727.79
634.521	26687.79
634.875	26671.06
635.229	26521.69
635.583	26448.92
635.937	26522.14
636.291	26406.44
636.645	26534.57
636.999	26424.74
637.352	26333.22
637.706	26320.56
638.06	26337.51
638.413	26346.33
638.767	26291.41
639.121	26356.72
639.474	26149.04
639.828	26144.52
640.181	26221.58
640.534	26116.73
640.888	26057.3
641.241	25921.03
641.594	26075.37
641.947	25964.19
642.301	25844.19
642.654	25975.72
643.007	25813.46
643.36	25849.39
643.713	25825.44
644.066	25951.31
644.419	25748.15
644.771	25499.12
645.124	25151.33
645.477	25352.68
645.83	25355.62
646.182	25232.23
646.535	25277.65
646.888	25351.78
647.24	25159.69
647.593	25284.66
647.945	25257.99
648.298	25093.7
648.65	25110.2
649.002	24922.64
649.355	24844.67
649.707	24703.88
650.059	24643.77
650.411	24966.7
650.763	25131.22
651.115	25686.68
651.467	25578.21
651.819	25657.08
652.171	25460.02
652.523	25353.81
652.875	25495.73
653.227	25337.09
653.578	25644.65
653.93	25591.54
654.282	25329.86
654.633	25452.57
654.985	25453.02
655.337	25353.13
655.688	25461.6
656.039	25610.98
656.391	25239.46
656.742	25439.68
657.094	25380.02
657.445	25474.03
657.796	25464.54
658.147	25345.22
658.498	25410.08
658.849	25593.13
659.2	25414.83
659.551	25428.16
659.902	25637.42
660.253	25570.53
660.604	25627.25
660.955	25498.44
661.306	25570.53
661.656	25340.7
662.007	25483.98
662.358	25511.09
662.708	25567.82
663.059	25592.22
663.409	25451.89
663.76	25608.04
664.11	25660.47
664.461	25658.66
664.811	25658.44
665.161	25657.53
665.511	25606.91
665.862	25646.68
666.212	25651.43
666.562	25593.58
666.912	25651.2
667.262	25587.02
667.612	25581.15
667.962	25673.58
668.312	25576.4
668.662	25735.95
669.011	25616.4
669.361	25619.11
669.711	25643.52
670.06	25407.82
670.41	25497.31
670.76	25406.92
671.109	25632.22
671.459	25530.08
671.808	25627.7
672.157	25663.18
672.507	25548.83
672.856	25477.88
673.205	25489.63
673.554	25568.04
673.904	25401.95
674.253	25632.45
674.602	25429.74
674.951	25123.99
675.3	25025.91
675.649	25478.33
675.998	25557.42
676.346	25398.78
676.695	25460.7
677.044	25398.78
677.393	25297.09
677.741	25339.57
678.09	25241.5
678.438	25239.24
678.787	25367.6
679.135	25382.06
679.484	25215.74
679.832	25224.77
680.181	25096.42
680.529	25152.91
680.877	25113.37
681.225	25014.61
681.573	25215.06
681.922	25010.32
682.27	24933.48
682.618	24886.93
682.966	24773.04
683.314	24796.31
683.661	24765.8
684.009	24665.47
684.357	24651.91
684.705	24462.08
685.053	24409.65
685.4	24336.44
685.748	24331.01
686.095	24314.29
686.443	24292.6
686.79	24164.24
687.138	24256.89
687.485	24139.38
687.832	24019.16
688.18	24018.7
688.527	23885.6
688.874	23926.05
689.221	23813.74
689.568	23658.49
689.915	23639.73
690.262	23714.53
690.609	23610.13
690.956	23503.69
691.303	23368.78
691.65	23203.81
691.997	23209.46
692.344	23153.19
692.69	23009.01
693.037	23099.86
693.383	22871.62
693.73	22939.86
694.077	22869.81
694.423	22794.78
694.769	22703.94
695.116	22680.43
695.462	22494.22
695.808	22346.88
696.155	22523.83
696.501	22168.81
696.847	22210.16
697.193	22075.03
697.539	22160.9
697.885	21846.78
698.231	21958.19
698.577	21906.67
698.923	21857.86
699.269	21701.48
699.614	21558.66
699.96	21546
700.306	21524.76
700.651	21347.36
700.997	21133.81
701.342	21202.06
701.688	21125.67
702.033	21153.7
702.379	21079.57
702.724	21046.13
703.069	20954.83
703.415	20808.85
703.76	20672.13
704.105	20649.75
704.45	20698.34
704.795	20563.88
705.14	20414.51
705.485	20486.14
705.83	20400.49
706.175	20420.38
706.52	20254.96
706.865	20210.9
707.209	20132.71
707.554	20153.04
707.899	20064.91
708.243	19997.34
708.588	19929.77
708.932	19808.19
709.277	19810.23
709.621	19700.63
709.966	19649.55
710.31	19763.9
710.654	19462.44
710.998	19546.51
711.342	19553.06
711.687	19440.29
712.031	19476.23
712.375	19429.22
712.719	19322.1
713.063	19287.3
713.407	19415.21
713.75	19318.72
714.094	19250.69
714.438	19191.94
714.782	19161.21
715.125	19161.66
715.469	19227.42
715.812	19054.54
716.156	18981.55
716.499	18986.52
716.843	19154.2
717.186	18977.93
717.53	19081.43
717.873	19028.33
718.216	18977.03
718.559	18799.41
718.902	18668.11
719.246	18781.33
719.589	18720.99
719.932	18729.35
720.275	18684.38
720.617	18802.12
720.96	18677.38
721.303	18887.31
721.646	18781.33
721.989	18614.1
722.331	18675.79
722.674	18621.33
723.016	18708.34
723.359	18628.56
723.701	18700.65
724.044	18666.98
724.386	18591.28
724.729	18723.48
725.071	18551.28
725.413	18675.79
725.755	18551.28
726.097	18453.65
726.439	18486.19
726.782	18492.52
727.124	18565.51
727.465	18513.99
727.807	18477.38
728.149	18499.53
728.491	18539.07
728.833	18534.56
729.175	18530.49
729.516	18401.68
729.858	18414.78
730.199	18583.82
730.541	18504.95
730.882	18506.31
731.224	18546.98
731.565	18505.86
731.906	18541.56
732.248	18604.84
732.589	18488.45
732.93	18527.78
733.271	18546.31
733.612	18598.73
733.953	18546.08
734.294	18561.22
734.635	18551.05
734.976	18751.72
735.317	18641.9
735.658	18527.78
735.999	18605.29
736.339	18706.53
736.68	18767.54
737.021	18729.8
737.361	18842.34
737.702	18912.4
738.042	18855.22
738.383	18960.08
738.723	18996.69
739.063	18975.67
739.404	19088.21
739.744	19020.87
740.084	19119.17
740.424	19247.98
740.764	19209.57
741.104	19263.58
741.444	19346.96
741.784	19395.55
742.124	19492.04
742.464	19516.22
742.804	19590.12
743.143	19699.5
743.483	19756.22
743.823	19794.18
744.162	19873.5
744.502	19991.47
744.841	20087.73
745.181	20281.18
745.52	20318.24
745.86	20429.87
746.199	20449.31
746.538	20616.99
746.877	20792.35
747.216	20899.46
747.556	21087.93
747.895	21170.64
748.234	21233.47
748.573	21381.26
748.911	21552.33
749.25	21685.88
749.589	21837.29
749.928	22098.98
750.267	22313.21
750.605	22345.98
750.944	22532.19
751.283	22812.18
751.621	23136.02
751.96	23222.12
752.298	23451.26
752.636	23632.27
752.975	23851.03
753.313	23963.11
753.651	24388.86
753.989	24401.07
754.327	24638.35
