Data from 3278_FLMS001491_008.txt Node
Date: Thu Apr 19 15:16:22 BST 2018
User: hsy
Spectrometer: FLMS00149
Trigger mode: 0
Integration Time (sec): 1.000000E-2
Scans to average: 10
Electric dark correction enabled: true
Nonlinearity correction enabled: false
Boxcar width: 0
XAxis mode: Wavelengths
Number of Pixels in Spectrum: 2048
>>>>>Begin Spectral Data<<<<<
341.393	-23.4
341.776	-23.4
342.16	-23.4
342.543	-59.11
342.927	-71.31
343.31	-55.04
343.693	-67.92
344.077	-85.55
344.46	-45.1
344.843	-68.15
345.226	-26.79
345.61	-27.02
345.993	4.62
346.376	-31.76
346.759	6.43
347.142	26.99
347.525	47.78
347.908	54.56
348.291	83.03
348.674	87.1
349.057	96.82
349.44	129.14
349.823	129.81
350.206	173.88
350.588	226.53
350.971	219.08
351.354	251.39
351.737	277.15
352.119	290.26
352.502	292.07
352.884	303.59
353.267	309.7
353.65	308.11
354.032	333.88
354.414	328.9
354.797	335.68
355.179	348.34
355.562	345.4
355.944	355.57
356.326	372.07
356.709	360.99
357.091	366.87
357.473	387.89
357.855	390.37
358.238	375.68
358.62	355.34
359.002	382.91
359.384	385.17
359.766	386.98
360.148	386.3
360.53	391.95
360.912	375.46
361.294	353.08
361.676	371.39
362.057	382.91
362.439	376.81
362.821	392.4
363.203	372.74
363.584	382.24
363.966	372.07
364.348	371.84
364.729	361.67
365.111	363.03
365.493	375.46
365.874	344.27
366.256	370.94
366.637	373.87
367.019	343.37
367.4	369.35
367.781	328.45
368.163	356.93
368.544	356.25
368.925	368.68
369.306	380.2
369.688	354.44
370.069	373.42
370.45	360.32
370.831	366.64
371.212	372.97
371.593	364.84
371.974	372.29
372.355	358.28
372.736	373.2
373.117	366.19
373.498	371.84
373.879	365.51
374.26	348.11
374.641	372.52
375.021	360.32
375.402	371.84
375.783	391.05
376.163	400.99
376.544	389.02
376.925	365.51
377.305	413.87
377.686	406.42
378.066	384.5
378.447	381.11
378.827	389.47
379.208	381.33
379.588	381.33
379.968	410.71
380.349	397.83
380.729	400.99
381.109	415
381.489	412.74
381.87	391.28
382.25	409.81
382.63	392.63
383.01	414.55
383.39	439.41
383.77	438.51
384.15	420.65
384.53	428.79
384.91	436.02
385.29	437.15
385.67	431.27
386.049	443.93
386.429	450.93
386.809	410.48
387.189	445.74
387.568	438.73
387.948	468.34
388.328	447.77
388.707	456.13
389.087	462.01
389.466	464.72
389.846	464.04
390.225	464.72
390.605	492.29
390.984	487.77
391.363	491.39
391.743	492.29
392.122	510.37
392.501	493.65
392.881	497.26
393.26	488.22
393.639	496.36
394.018	499.97
394.397	508.56
394.776	509.46
395.155	492.97
395.534	508.79
395.913	519.63
396.292	511.5
396.671	521.67
397.05	524.83
397.429	536.81
397.808	511.27
398.186	521.22
398.565	515.11
398.944	540.88
399.323	580.87
399.701	550.82
400.08	549.91
400.458	577.03
400.837	549.46
401.215	559.41
401.594	571.16
401.972	602.79
402.351	544.04
402.729	615.9
403.107	579.29
403.486	604.38
403.864	605.28
404.242	604.83
404.62	602.79
404.999	609.35
405.377	615.68
405.755	595.56
406.133	644.38
406.511	615.9
406.889	620.87
407.267	644.15
407.645	645.73
408.023	655.67
408.401	658.84
408.779	667.65
409.156	666.97
409.534	658.39
409.912	685.96
410.29	684.6
410.667	709.01
411.045	718.5
411.422	734.77
411.8	720.98
412.178	738.16
412.555	746.29
412.933	743.58
413.31	742
413.687	779.51
414.065	775.45
414.442	771.15
414.819	783.36
415.197	774.54
415.574	792.39
415.951	821.09
416.328	826.07
416.705	786.52
417.082	803.69
417.46	825.61
417.837	838.72
418.214	858.38
418.591	848.66
418.967	840.98
419.344	858.16
419.721	861.32
420.098	886.86
420.475	900.87
420.852	881.88
421.228	890.7
421.605	905.84
421.982	912.17
422.358	913.97
422.735	934.76
423.111	924.37
423.488	939.06
423.864	955.33
424.241	963.69
424.617	977.93
424.994	972.95
425.37	977.7
425.746	966.18
426.123	980.86
426.499	1011.37
426.875	1015.44
427.251	1039.85
427.627	1031.48
428.003	1052.5
428.379	1065.83
428.756	1067.19
429.132	1079.39
429.507	1096.12
429.883	1085.95
430.259	1122.56
430.635	1142.67
431.011	1130.69
431.387	1117.13
431.763	1177.02
432.138	1165.27
432.514	1178.6
432.89	1198.94
433.265	1236.9
433.641	1231.03
434.016	1253.63
434.392	1297.24
434.767	1302.21
435.143	1287.52
435.518	1288.2
435.894	1300.86
436.269	1323.23
436.644	1348.76
437.02	1380.63
437.395	1376.79
437.77	1386.05
438.145	1400.74
438.52	1370.91
438.895	1441.19
439.271	1434.41
439.646	1443
440.021	1479.61
440.395	1458.14
440.77	1441.64
441.145	1492.94
441.52	1500.17
441.895	1513.96
442.27	1515.31
442.645	1513.73
443.019	1498.82
443.394	1523.45
443.769	1579.49
444.143	1561.41
444.518	1574.07
444.892	1579.04
445.267	1548.53
445.641	1576.1
446.016	1607.74
446.39	1624.46
446.764	1600.73
447.139	1598.93
447.513	1652.03
447.887	1663.33
448.262	1640.51
448.636	1658.81
449.01	1707.4
449.384	1721.18
449.758	1704.69
450.132	1761.63
450.506	1732.48
450.88	1754.85
451.254	1713.95
451.628	1796.44
452.002	1767.28
452.376	1821.97
452.75	1858.36
453.123	1852.48
453.497	1885.25
453.871	1886.6
454.244	1956.21
454.618	1966.83
454.992	1987.39
455.365	1978.8
455.739	2033.72
456.112	2078.69
456.486	2054.51
456.859	2099.7
457.232	2124.79
457.606	2143.32
457.979	2173.6
458.352	2232.13
458.725	2192.81
459.099	2263.77
459.472	2278.46
459.845	2299.25
460.218	2328.17
460.591	2356.87
460.964	2348.29
461.337	2398.23
461.71	2451.33
462.083	2475.06
462.456	2489.98
462.829	2526.59
463.201	2548.51
463.574	2578.34
463.947	2596.87
464.32	2637.54
464.692	2664.44
465.065	2683.64
465.438	2740.14
465.81	2756.64
466.183	2761.61
466.555	2832.11
466.928	2867.82
467.3	2890.42
467.672	2908.95
468.045	2980.36
468.417	2994.37
468.789	2986.24
469.161	3023.75
469.534	3102.62
469.906	3151.43
470.278	3214.03
470.65	3226
471.022	3269.17
471.394	3308.03
471.766	3352.33
472.138	3423.29
472.51	3428.48
472.882	3487.92
473.253	3527.01
473.625	3618.31
473.997	3658.99
474.369	3715.71
474.74	3732.88
475.112	3756.61
475.484	3867.79
475.855	3901.69
476.227	4009.26
476.598	4105.08
476.97	4137.17
477.341	4269.14
477.713	4235.47
478.084	4318.63
478.455	4419.64
478.827	4475.24
479.198	4618.73
479.569	4622.12
479.94	4743.03
480.311	4807.88
480.682	4915.68
481.053	5067.31
481.424	5127.2
481.795	5172.62
482.166	5289.9
482.537	5368.55
482.908	5488.77
483.279	5558.14
483.65	5717.91
484.021	5863.9
484.391	5933.73
484.762	5995.2
485.133	6121.29
485.503	6174.17
485.874	6381.85
486.244	6439.25
486.615	6561.06
486.985	6700.49
487.356	6921.27
487.726	6961.5
488.097	7164.2
488.467	7262.28
488.837	7419.11
489.207	7565.1
489.578	7732.78
489.948	7819.55
490.318	8027.91
490.688	8112.2
491.058	8346.55
491.428	8471.29
491.798	8644.17
492.168	8815.46
492.538	8943.37
492.908	9128.9
493.278	9325.96
493.648	9386.29
494.017	9654.99
494.387	9815.43
494.757	9969.78
495.126	10159.61
495.496	10288.64
495.866	10521.63
496.235	10729.53
496.605	10873.03
496.974	10985.12
497.344	11246.58
497.713	11359.57
498.082	11646.12
498.452	11836.85
498.821	12082.95
499.19	12200.68
499.559	12458.3
499.928	12593.44
500.298	12793.43
500.667	13068.23
501.036	13250.82
501.405	13389.13
501.774	13631.15
502.143	13851.71
502.512	14012.16
502.88	14235.43
503.249	14357.24
503.618	14634.97
503.987	14781.41
504.356	14972.59
504.724	15255.52
505.093	15366.02
505.462	15526.24
505.83	15848.72
506.199	16089.62
506.567	16326.68
506.936	16450.74
507.304	16699.55
507.672	16844.63
508.041	16968.24
508.409	17260.66
508.777	17439.19
509.145	17745.62
509.514	17790.14
509.882	17951.27
510.25	18118.49
510.618	18343.12
510.986	18458.14
511.354	18731.81
511.722	18894.74
512.09	19082.76
512.458	19118.69
512.826	19377.89
513.193	19463.09
513.561	19610.66
513.929	19794.38
514.297	19963.19
514.664	20069.4
515.032	20192.79
515.4	20361.6
515.767	20547.13
516.135	20625.77
516.502	20565.89
516.869	21021.47
517.237	21121.13
517.604	20949.6
517.972	21310.95
518.339	21460.55
518.706	21416.03
519.073	21558.4
519.44	21510.72
519.808	21856.25
520.175	21797.27
520.542	22075.68
520.909	22076.58
521.276	22240.87
521.643	22331.26
522.009	22466.4
522.376	22650.35
522.743	22805.6
523.11	22920.17
523.477	23128.98
523.843	22995.88
524.21	23447.39
524.577	23376.43
524.943	23516.77
525.31	23599.7
525.676	23771
526.043	23817.33
526.409	23817.55
526.776	23987.49
527.142	24065.45
527.508	24084.66
527.874	24317.88
528.241	24302.74
528.607	24330.53
528.973	24578.44
529.339	24507.93
529.705	24608.72
530.071	24820.69
530.437	24707.02
530.803	24881.7
531.169	24920.35
531.535	24819.56
531.901	25018.88
532.267	24843.74
532.632	25005.54
532.998	25001.93
533.364	25164.86
533.73	25051.42
534.095	25227.68
534.461	25141.81
534.826	25172.09
535.192	25220
535.557	25331.18
535.923	25149.49
536.288	25156.27
536.653	25192.43
537.019	25170.51
537.384	25112.88
537.749	25135.71
538.114	25092.55
538.479	25150.62
538.845	25047.8
539.21	24943.62
539.575	25079.44
539.94	24991.08
540.305	25030.85
540.67	24889.84
541.034	24921.03
541.399	24886.68
541.764	24801.25
542.129	24812.55
542.494	24737.75
542.858	24776.17
543.223	24614.82
543.587	24649.17
543.952	24654.59
544.316	24518.1
544.681	24370.31
545.045	24587.47
545.41	24432.22
545.774	24444.65
546.138	24342.06
546.503	24296.41
546.867	24272
547.231	24284.21
547.595	24227.26
547.959	24265.68
548.324	24232.46
548.688	24071.78
549.052	24053.48
549.416	24153.81
549.779	23986.13
550.143	23949.07
550.507	23953.82
550.871	23919.47
551.235	23887.38
551.599	23935.51
551.962	23833.82
552.326	23761.06
552.689	23775.97
553.053	23528.97
553.417	23652.13
553.78	23882.41
554.143	23685.13
554.507	23726.93
554.87	23580.27
555.234	23700.04
555.597	23573.94
555.96	23624.56
556.323	23563.77
556.686	23503.44
557.05	23466.15
557.413	23473.15
557.776	23523.55
558.139	23627.27
558.502	23587.28
558.865	23484.23
559.228	23640.16
559.59	23569.2
559.953	23548.41
560.316	23717.44
560.679	23628.63
561.041	23715.18
561.404	23829.3
561.767	23890.09
562.129	23710.66
562.492	23892.35
562.854	23770.77
563.217	23688.29
563.579	23688.06
563.941	23859.13
564.304	23856.65
564.666	24093.25
565.028	23864.78
565.39	23945.23
565.753	24042.4
566.115	23999.02
566.477	24131.89
566.839	24181.84
567.201	24332.11
567.563	24139.35
567.925	24297.99
568.287	24379.34
568.648	24413.92
569.01	24470.64
569.372	24730.3
569.734	24563.52
570.095	24753.12
570.457	24750.18
570.819	24787.02
571.18	24643.52
571.542	24793.8
571.903	24848.71
572.265	24956.28
572.626	24866.34
572.987	25020.91
573.349	24942.49
573.71	25129.83
574.071	25064.07
574.432	25183.39
574.794	25355.36
575.155	25272.43
575.516	25202.6
575.877	25384.52
576.238	25241.02
576.599	25338.19
576.96	25436.49
577.32	25403.72
577.681	25417.06
578.042	25540.9
578.403	25422.48
578.763	25435.81
579.124	25386.55
579.485	25598.07
579.845	25462.03
580.206	25421.13
580.566	25519.43
580.927	25437.4
581.287	25574.12
581.648	25439.2
582.008	25562.36
582.368	25475.81
582.728	25471.75
583.089	25382.71
583.449	25342.71
583.809	25374.35
584.169	25417.74
584.529	25358.3
584.889	25587.9
585.249	25322.14
585.609	25101.81
585.969	25383.61
586.329	25180.45
586.688	25303.39
587.048	25118.99
587.408	25150.17
587.768	25252.99
588.127	25018.65
588.487	25089.38
588.846	25155.14
589.206	24907.01
589.565	25021.81
589.925	25052.55
590.284	24981.14
590.643	24862.5
591.003	24947.24
591.362	24933.23
591.721	25016.84
592.08	24996.96
592.44	24958.09
592.799	24893.46
593.158	24837.41
593.517	24827.02
593.876	24885.55
594.235	24740.69
594.593	24881.03
594.952	24896.62
595.311	24715.16
595.67	24799.45
596.029	24984.53
596.387	24841.93
596.746	25048.03
597.104	24763.06
597.463	24789.05
597.822	24810.52
598.18	24767.58
598.538	24754.25
598.897	24885.55
599.255	24688.94
599.613	24997.41
599.972	24767.58
600.33	24887.81
600.688	24716.06
601.046	24827.69
601.404	25080.34
601.762	24856.85
602.12	24959.67
602.478	24822.05
602.836	24937.75
603.194	24763.29
603.552	24815.72
603.91	24823.85
604.268	24850.97
604.625	24878.31
604.983	24946.11
605.341	24733.23
605.698	24817.07
606.056	24976.39
606.413	24975.04
606.771	25077.63
607.128	24932.1
607.485	24842.16
607.843	24946.56
608.2	24932.55
608.557	25081.93
608.914	25153.11
609.272	25020.68
609.629	25282.15
609.986	25266.1
610.343	25139.78
610.7	25344.29
611.057	25211.19
611.414	25246.67
611.771	25358.75
612.127	25343.39
612.484	25293.9
612.841	25472.88
613.198	25474.23
613.554	25414.57
613.911	25583.38
614.267	25553.1
614.624	25345.87
614.98	25626.77
615.337	25775.92
615.693	25761.91
616.05	25720.78
616.406	25809.14
616.762	25815.69
617.118	25827.44
617.475	25822.02
617.831	25878.51
618.187	25789.7
618.543	25871.06
618.899	26044.16
619.255	26000.77
619.611	25956.25
619.967	26214.1
620.323	26143.14
620.678	26151.28
621.034	26080.77
621.39	26081.45
621.746	26033.76
622.101	26368.67
622.457	26088.23
622.812	26429.46
623.168	26200.31
623.523	26295.9
623.879	26346.75
624.234	26197.38
624.589	26236.47
624.945	26179.07
625.3	26278.73
625.655	26296.58
626.01	26307.66
626.365	26235.34
626.72	26253.42
627.075	26263.14
627.43	26223.59
627.785	26155.57
628.14	26265.85
628.495	26199.18
628.85	26226.08
629.205	26189.69
629.559	26228.79
629.914	26088.23
630.269	26160.99
630.623	25936.14
630.978	25874.22
631.332	26190.6
631.687	26109.47
632.041	26075.8
632.396	26071.28
632.75	26011.84
633.104	26031.73
633.459	25930.49
633.813	25965.07
634.167	25955.35
634.521	25967.33
634.875	26012.97
635.229	25842.81
635.583	25672.19
635.937	25825.18
636.291	25592.87
636.645	25707.22
636.999	25682.59
637.352	25645.53
637.706	25611.85
638.06	25690.72
638.413	25604.4
638.767	25478.75
639.121	25533.44
639.474	25407.34
639.828	25385.42
640.181	25437.4
640.534	25457.28
640.888	25306.1
641.241	25230.62
641.594	25142.49
641.947	25318.98
642.301	25155.14
642.654	25270.62
643.007	25098.42
643.36	25143.62
643.713	25027.69
644.066	25229.04
644.419	25076.5
644.771	24662.5
645.124	24519.68
645.477	24468.83
645.83	24422.28
646.182	24519.91
646.535	24371.44
646.888	24516.74
647.24	24356.75
647.593	24598.32
647.945	24428.84
648.298	24380.47
648.65	24163.98
649.002	24151.78
649.355	23987.26
649.707	23799.25
650.059	23777.78
650.411	24224.55
650.763	24398.33
651.115	24794.48
651.467	24779.56
651.819	24767.58
652.171	24713.12
652.523	24635.61
652.875	24622.28
653.227	24554.93
653.578	24750.63
653.93	24719.45
654.282	24614.59
654.633	24585.89
654.985	24578.21
655.337	24620.24
655.688	24562.16
656.039	24830.18
656.391	24369.85
656.742	24547.48
657.094	24663.18
657.445	24630.19
657.796	24635.84
658.147	24582.28
658.498	24599.68
658.849	24798.99
659.2	24745.89
659.551	24624.31
659.902	24700.69
660.253	24577.98
660.604	24782.72
660.955	24641.03
661.306	24676.51
661.656	24717.87
662.007	24578.21
662.358	24694.59
662.708	24645.33
663.059	24668.83
663.409	24622.28
663.76	24759.67
664.11	24778.88
664.461	24805.77
664.811	24916.05
665.161	24782.95
665.511	24724.87
665.862	24713.8
666.212	24846
666.562	24902.27
666.912	24829.95
667.262	24719.9
667.612	24900.69
667.962	24946.79
668.312	24889.39
668.662	24829.95
669.011	24836.28
669.361	24808.49
669.711	24814.59
670.06	24890.52
670.41	24854.59
670.76	24814.36
671.109	24879.67
671.459	24838.09
671.808	24836.51
672.157	24765.78
672.507	24704.31
672.856	24641.48
673.205	24726
673.554	24834.25
673.904	24551.77
674.253	24808.49
674.602	24569.17
674.951	24354.49
675.3	24192.91
675.649	24528.27
675.998	24655.5
676.346	24560.81
676.695	24554.48
677.044	24414.15
677.393	24522.62
677.741	24555.16
678.09	24543.86
678.438	24445.11
678.787	24506.8
679.135	24460.47
679.484	24278.56
679.832	24386.12
680.181	24183.64
680.529	24266.58
680.877	24161.95
681.225	24134.15
681.573	24224.09
681.922	24083.53
682.27	24074.04
682.618	24055.51
682.966	23961.73
683.314	24051.9
683.661	23968.51
684.009	23888.51
684.357	23858.68
684.705	23705.46
685.053	23748.63
685.4	23745.01
685.748	23613.26
686.095	23629.31
686.443	23387.73
686.79	23462.53
687.138	23459.82
687.485	23413.04
687.832	23324.68
688.18	23320.16
688.527	23131.47
688.874	23124.01
689.221	23064.13
689.568	22935.09
689.915	22928.08
690.262	22886.5
690.609	22837.46
690.956	22758.6
691.303	22822.55
691.65	22591.37
691.997	22579.84
692.344	22478.83
692.69	22261.66
693.037	22338.04
693.383	22153.87
693.73	22171.95
694.077	22005.4
694.423	22036.58
694.769	21824.84
695.116	21805.4
695.462	21805.4
695.808	21688.34
696.155	21632.3
696.501	21579.42
696.847	21545.3
697.193	21431.85
697.539	21445.86
697.885	21131.97
698.231	21174.91
698.577	21056.95
698.923	21100.56
699.269	20937.85
699.614	20786.9
699.96	20751.64
700.306	20736.73
700.651	20671.87
700.997	20588.26
701.342	20524.3
701.688	20514.14
702.033	20430.75
702.379	20373.12
702.724	20158.21
703.069	20239.57
703.415	20024.21
703.76	19922.51
704.105	19949.63
704.45	19906.92
704.795	19868.95
705.14	19669.19
705.485	19646.59
705.83	19638.45
706.175	19741.05
706.52	19453.15
706.865	19538.12
707.209	19449.08
707.554	19486.82
707.899	19381.51
708.243	19317.56
708.588	19249.76
708.932	19202.98
709.277	19024.46
709.621	19159.82
709.966	18953.27
710.31	19069.88
710.654	18934.52
710.998	18980.62
711.342	18983.1
711.687	18815.88
712.031	18866.04
712.375	18716.44
712.719	18698.82
713.063	18780.85
713.407	18775.42
713.75	18652.49
714.094	18624.92
714.438	18669.66
714.782	18642.09
715.125	18453.4
715.469	18598.48
715.812	18493.85
716.156	18372.05
716.499	18401.65
716.843	18384.25
717.186	18349.22
717.53	18432.16
717.873	18381.54
718.216	18332.72
718.559	18266.29
718.902	18122.33
719.246	18212.05
719.589	18264.48
719.932	18101.54
720.275	18181.99
720.617	18096.8
720.96	18107.19
721.303	18123.01
721.646	18155.33
721.989	17956.01
722.331	18033.3
722.674	18006.86
723.016	18014.99
723.359	17988.55
723.701	18060.41
724.044	17892.51
724.386	17901.1
724.729	18009.12
725.071	17946.29
725.413	17986.74
725.755	17954.88
726.097	17937.48
726.439	17873.98
726.782	17901.32
727.124	17966.41
727.465	17857.93
727.807	17878.5
728.149	17876.01
728.491	17819.74
728.833	17875.34
729.175	17963.92
729.516	17854.09
729.858	17887.54
730.199	17949.91
730.541	17843.7
730.882	17849.8
731.224	17986.52
731.565	17945.62
731.906	17859.97
732.248	18040.75
732.589	17947.42
732.93	17931.83
733.271	17872.4
733.612	17818.84
733.953	17917.37
734.294	17801.21
734.635	18006.63
734.976	18032.17
735.317	18018.61
735.658	18066.29
735.999	17994.2
736.339	18115.1
736.68	18209.79
737.021	18080.75
737.361	18057.25
737.702	18174.31
738.042	18183.35
738.383	18183.58
738.723	18285.04
739.063	18287.53
739.404	18478.26
739.744	18397.58
740.084	18450.91
740.424	18579.27
740.764	18628.31
741.104	18707.86
741.444	18701.75
741.784	18725.93
742.124	18824.46
742.464	18860.39
742.804	18899.71
743.143	19006.38
743.483	19074.63
743.823	19093.38
744.162	19198.24
744.502	19395.3
744.841	19519.81
745.181	19527.72
745.52	19635.06
745.86	19796.19
746.199	19864.66
746.538	19946.24
746.877	20137.2
747.216	20234.37
747.556	20458.32
747.895	20576.73
748.234	20618.31
748.573	20863.28
748.911	20905.54
749.25	21052.88
749.589	21170.84
749.928	21451.51
750.267	21547.55
750.605	21764.05
750.944	22044.04
751.283	22190.7
751.621	22369.23
751.96	22597.02
752.298	22760.18
752.636	23027.97
752.975	23204.91
753.313	23332.82
753.651	23713.83
753.989	23839.92
754.327	24154.49
754.666	24217.09
