Data from 3278_FLMS001491_010.txt Node
Date: Thu Apr 19 15:16:30 BST 2018
User: hsy
Spectrometer: FLMS00149
Trigger mode: 0
Integration Time (sec): 1.000000E-2
Scans to average: 10
Electric dark correction enabled: true
Nonlinearity correction enabled: false
Boxcar width: 0
XAxis mode: Wavelengths
Number of Pixels in Spectrum: 2048
>>>>>Begin Spectral Data<<<<<
341.393	-2.03
341.776	-2.03
342.16	-2.03
342.543	-67.34
342.927	-43.39
343.31	-75.7
343.693	-89.04
344.077	-42.48
344.46	-51.3
344.843	-49.49
345.226	-54.69
345.61	-17.85
345.993	-31.41
346.376	1.58
346.759	12.88
347.142	19.89
347.525	52.88
347.908	50.17
348.291	78.19
348.674	94.46
349.057	101.92
349.44	130.84
349.823	152.09
350.206	160.9
350.588	235.25
350.971	251.97
351.354	291.74
351.737	274.12
352.119	287
352.502	316.38
352.884	316.38
353.267	337.84
353.65	334
354.032	339.88
354.414	350.73
354.797	354.11
355.179	359.76
355.562	365.41
355.944	354.57
356.326	379.43
356.709	403.15
357.091	379.2
357.473	391.18
357.855	389.82
358.238	387.56
358.62	398.86
359.002	385.53
359.384	373.78
359.766	377.62
360.148	389.14
360.53	392.53
360.912	381.68
361.294	388.01
361.676	391.63
362.057	381.91
362.439	378.75
362.821	392.53
363.203	384.85
363.584	388.24
363.966	385.3
364.348	383.27
364.729	383.94
365.111	388.01
365.493	358.18
365.874	355.24
366.256	384.4
366.637	379.88
367.019	396.37
367.4	378.07
367.781	383.49
368.163	388.24
368.544	367.9
368.925	379.43
369.306	361.57
369.688	393.89
370.069	386.43
370.45	371.29
370.831	374
371.212	380.1
371.593	378.07
371.974	384.17
372.355	383.72
372.736	383.04
373.117	408.8
373.498	368.35
373.879	398.86
374.26	386.2
374.641	359.31
375.021	377.39
375.402	389.14
375.783	401.8
376.163	429.37
376.544	409.93
376.925	428.69
377.305	424.4
377.686	406.32
378.066	416.03
378.447	425.98
378.827	425.53
379.208	396.37
379.588	420.78
379.968	414
380.349	405.64
380.729	418.52
381.109	429.82
381.489	419.2
381.87	426.66
382.25	434.34
382.63	433.43
383.01	440.21
383.39	423.27
383.77	432.31
384.15	442.47
384.53	455.13
384.91	458.29
385.29	460.78
385.67	444.73
386.049	461
386.429	454.68
386.809	459.42
387.189	487.44
387.568	457.62
387.948	481.12
388.328	489.7
388.707	501
389.087	492.64
389.466	479.99
389.846	490.38
390.225	493.55
390.605	502.59
390.984	500.1
391.363	509.37
391.743	510.95
392.122	507.78
392.501	512.53
392.881	515.01
393.26	514.11
393.639	515.92
394.018	536.03
394.397	527.44
394.776	548.46
395.155	562.92
395.534	544.39
395.913	560.66
396.292	559.99
396.671	557.73
397.05	575.35
397.429	564.28
397.808	552.08
398.186	580.55
398.565	581.68
398.944	580.32
399.323	589.14
399.701	606.99
400.08	586.43
400.458	584.84
400.837	605.18
401.215	597.95
401.594	592.53
401.972	607.67
402.351	628.91
402.729	633.43
403.107	623.26
403.486	637.05
403.864	630.27
404.242	659.42
404.62	647.89
404.999	655.12
405.377	664.62
405.755	675.01
406.133	667.78
406.511	662.81
406.889	692.64
407.267	693.54
407.645	724.05
408.023	690.15
408.401	722.92
408.779	721.56
409.156	733.54
409.534	741
409.912	739.42
410.29	744.16
410.667	745.52
411.045	782.13
411.422	775.8
411.8	779.64
412.178	781.9
412.555	793.65
412.933	790.49
413.31	815.8
413.687	829.13
414.065	848.79
414.442	857.83
414.819	845.63
415.197	879.07
415.574	901.22
415.951	890.15
416.328	893.76
416.705	898.51
417.082	933.99
417.46	921.11
417.837	924.27
418.214	947.55
418.591	933.99
418.967	959.52
419.344	952.52
419.721	957.26
420.098	985.51
420.475	943.03
420.852	978.28
421.228	994.78
421.605	1002.91
421.982	1012.18
422.358	1001.1
422.735	1006.08
423.111	1019.86
423.488	1047.2
423.864	1036.36
424.241	1056.92
424.617	1086.3
424.994	1089.24
425.37	1092.85
425.746	1108.9
426.123	1110.03
426.499	1125.85
426.875	1112.97
427.251	1134.89
427.627	1157.03
428.003	1170.82
428.379	1194.77
428.756	1195
429.132	1207.43
429.507	1202.91
429.883	1253.98
430.259	1256.92
430.635	1270.93
431.011	1240.19
431.387	1307.99
431.763	1322
432.138	1332.85
432.514	1342.34
432.89	1368.78
433.265	1357.25
433.641	1391.83
434.016	1409.23
434.392	1410.58
434.767	1441.77
435.143	1461.2
435.518	1480.19
435.894	1486.06
436.269	1524.93
436.644	1518.83
437.02	1520.86
437.395	1546.63
437.77	1571.94
438.145	1587.53
438.52	1582.56
438.895	1620.97
439.271	1608.77
439.646	1643.8
440.021	1664.59
440.395	1673.63
440.77	1629.79
441.145	1691.48
441.52	1702.55
441.895	1695.55
442.27	1746.62
442.645	1744.13
443.019	1739.39
443.394	1733.29
443.769	1757.69
444.143	1739.62
444.518	1737.36
444.892	1780.97
445.267	1803.79
445.641	1784.36
446.016	1823.91
446.39	1839.27
446.764	1859.16
447.139	1837.92
447.513	1869.33
447.887	1873.62
448.262	1876.33
448.636	1923.34
449.01	1964.24
449.384	1957.69
449.758	1948.42
450.132	1978.48
450.506	2016.67
450.88	2043.79
451.254	2012.15
451.628	2013.28
452.002	2084.46
452.376	2070.68
452.75	2098.48
453.123	2113.62
453.497	2186.16
453.871	2182.99
454.244	2229.09
454.618	2208.98
454.992	2283.56
455.365	2272.48
455.739	2323.33
456.112	2355.64
456.486	2361.97
456.859	2384.8
457.232	2437.68
457.606	2465.92
457.979	2485.13
458.352	2524.45
458.725	2598.12
459.099	2589.76
459.472	2628.86
459.845	2692.58
460.218	2672.92
460.591	2710.21
460.964	2752.24
461.337	2768.97
461.71	2840.38
462.083	2845.12
462.456	2856.65
462.829	2872.92
463.201	2939.36
463.574	2936.42
463.947	2992.46
464.32	3044.21
464.692	3073.82
465.065	3087.83
465.438	3144.1
465.81	3180.48
466.183	3203.53
466.555	3253.7
466.928	3263.87
467.3	3303.64
467.672	3369.85
468.045	3432.23
468.417	3445.33
468.789	3482.85
469.161	3519.91
469.534	3579.79
469.906	3654.14
470.278	3708.6
470.65	3711.09
471.022	3795.61
471.394	3819.79
471.766	3868.15
472.138	3926
472.51	3987.24
472.882	4043.28
473.253	4091.64
473.625	4174.35
473.997	4221.36
474.369	4250.28
474.74	4317.4
475.112	4369.38
475.484	4470.16
475.855	4516.94
476.227	4577.73
476.598	4728.24
476.97	4754.68
477.341	4894.33
477.713	4953.32
478.084	5033.54
478.455	5163.03
478.827	5164.38
479.198	5318.73
479.569	5335.9
479.94	5505.17
480.311	5576.12
480.682	5675.56
481.053	5817.93
481.424	5939.96
481.795	6051.82
482.166	6103.79
482.537	6212.27
482.908	6373.39
483.279	6441.64
483.65	6566.38
484.021	6733.61
484.391	6839.59
484.762	6943.09
485.133	7001.85
485.503	7108.29
485.874	7329.52
486.244	7409.97
486.615	7558.45
486.985	7747.59
487.356	7933.8
487.726	8017.19
488.097	8179.22
488.467	8282.95
488.837	8524.75
489.207	8618.53
489.578	8876.15
489.948	9016.94
490.318	9222.58
490.688	9274.11
491.058	9528.56
491.428	9657.83
491.798	9839.52
492.168	10082.9
492.538	10228.66
492.908	10394.53
493.278	10543.68
493.648	10707.29
494.017	10941.63
494.387	11169.88
494.757	11284.22
495.126	11496.19
495.496	11575.74
495.866	11816.19
496.235	12043.07
496.605	12246.68
496.974	12429.05
497.344	12654.13
497.713	12718.08
498.082	12957.4
498.452	13227
498.821	13433.09
499.19	13582.92
499.559	13856.81
499.928	14107.2
500.298	14262
500.667	14461.09
501.036	14568.66
501.405	14824.69
501.774	14944.69
502.143	15169.54
502.512	15426.26
502.88	15706.48
503.249	15882.07
503.618	16089.52
503.987	16280.7
504.356	16452.9
504.724	16778.54
505.093	16828.48
505.462	17075.26
505.83	17322.48
506.199	17530.39
506.567	17844.73
506.936	17884.28
507.304	18241.33
507.672	18439.52
508.041	18517.25
508.409	18783.46
508.777	18986.62
509.145	19150.68
509.514	19270
509.882	19505.93
510.25	19554.97
510.618	19854.39
510.986	20086.48
511.354	20226.13
511.722	20378.45
512.09	20675.39
512.458	20578.89
512.826	20888.26
513.193	21043.51
513.561	21184.98
513.929	21314.47
514.297	21534.35
514.664	21647.57
515.032	21782.93
515.4	22035.58
515.767	22093.88
516.135	22158.74
516.502	22083.71
516.869	22475.12
517.237	22635.11
517.604	22498.62
517.972	22887.53
518.339	23017.02
518.706	23090.01
519.073	23121.43
519.44	23229.22
519.808	23499.72
520.175	23573.62
520.542	23794.4
520.909	23840.73
521.276	23892.03
521.643	24147.61
522.009	24242.98
522.376	24359.13
522.743	24475.51
523.11	24584.44
523.477	24922.28
523.843	24822.62
524.21	25136.74
524.577	25223.07
524.943	25330.18
525.31	25390.07
525.676	25614.24
526.043	25655.14
526.409	25734.01
526.776	25969.26
527.142	25971.52
527.508	26007.23
527.874	26211.06
528.241	26226.43
528.607	26287.44
528.973	26589.81
529.339	26472.3
529.705	26616.02
530.071	26813.76
530.437	26821.67
530.803	26880.42
531.169	27055.79
531.535	26858.5
531.901	26946.18
532.267	27052.4
532.632	27016.01
532.998	27101.66
533.364	27171.49
533.73	27188.66
534.095	27248.1
534.461	27174.88
534.826	27269.11
535.192	27154.09
535.557	27437.24
535.923	27286.97
536.288	27281.54
536.653	27382.78
537.019	27269.79
537.384	27258.04
537.749	27237.7
538.114	27323.8
538.479	27282.9
538.845	27222.79
539.21	27136.24
539.575	27072.06
539.94	27129
540.305	27228.89
540.67	27145.27
541.034	27117.03
541.399	27020.08
541.764	27034.32
542.129	27062.79
542.494	27069.34
542.858	26947.09
543.223	26841.78
543.587	26923.36
543.952	26862.34
544.316	26901.44
544.681	26809.46
545.045	26802.01
545.41	26849.01
545.774	26689.02
546.138	26646.76
546.503	26604.05
546.867	26671.84
547.231	26654.21
547.595	26539.64
547.959	26611.05
548.324	26562.01
548.688	26544.39
549.052	26469.59
549.416	26232.98
549.779	26277.5
550.143	26353.21
550.507	26258.29
550.871	26278.18
551.235	26280.44
551.599	26312.08
551.962	26145.53
552.326	26249.25
552.689	26179.2
553.053	26015.36
553.417	26123.61
553.78	26198.86
554.143	26096.26
554.507	26113.66
554.87	26158.41
555.234	26256.26
555.597	26009.94
555.96	25960.22
556.323	26056.26
556.686	26070.05
557.05	26054.46
557.413	26084.29
557.776	26045.64
558.139	26228.24
558.502	26120.9
558.865	26072.31
559.228	26188.24
559.59	26218.97
559.953	26054.68
560.316	26435.92
560.679	26218.07
561.041	26351.4
561.404	26361.79
561.767	26560.43
562.129	26336.03
562.492	26551.17
562.854	26409.02
563.217	26371.74
563.579	26472.75
563.941	26587.55
564.304	26618.74
564.666	26815.11
565.028	26747.09
565.39	26703.03
565.753	26843.14
566.115	26861.89
566.477	26874.77
566.839	26936.69
567.201	27154.31
567.563	27108.89
567.925	27313.63
568.287	27291.03
568.648	27259.85
569.01	27357.25
569.372	27548.2
569.734	27543
570.095	27674.3
570.457	27718.59
570.819	27692.38
571.18	27739.38
571.542	27882.88
571.903	27888.98
572.265	28006.72
572.626	28022.54
572.987	28123.1
573.349	27966.95
573.71	28126.72
574.071	28168.3
574.432	28337.33
574.794	28519.48
575.155	28334.62
575.516	28257.79
575.877	28370.33
576.238	28316.32
576.599	28434.96
576.96	28500.72
577.32	28541.17
577.681	28485.35
578.042	28653.48
578.403	28522.64
578.763	28538.23
579.124	28510.44
579.485	28710.88
579.845	28562.41
580.206	28545.92
580.566	28638.34
580.927	28604.9
581.287	28715.63
581.648	28593.37
582.008	28778
582.368	28574.39
582.728	28591.79
583.089	28621.17
583.449	28604.9
583.809	28525.35
584.169	28536.42
584.529	28552.02
584.889	28532.81
585.249	28430.21
585.609	28369.65
585.969	28492.36
586.329	28367.16
586.688	28514.05
587.048	28358.8
587.408	28386.37
587.768	28313.61
588.127	28347.96
588.487	28293.72
588.846	28538.46
589.206	28102.54
589.565	28087.62
589.925	28307.5
590.284	28205.13
590.643	28135.08
591.003	28046.72
591.362	28231.35
591.721	28173.27
592.08	28002.2
592.44	28271.35
592.799	28097.11
593.158	28127.17
593.517	27962.88
593.876	28034.74
594.235	27925.37
594.593	28010.34
594.952	27998.59
595.311	27864.35
595.67	28059.6
596.029	28018.7
596.387	28102.76
596.746	27978.25
597.104	27844.24
597.463	27887.63
597.822	27952.26
598.18	27871.81
598.538	27804.01
598.897	28014.63
599.255	27701.42
599.613	28060.51
599.972	27913.16
600.33	28046.49
600.688	27921.3
601.046	27908.19
601.404	28111.58
601.762	28077.91
602.12	28070.9
602.478	28074.29
602.836	28135.31
603.194	27903.45
603.552	28042.65
603.91	27974.18
604.268	28037.45
604.625	27949.55
604.983	28123.55
605.341	28020.51
605.698	28130.11
606.056	28256.43
606.413	28060.28
606.771	28265.92
607.128	28277.22
607.485	28156.32
607.843	28222.76
608.2	28191.58
608.557	28372.14
608.914	28277.22
609.272	28455.75
609.629	28561.28
609.986	28726.02
610.343	28622.75
610.7	28761.28
611.057	28692.35
611.414	28708.85
611.771	28781.84
612.127	28722.63
612.484	28774.38
612.841	28803.08
613.198	28733.03
613.554	28633.6
613.911	28923.99
614.267	28995.85
614.624	28943.65
614.98	28905.45
615.337	29126.69
615.693	29055.73
616.05	28956.3
616.406	29162.4
616.762	29170.08
617.118	29151.1
617.475	29211.66
617.831	29219.12
618.187	29326.01
618.543	29297.08
618.899	29505.89
619.255	29513.12
619.611	29514.03
619.967	29428.38
620.323	29584.76
620.678	29474.03
621.034	29568.04
621.39	29414.14
621.746	29522.16
622.101	29856.62
622.457	29562.61
622.812	29738.43
623.168	29692.1
623.523	29651.65
623.879	29862.49
624.234	29718.54
624.589	29894.81
624.945	29814.81
625.3	29741.14
625.655	29823.17
626.01	29813
626.365	29840.12
626.72	29722.38
627.075	29695.49
627.43	29748.82
627.785	29792.89
628.14	29745.88
628.495	29723.74
628.85	29855.94
629.205	29780.69
629.559	29806
629.914	29709.28
630.269	29631.09
630.623	29542.5
630.978	29492.11
631.332	29717.18
631.687	29678.09
632.041	29637.41
632.396	29592.89
632.75	29641.93
633.104	29645.77
633.459	29446.23
633.813	29336.18
634.167	29332.11
634.521	29472.67
634.875	29255.28
635.229	29295.5
635.583	29230.87
635.937	29199.91
636.291	29170.53
636.645	29148.84
636.999	29082.63
637.352	29163.98
637.706	28993.36
638.06	29120.59
638.413	29063.19
638.767	28940.93
639.121	28940.48
639.474	28923.99
639.828	29007.82
640.181	28928.05
640.534	28866.59
640.888	28720.37
641.241	28525.13
641.594	28600.15
641.947	28731.45
642.301	28690.09
642.654	28609.42
643.007	28541.62
643.36	28674.5
643.713	28611
644.066	28785.91
644.419	28336.2
644.771	28134.63
645.124	27889.21
645.477	27915.65
645.83	27917.91
646.182	27908.87
646.535	27924.69
646.888	27991.81
647.24	27820.74
647.593	28031.81
647.945	27821.87
648.298	27625.49
648.65	27624.58
649.002	27502.78
649.355	27355.89
649.707	27130.81
650.059	27185.73
650.411	27645.6
650.763	27767.86
651.115	28333.94
651.467	28280.61
651.819	28159.03
652.171	28176.21
652.523	28022.77
652.875	28015.08
653.227	27928.53
653.578	28259.82
653.93	28056.44
654.282	28009.66
654.633	27970.11
654.985	28145.25
655.337	28178.24
655.688	27979.83
656.039	28158.81
656.391	27900.74
656.742	28098.24
657.094	27976.44
657.445	28173.04
657.796	28033.39
658.147	28073.84
658.498	28057.34
658.849	28173.95
659.2	27980.73
659.551	27930.79
659.902	28134.4
660.253	27906.38
660.604	28177.11
660.955	28109.09
661.306	28120.16
661.656	28050.11
662.007	28152.71
662.358	28071.13
662.708	28096.21
663.059	28067.51
663.409	28022.54
663.76	28158.36
664.11	28215.76
664.461	28201.29
664.811	28116.55
665.161	28178.47
665.511	28112.93
665.862	28219.6
666.212	28233.83
666.562	28251.91
666.912	28312.48
667.262	28016.89
667.612	28087.62
667.962	28169.88
668.312	28071.58
668.662	28317.9
669.011	28309.76
669.361	28107.74
669.711	28220.5
670.06	28242.2
670.41	28128.53
670.76	28057.34
671.109	28255.75
671.459	28086.27
671.808	28027.74
672.157	28162.2
672.507	27971.92
672.856	27974.63
673.205	28032.03
673.554	28133.05
673.904	27983.67
674.253	28184.34
674.602	28055.99
674.951	27501.2
675.3	27438.15
675.649	27975.08
675.998	28030.9
676.346	27904.13
676.695	27933.05
677.044	27772.38
677.393	27673.17
677.741	27919.49
678.09	27820.29
678.438	27593.85
678.787	27769.21
679.135	27710.23
679.484	27549.78
679.832	27767.41
680.181	27569.9
680.529	27629.33
680.877	27414.87
681.225	27473.85
681.573	27606.96
681.922	27465.04
682.27	27489.22
682.618	27382.56
682.966	27399.51
683.314	27305.04
683.661	27286.97
684.009	27218.27
684.357	27132.39
684.705	27051.04
685.053	27072.73
685.4	26941.21
685.748	26901.89
686.095	26883.59
686.443	26691.5
686.79	26776.47
687.138	26772.86
687.485	26612.18
687.832	26600.66
688.18	26559.3
688.527	26486.99
688.874	26512.07
689.221	26272.98
689.568	26274.56
689.915	26140.78
690.262	26183.04
690.609	26057.62
690.956	26064.63
691.303	25955.7
691.65	25775.14
691.997	25741.24
692.344	25574.47
692.69	25552.77
693.037	25460.12
693.383	25294.7
693.73	25405.21
694.077	25281.37
694.423	25269.62
694.769	25081.37
695.116	25086.12
695.462	24885.67
695.808	24755.28
696.155	24924.99
696.501	24618.11
696.847	24733.59
697.193	24375.4
697.539	24447.49
697.885	24155.75
698.231	24122.3
698.577	24181.74
698.923	24054.96
699.269	23917.11
699.614	23775.87
699.96	23794.4
700.306	23844.8
700.651	23603.9
700.997	23553.73
701.342	23498.82
701.688	23327.07
702.033	23322.55
702.379	23331.14
702.724	23103.57
703.069	23267.41
703.415	22943.8
703.76	22896.35
704.105	22923.24
704.45	22914.65
704.795	22744.71
705.14	22782.45
705.485	22598.05
705.83	22475.34
706.175	22538.62
706.52	22431.5
706.865	22412.52
707.209	22294.1
707.554	22198.96
707.899	22235.8
708.243	22145.63
708.588	22103.6
708.932	22043.49
709.277	22058.86
709.621	21958.52
709.966	21749.03
710.31	21824.74
710.654	21651.86
710.998	21733.21
711.342	21765.98
711.687	21518.76
712.031	21548.13
712.375	21485.31
712.719	21507.46
713.063	21422.94
713.407	21559.66
713.75	21520.56
714.094	21478.08
714.438	21404.18
714.782	21291.19
715.125	21199.67
715.469	21434.46
715.812	21144.98
716.156	21149.27
716.499	21155.83
716.843	21189.5
717.186	21104.53
717.53	21233.11
717.873	21184.08
718.216	21186.56
718.559	21070.18
718.902	20916.51
719.246	20937.08
719.589	20932.56
719.932	20934.59
720.275	20954.93
720.617	20900.24
720.96	20825.44
721.303	20866.34
721.646	20829.73
721.989	20704.09
722.331	20715.16
722.674	20681.49
723.016	20794.48
723.359	20740.02
723.701	20651.89
724.044	20722.84
724.386	20615.73
724.729	20637.2
725.071	20635.39
725.413	20663.86
725.755	20633.36
726.097	20644.2
726.439	20552.23
726.782	20465
727.124	20668.61
727.465	20588.84
727.807	20588.16
728.149	20580.02
728.491	20556.07
728.833	20593.36
729.175	20632.23
729.516	20484.21
729.858	20533.02
730.199	20663.41
730.541	20607.82
730.882	20566.69
731.224	20683.07
731.565	20523.08
731.906	20592.45
732.248	20583.64
732.589	20617.54
732.93	20635.62
733.271	20582.28
733.612	20653.24
733.953	20687.82
734.294	20636.97
734.635	20577.09
734.976	20729.85
735.317	20681.26
735.658	20763.3
735.999	20653.24
736.339	20688.5
736.68	20760.36
737.021	20797.65
737.361	20741.38
737.702	20928.26
738.042	20924.87
738.383	20964.19
738.723	21086.23
739.063	20985.89
739.404	21174.13
739.744	21138.43
740.084	21199.44
740.424	21184.75
740.764	21184.98
741.104	21358.08
741.444	21309.5
741.784	21376.16
742.124	21570.73
742.464	21612.54
742.804	21534.35
743.143	21642.37
743.483	21718.52
743.823	21794.23
744.162	21853.66
744.502	22034.45
744.841	21977.28
745.181	22139.76
745.52	22238.74
745.86	22360.99
746.199	22399.19
746.538	22515.11
746.877	22826.74
747.216	22848.89
747.556	22996.68
747.895	23022.45
748.234	23217.02
748.573	23407.29
748.911	23397.8
749.25	23634.18
749.589	23834.18
749.928	23988.75
750.267	24152.13
750.605	24161.4
750.944	24479.58
751.283	24718.45
751.621	24861.49
751.96	25075.5
752.298	25136.97
752.636	25451.99
752.975	25714.58
753.313	25783.28
753.651	26246.99
753.989	26367.44
754.327	26517.95
754.666	26665.97
755.004	27025.5
