Data from 3278_FLMS001491_005.txt Node
Date: Thu Apr 19 15:16:13 BST 2018
User: hsy
Spectrometer: FLMS00149
Trigger mode: 0
Integration Time (sec): 1.000000E-2
Scans to average: 10
Electric dark correction enabled: true
Nonlinearity correction enabled: false
Boxcar width: 0
XAxis mode: Wavelengths
Number of Pixels in Spectrum: 2048
>>>>>Begin Spectral Data<<<<<
341.393	-17.09
341.776	-17.09
342.16	-17.09
342.543	-51.89
342.927	-48.05
343.31	-83.75
343.693	-67.48
344.077	-78.78
344.46	-62.74
344.843	-41.27
345.226	-38.56
345.61	-17.32
345.993	-13.7
346.376	1.21
346.759	10.03
347.142	36.02
347.525	35.11
347.908	45.73
348.291	78.05
348.674	85.51
349.057	111.95
349.44	133.19
349.823	147.65
350.206	169.8
350.588	228.1
350.971	249.34
351.354	256.8
351.737	264.03
352.119	272.62
352.502	284.6
352.884	314.2
353.267	313.07
353.65	341.09
354.032	336.35
354.414	341.09
354.797	353.75
355.179	350.81
355.562	360.53
355.944	375.44
356.326	375.44
356.709	382.22
357.091	388.32
357.473	378.38
357.855	390.81
358.238	402.33
358.62	391.26
359.002	396.23
359.384	395.78
359.766	385.61
360.148	388.78
360.53	377.02
360.912	377.93
361.294	392.16
361.676	362.56
362.057	369.57
362.439	393.97
362.821	373.18
363.203	403.01
363.584	362.79
363.966	390.36
364.348	376.35
364.729	386.06
365.111	377.7
365.493	386.52
365.874	388.32
366.256	378.61
366.637	374.99
367.019	377.48
367.4	379.06
367.781	356.23
368.163	371.15
368.544	383.35
368.925	362.11
369.306	384.93
369.688	382.9
370.069	377.7
370.45	378.38
370.831	387.65
371.212	391.03
371.593	393.97
371.974	391.71
372.355	374.09
372.736	392.62
373.117	396.46
373.498	386.74
373.879	377.93
374.26	382.67
374.641	370.47
375.021	363.47
375.402	400.3
375.783	410.7
376.163	420.41
376.544	404.82
376.925	420.86
377.305	397.59
377.686	421.32
378.066	431.94
378.447	422.67
378.827	398.27
379.208	417.7
379.588	401.43
379.968	412.28
380.349	435.55
380.729	440.75
381.109	421.54
381.489	429
381.87	444.59
382.25	413.18
382.63	451.6
383.01	445.5
383.39	445.04
383.77	432.39
384.15	434.65
384.53	450.92
384.91	453.63
385.29	438.49
385.67	469.22
386.049	471.48
386.429	501.77
386.809	482.33
387.189	461.77
387.568	465.16
387.948	495.21
388.328	464.93
388.707	497.7
389.087	509.22
389.466	501.31
389.846	496.79
390.225	509
390.605	507.19
390.984	500.64
391.363	515.1
391.743	523.91
392.122	514.42
392.501	536.34
392.881	531.37
393.26	553.06
393.639	530.24
394.018	560.07
394.397	562.78
394.776	547.19
395.155	547.64
395.534	576.79
395.913	586.51
396.292	565.49
396.671	573.85
397.05	582.89
397.429	578.37
397.808	592.61
398.186	598.71
398.565	586.28
398.944	607.3
399.323	600.75
399.701	604.81
400.08	615.89
400.458	608.88
400.837	619.96
401.215	643.23
401.594	632.84
401.972	650.92
402.351	640.97
402.729	630.12
403.107	641.42
403.486	657.24
403.864	662.44
404.242	664.25
404.62	694.76
404.999	683.91
405.377	691.82
405.755	701.99
406.133	695.21
406.511	727.52
406.889	711.03
407.267	727.3
407.645	739.95
408.023	745.6
408.401	749.67
408.779	754.64
409.156	767.52
409.534	772.95
409.912	788.09
410.29	793.74
410.667	807.97
411.045	825.15
411.422	827.41
411.8	828.76
412.178	841.19
412.555	859.72
412.933	877.58
413.31	881.42
413.687	859.95
414.065	897.01
414.442	878.93
414.819	918.25
415.197	925.03
415.574	915.99
415.951	947.4
416.328	934.75
416.705	958.7
417.082	949.21
417.46	943.79
417.837	977.23
418.214	983.34
418.591	988.31
418.967	980.85
419.344	997.8
419.721	1019.27
420.098	1005.93
420.475	1042.77
420.852	1047.74
421.228	1033.96
421.605	1063.33
421.982	1049.1
422.358	1101.75
422.735	1080.73
423.111	1088.19
423.488	1105.37
423.864	1098.59
424.241	1126.38
424.617	1120.96
424.994	1130.9
425.37	1138.36
425.746	1155.53
426.123	1160.51
426.499	1178.81
426.875	1205.02
427.251	1219.26
427.627	1231.92
428.003	1219.94
428.379	1261.97
428.756	1276.44
429.132	1301.97
429.507	1297.45
429.883	1310.78
430.259	1349.88
430.635	1368.41
431.011	1351.91
431.387	1390.78
431.763	1417.22
432.138	1403.44
432.514	1414.28
432.89	1463.1
433.265	1438.69
433.641	1487.96
434.016	1514.17
434.392	1521.4
434.767	1539.48
435.143	1540.84
435.518	1545.13
435.894	1578.35
436.269	1642.3
436.644	1628.06
437.02	1657.89
437.395	1654.73
437.77	1695.86
438.145	1681.17
438.52	1689.76
438.895	1717.78
439.271	1707.38
439.646	1769.08
440.021	1800.49
440.395	1770.66
440.77	1768.4
441.145	1796.2
441.52	1816.31
441.895	1819.02
442.27	1850.66
442.645	1860.15
443.019	1852.47
443.394	1840.71
443.769	1857.21
444.143	1865.57
444.518	1923.65
444.892	1913.25
445.267	1910.77
445.641	1944.89
446.016	1964.55
446.39	1937.21
446.764	1988.73
447.139	1998.22
447.513	2014.72
447.887	2054.72
448.262	2022.86
448.636	2066.7
449.01	2063.76
449.384	2077.32
449.758	2075.28
450.132	2149.41
450.506	2133.36
450.88	2154.38
451.254	2164.32
451.628	2187.82
452.002	2207.48
452.376	2233.92
452.75	2257.65
453.123	2287.26
453.497	2290.42
453.871	2304.88
454.244	2369.29
454.618	2431.66
454.992	2412.45
455.365	2437.53
455.739	2504.43
456.112	2532.22
456.486	2545.1
456.859	2589.62
457.232	2647.92
457.606	2669.85
457.979	2647.47
458.352	2732.22
458.725	2745.55
459.099	2777.64
459.472	2793.01
459.845	2873.68
460.218	2877.75
460.591	2948.03
460.964	2947.35
461.337	3002.94
461.71	3030.74
462.083	3090.17
462.456	3099.21
462.829	3118.65
463.201	3183.05
463.574	3188.02
463.947	3271.19
464.32	3277.96
464.692	3338.08
465.065	3349.15
465.438	3404.06
465.81	3451.07
466.183	3441.12
466.555	3540.78
466.928	3566.54
467.3	3594.79
467.672	3632.98
468.045	3684.96
468.417	3746.43
468.789	3764.73
469.161	3783.71
469.534	3819.87
469.906	3889.02
470.278	3925.18
470.65	4000.21
471.022	4060.99
471.394	4132.41
471.766	4144.16
472.138	4211.95
472.51	4342.8
472.882	4405.17
473.253	4389.12
473.625	4485.16
473.997	4566.97
474.369	4614.2
474.74	4650.36
475.112	4719.06
475.484	4817.36
475.855	4946.17
476.227	4966.96
476.598	5081.08
476.97	5155.66
477.341	5245.6
477.713	5330.11
478.084	5400.85
478.455	5611.01
478.827	5593.38
479.198	5744.57
479.569	5815.07
479.94	5983.2
480.311	6073.82
480.682	6148.62
481.053	6309.98
481.424	6422.74
481.795	6539.8
482.166	6561.04
482.537	6705.67
482.908	6892.56
483.279	7039
483.65	7135.26
484.021	7285.77
484.391	7395.6
484.762	7504.52
485.133	7678.07
485.503	7840.78
485.874	7979.31
486.244	8110.15
486.615	8281.9
486.985	8393.99
487.356	8595.56
487.726	8696.35
488.097	8921.43
488.467	8997.36
488.837	9227.64
489.207	9376.79
489.578	9675.99
489.948	9795.08
490.318	9952.82
490.688	10066.94
491.058	10358.68
491.428	10564.78
491.798	10650.65
492.168	10936.97
492.538	11068.95
492.908	11276.85
493.278	11394.36
493.648	11531.31
494.017	11790.96
494.387	12004.97
494.757	12170.84
495.126	12445.41
495.496	12593.88
495.866	12834.32
496.235	13027.76
496.605	13220.3
496.974	13336.68
497.344	13661.65
497.713	13916.1
498.082	14029.55
498.452	14299.37
498.821	14526.93
499.19	14613.71
499.559	14877.21
499.928	15103.42
500.298	15347.48
500.667	15492.56
501.036	15625.89
501.405	15978.65
501.774	16125.99
502.143	16398.3
502.512	16604.62
502.88	16858.62
503.249	17004.16
503.618	17260.42
503.987	17423.13
504.356	17606.4
504.724	17833.06
505.093	17981.53
505.462	18189.89
505.83	18293.39
506.199	18704.9
506.567	19043.88
506.936	19064.44
507.304	19453.13
507.672	19553.47
508.041	19647.93
508.409	19924.08
508.777	20118.43
509.145	20432.77
509.514	20475.48
509.882	20599.32
510.25	20849.93
510.618	21060.55
510.986	21152.3
511.354	21485.17
511.722	21731.26
512.09	21776.01
512.458	21860.75
512.826	22181.42
513.193	22248.99
513.561	22332.38
513.929	22506.61
514.297	22878.58
514.664	22928.3
515.032	23121.96
515.4	23347.72
515.767	23314.27
516.135	23461.84
516.502	23355.18
516.869	23762.85
517.237	23949.74
517.604	23767.82
517.972	24202.61
518.339	24254.59
518.706	24361.03
519.073	24511.53
519.44	24634.92
519.808	24890.05
520.175	24817.29
520.542	25116.49
520.909	25235.81
521.276	25327.33
521.643	25556.02
522.009	25612.52
522.376	25709.47
522.743	25880.08
523.11	26046.86
523.477	26218.38
523.843	26419.5
524.21	26512.61
524.577	26639.38
524.943	26732.94
525.31	26732.49
525.676	27067.17
526.043	27078.47
526.409	27203.89
526.776	27515.75
527.142	27506.71
527.508	27722.29
527.874	27747.6
528.241	27781.95
528.607	27941.04
528.973	28105.79
529.339	27999.8
529.705	28313.92
530.071	28334.71
530.437	28427.81
530.803	28626.9
531.169	28479.56
531.535	28607.47
531.901	28597.3
532.267	28717.07
532.632	28722.95
532.998	28787.58
533.364	28771.76
533.73	28850.85
534.095	28883.39
534.461	28986.67
534.826	29018.08
535.192	28944.86
535.557	28980.79
535.923	29131.75
536.288	29066.67
536.653	29117.29
537.019	28953.9
537.384	28962.26
537.749	29087
538.114	29042.94
538.479	28961.81
538.845	29028.02
539.21	28937.63
539.575	28972.88
539.94	28830.51
540.305	28974.69
540.67	28832.77
541.034	28913
541.399	28783.73
541.764	28856.5
542.129	28740.35
542.494	28774.02
542.858	28768.37
543.223	28636.85
543.587	28752.1
543.952	28639.78
544.316	28557.07
544.681	28569.05
545.045	28573.8
545.41	28648.15
545.774	28467.36
546.138	28460.13
546.503	28447.02
546.867	28357.76
547.231	28505.78
547.595	28449.51
547.959	28379.68
548.324	28229.17
548.688	28296.06
549.052	28316.63
549.416	28099.23
549.779	28143.53
550.143	28124.32
550.507	28336.06
550.871	28209.29
551.235	28199.34
551.599	28206.8
551.962	28152.11
552.326	28051.78
552.689	28089.06
553.053	27848.62
553.417	27971.78
553.78	28176.75
554.143	28012.46
554.507	28099.46
554.87	28048.16
555.234	28187.59
555.597	27980.37
555.96	27939.24
556.323	28021.72
556.686	27940.14
557.05	28113.24
557.413	27907.6
557.776	28036.41
558.139	27941.5
558.502	27997.77
558.865	27997.09
559.228	28125.22
559.59	28079.12
559.953	28099.68
560.316	28280.47
560.679	28253.35
561.041	28240.7
561.404	28352.56
561.767	28489.05
562.129	28256.06
562.492	28482.05
562.854	28443.63
563.217	28381.71
563.579	28524.08
563.941	28609.73
564.304	28710.52
564.666	28843.39
565.028	28850.17
565.39	28792.1
565.753	29018.3
566.115	28994.8
566.477	29069.6
566.839	29057.17
567.201	29281.57
567.563	29271.86
567.925	29333.32
568.287	29392.31
568.648	29334
569.01	29465.75
569.372	29728.12
569.734	29645.86
570.095	29809.7
570.457	29893.99
570.819	29942.8
571.18	29782.58
571.542	30108.9
571.903	29955
572.265	30116.81
572.626	30115.9
572.987	30072.74
573.349	30224.83
573.71	30416.23
574.071	30485.84
574.432	30436.12
574.794	30632.73
575.155	30513.63
575.516	30445.39
575.877	30567.64
576.238	30569.9
576.599	30692.16
576.96	30879.5
577.32	30714.98
577.681	30891.7
578.042	30956.78
578.403	30909.33
578.763	30743.91
579.124	30820.29
579.485	30999.95
579.845	31039.49
580.206	30804.25
580.566	30777.13
580.927	30772.61
581.287	30884.47
581.648	30822.78
582.008	30818.48
582.368	30848.54
582.728	30847.86
583.089	30938.93
583.449	30861.19
583.809	30840.63
584.169	30887.41
584.529	30665.72
584.889	30981.64
585.249	30605.61
585.609	30669.56
585.969	30772.83
586.329	30562.67
586.688	30717.7
587.048	30692.39
587.408	30538.49
587.768	30599.28
588.127	30435.89
588.487	30388.21
588.846	30691.71
589.206	30273.19
589.565	30294.2
589.925	30529.45
590.284	30400.64
590.643	30297.59
591.003	30330.59
591.362	30493.97
591.721	30361.09
592.08	30271.15
592.44	30458.94
592.799	30249.01
593.158	30397.03
593.517	30271.83
593.876	30298.72
594.235	30344.82
594.593	30187.31
594.952	30288.78
595.311	30196.35
595.67	30274.77
596.029	30274.09
596.387	30237.03
596.746	30381.21
597.104	30139.63
597.463	30130.14
597.822	30308.21
598.18	30095.79
598.538	30094.66
598.897	30333.07
599.255	30181.89
599.613	30460.3
599.972	30139.41
600.33	30184.15
600.688	30210.59
601.046	30206.75
601.404	30441.54
601.762	30200.65
602.12	30429.12
602.478	30450.58
602.836	30359.74
603.194	30133.08
603.552	30279.97
603.91	30308.44
604.268	30288.33
604.625	30304.82
604.983	30482.45
605.341	30303.47
605.698	30402.45
606.056	30641.76
606.413	30380.3
606.771	30538.26
607.128	30446.29
607.485	30409
607.843	30398.83
608.2	30449.68
608.557	30585.95
608.914	30559.06
609.272	30626.62
609.629	30838.37
609.986	31035.43
610.343	30724.02
610.7	30940.51
611.057	30986.16
611.414	30917.69
611.771	31001.76
612.127	31078.59
612.484	31016.44
612.841	31201.75
613.198	30967.86
613.554	30945.03
613.911	31211.47
614.267	31277.68
614.624	31135.99
614.98	31385.93
615.337	31471.35
615.693	31457.34
616.05	31515.19
616.406	31515.19
616.762	31456.88
617.118	31531.91
617.475	31456.88
617.831	31602.19
618.187	31513.83
618.543	31682.19
618.899	31862.07
619.255	31874.05
619.611	31769.64
619.967	31939.13
620.323	32043.08
620.678	31805.35
621.034	31732.81
621.39	31681.29
621.746	31772.36
622.101	32114.49
622.457	31736.65
622.812	32031.56
623.168	32038.56
623.523	32055.51
623.879	32079.02
624.234	31860.26
624.589	32095.29
624.945	31996.76
625.3	32049.19
625.655	32069.75
626.01	32002.18
626.365	32017.32
626.72	31935.29
627.075	31955.18
627.43	31983.42
627.785	32035.85
628.14	31956.98
628.495	31921.73
628.85	32035.85
629.205	31830.66
629.559	32055.97
629.914	31894.39
630.269	31977.1
630.623	31841.96
630.978	31760.38
631.332	32064.33
631.687	31780.27
632.041	31860.94
632.396	31746.82
632.75	31773.03
633.104	31780.72
633.459	31646.71
633.813	31714.28
634.167	31524.68
634.521	31659.37
634.875	31546.6
635.229	31477
635.583	31342.54
635.937	31371.24
636.291	31277.45
636.645	31363.1
636.999	31173.5
637.352	31324.23
637.706	31172.37
638.06	31357.23
638.413	31144.58
638.767	31105.26
639.121	31072.49
639.474	30860.74
639.828	30961.53
640.181	30986.84
640.534	31050.34
640.888	30843.12
641.241	30619.39
641.594	30759.28
641.947	30896.45
642.301	30861.42
642.654	30792.72
643.007	30730.58
643.36	30760.63
643.713	30711.37
644.066	30782.1
644.419	30498.27
644.771	30095.56
645.124	29856.02
645.477	29850.83
645.83	29808.57
646.182	29870.03
646.535	29885.4
646.888	29950.71
647.24	29841.33
647.593	30091.72
647.945	29797.27
648.298	29745.74
648.65	29622.13
649.002	29530.83
649.355	29242.48
649.707	29180.11
650.059	29090.85
650.411	29628.01
650.763	29778.96
651.115	30244.49
651.467	30087.66
651.819	30084.04
652.171	30169.23
652.523	30064.38
652.875	30115.23
653.227	30016.02
653.578	30136.92
653.93	30111.16
654.282	29978.51
654.633	29908.45
654.985	29959.97
655.337	30024.61
655.688	30015.57
656.039	30112.29
656.391	29701.22
656.742	29931.05
657.094	29994.32
657.445	30017.6
657.796	30076.13
658.147	29899.19
658.498	30015.79
658.849	30213.08
659.2	30039.29
659.551	29949.35
659.902	30161.55
660.253	30012.4
660.604	30092.63
660.955	29816.02
661.306	30135.34
661.656	30126.07
662.007	30073.64
662.358	30142.57
662.708	30116.36
663.059	30187.09
663.409	29919.07
663.76	30185.73
664.11	30063.93
664.461	30103.02
664.811	30191.61
665.161	30163.59
665.511	30136.92
665.862	30157.03
666.212	30282.45
666.562	30210.59
666.912	30162.68
667.262	30161.78
667.612	30030.71
667.962	30129.46
668.312	30091.72
668.662	30353.18
669.011	30174.88
669.361	29953.42
669.711	30146.41
670.06	30049.69
670.41	29959.07
670.76	29931.28
671.109	30193.64
671.459	30046.75
671.808	30034.1
672.157	30083.14
672.507	29833.2
672.856	29888.56
673.205	30016.7
673.554	30003.82
673.904	29888.34
674.253	30171.72
674.602	29936.47
674.951	29519.08
675.3	29310.73
675.649	29965.85
675.998	29891.95
676.346	29951.84
676.695	29876.81
677.044	29771.28
677.393	29777.38
677.741	29828.68
678.09	29770.15
678.438	29677.27
678.787	29792.3
679.135	29656.03
679.484	29506.2
679.832	29570.38
680.181	29493.09
680.529	29592.75
680.877	29413.77
681.225	29336.26
681.573	29599.31
681.922	29434.11
682.27	29310.73
682.618	29311.63
682.966	29149.83
683.314	29134.01
683.661	29091.98
684.009	28992.77
684.357	28872.77
684.705	28848.37
685.053	28795.03
685.4	28897.86
685.748	28704.87
686.095	28686.79
686.443	28497.87
686.79	28602.27
687.138	28669.61
687.485	28516.17
687.832	28329.74
688.18	28367.25
688.527	28227.14
688.874	28156.86
689.221	28216.74
689.568	27850.43
689.915	27926.58
690.262	27956.86
690.609	27920.03
690.956	27645.69
691.303	27591
691.65	27573.15
691.997	27535.41
692.344	27357.33
692.69	27218.8
693.037	27162.76
693.383	26957.57
693.73	27071.92
694.077	26746.73
694.423	26781.08
694.769	26728.2
695.116	26698.14
695.462	26522.55
695.808	26490.91
696.155	26506.96
696.501	26161.66
696.847	26198.49
697.193	25965.96
697.539	26062.22
697.885	25876.24
698.231	25839.18
698.577	25782.46
698.923	25685.29
699.269	25470.6
699.614	25438.74
699.96	25337.05
700.306	25337.05
700.651	25250.49
700.997	24986.09
701.342	25051.4
701.688	24947.23
702.033	24780
702.379	24760.56
702.724	24637.63
703.069	24660.91
703.415	24451.65
703.76	24391.08
704.105	24426.11
704.45	24267.7
704.795	24213.01
705.14	24091.88
705.485	24114.03
705.83	24005.78
706.175	24064.31
706.52	24019.79
706.865	23849.85
707.209	23725.56
707.554	23717.43
707.899	23755.39
708.243	23586.36
708.588	23617.09
708.932	23403.54
709.277	23360.15
709.621	23358.34
709.966	23212.58
710.31	23204.22
710.654	23112.25
710.998	23145.24
711.342	23065.24
711.687	22960.38
712.031	22882.87
712.375	22854.4
712.719	22825.25
713.063	22778.02
713.407	22933.72
713.75	22816.43
714.094	22743.44
714.438	22575.99
714.782	22622.77
715.125	22552.03
715.469	22675.87
715.812	22521.3
716.156	22478.36
716.499	22429.78
716.843	22571.24
717.186	22345.71
717.53	22510.68
717.873	22526.72
718.216	22485.37
718.559	22417.35
718.902	22196.56
719.246	22159.28
719.589	22223.68
719.932	22102.1
720.275	22234.3
720.617	22136.68
720.96	22145.94
721.303	22229.56
721.646	22196.56
721.989	22111.59
722.331	22107.07
722.674	21958.38
723.016	21993.4
723.359	21968.77
723.701	22085.61
724.044	21931.26
724.386	21880.64
724.729	21876.57
725.071	21953.18
725.413	21972.84
725.755	21840.19
726.097	21797.93
726.439	21792.51
726.782	21807.42
727.124	21959.28
727.465	21817.14
727.807	21738.95
728.149	21871.6
728.491	21740.3
728.833	21912.28
729.175	21830.47
729.516	21751.15
729.858	21732.62
730.199	21789.12
730.541	21874.31
730.882	21801.77
731.224	21922.22
731.565	21811.49
731.906	21833.41
732.248	21868.44
732.589	21790.25
732.93	21875.89
733.271	21778.04
733.612	21909.11
733.953	21987.98
734.294	21885.61
734.635	21878.15
734.976	21963.35
735.317	21940.3
735.658	21889.45
735.999	21849.68
736.339	21903.24
736.68	22033.18
737.021	21985.72
737.361	21938.04
737.702	22179.39
738.042	22126.06
738.383	22186.39
738.723	22256.22
739.063	22103.23
739.404	22345.49
739.744	22390.23
740.084	22276.79
740.424	22553.84
740.764	22456.22
741.104	22534.86
741.444	22541.19
741.784	22588.64
742.124	22680.17
742.464	22708.64
742.804	22740.05
743.143	22861.63
743.483	22957.67
743.823	22926.26
744.162	22999.03
744.502	23253.48
744.841	23210.55
745.181	23456.19
745.52	23445.34
745.86	23612.12
746.199	23760.14
746.538	23744.55
746.877	23983.41
747.216	23978.21
747.556	24185.44
747.895	24315.15
748.234	24421.36
748.573	24470.63
748.911	24668.59
749.25	24922.14
749.589	25067
749.928	25241.91
750.267	25358.74
750.605	25494.1
750.944	25713.98
751.283	25872.62
751.621	26153.3
751.96	26155.78
752.298	26528.88
752.636	26819.27
752.975	26869.43
753.313	27070.11
753.651	27503.99
753.989	27530.89
754.327	27760.71
