Data from 3278_FLMS001491_009.txt Node
Date: Thu Apr 19 15:16:26 BST 2018
User: hsy
Spectrometer: FLMS00149
Trigger mode: 0
Integration Time (sec): 1.000000E-2
Scans to average: 10
Electric dark correction enabled: true
Nonlinearity correction enabled: false
Boxcar width: 0
XAxis mode: Wavelengths
Number of Pixels in Spectrum: 2048
>>>>>Begin Spectral Data<<<<<
341.393	-18.47
341.776	-18.47
342.16	-18.47
342.543	-62.77
342.927	-62.54
343.31	-73.16
343.693	-68.42
344.077	-61.18
344.46	-65.48
344.843	-66.61
345.226	-45.37
345.61	-45.14
345.993	-20.06
346.376	-0.4
346.759	21.52
347.142	38.47
347.525	46.61
347.908	61.75
348.291	89.77
348.674	71.47
349.057	116.21
349.44	117.12
349.823	144.01
350.206	176.78
350.588	239.6
350.971	255.19
351.354	259.71
351.737	292.03
352.119	298.35
352.502	293.16
352.884	317.11
353.267	305.81
353.65	326.6
354.032	357.79
354.414	351.46
354.797	346.71
355.179	362.08
355.562	363.89
355.944	352.36
356.326	384.91
356.709	379.26
357.091	369.99
357.473	376.09
357.855	380.16
358.238	382.42
358.62	392.14
359.002	394.85
359.384	384
359.766	395.98
360.148	415.19
360.53	391.46
360.912	379.93
361.294	364.79
361.676	379.71
362.057	363.66
362.439	363.21
362.821	381.29
363.203	386.49
363.584	383.32
363.966	379.71
364.348	365.24
364.729	390.1
365.111	363.21
365.493	354.17
365.874	382.42
366.256	376.32
366.637	351.23
367.019	381.52
367.4	371.57
367.781	384.23
368.163	363.44
368.544	386.26
368.925	362.53
369.306	370.67
369.688	382.87
370.069	376.32
370.45	339.71
370.831	372.93
371.212	392.81
371.593	366.6
371.974	380.61
372.355	367.05
372.736	381.74
373.117	388.52
373.498	370.22
373.879	382.42
374.26	379.93
374.641	373.61
375.021	379.71
375.402	398.92
375.783	391.46
376.163	389.88
376.544	400.72
376.925	384.68
377.305	398.46
377.686	379.03
378.066	396.88
378.447	407.73
378.827	380.61
379.208	393.49
379.588	394.17
379.968	403.21
380.349	435.53
380.729	431.46
381.109	434.85
381.489	435.3
381.87	414.73
382.25	413.6
382.63	435.07
383.01	444.34
383.39	433.27
383.77	420.61
384.15	447.05
384.53	430.33
384.91	462.19
385.29	449.99
385.67	444.11
386.049	459.93
386.429	451.34
386.809	444.34
387.189	457.9
387.568	453.83
387.948	457.22
388.328	463.1
388.707	480.27
389.087	468.29
389.466	499.25
389.846	481.85
390.225	488.86
390.605	470.78
390.984	509.42
391.363	501.29
391.743	496.31
392.122	504.68
392.501	504.68
392.881	517.11
393.26	527.27
393.639	529.76
394.018	525.69
394.397	522.3
394.776	522.75
395.155	539.25
395.534	545.13
395.913	542.87
396.292	554.17
396.671	535.64
397.05	539.25
397.429	565.01
397.808	561.17
398.186	546.93
398.565	565.92
398.944	565.69
399.323	569.76
399.701	600.27
400.08	593.49
400.458	576.31
400.837	579.02
401.215	611.34
401.594	586.03
401.972	593.94
402.351	597.78
402.729	600.49
403.107	608.85
403.486	624.45
403.864	632.36
404.242	629.64
404.62	637.1
404.999	661.51
405.377	638.01
405.755	659.25
406.133	674.84
406.511	667.84
406.889	682.75
407.267	689.98
407.645	694.73
408.023	689.98
408.401	713.26
408.779	708.29
409.156	737.44
409.534	706.93
409.912	726.37
410.29	720.26
410.667	742.86
411.045	764.56
411.422	764.56
411.8	759.13
412.178	779.25
412.555	807.04
412.933	796.65
413.31	829.41
413.687	823.99
414.065	825.12
414.442	831.67
414.819	837.77
415.197	830.09
415.574	855.18
415.951	834.38
416.328	864.89
416.705	863.76
417.082	873.48
417.46	872.12
417.837	900.15
418.214	906.02
418.591	894.72
418.967	923.42
419.344	902.18
419.721	906.93
420.098	930.43
420.475	921.16
420.852	932.24
421.228	955.74
421.605	926.36
421.982	957.32
422.358	973.36
422.735	982.4
423.111	998
423.488	1010.88
423.864	1006.81
424.241	1014.27
424.617	1032.12
424.994	1066.02
425.37	1063.08
425.746	1074.6
426.123	1054.94
426.499	1078.67
426.875	1113.93
427.251	1122.29
427.627	1119.12
428.003	1117.99
428.379	1131.33
428.756	1157.31
429.132	1153.7
429.507	1189.4
429.883	1195.96
430.259	1231.66
430.635	1224.66
431.011	1245
431.387	1239.57
431.763	1264.43
432.138	1266.69
432.514	1306.91
432.89	1308.72
433.265	1326.8
433.641	1329.97
434.016	1335.39
434.392	1320.25
434.767	1392.11
435.143	1401.83
435.518	1412.67
435.894	1423.75
436.269	1452.45
436.644	1439.34
437.02	1447.7
437.395	1471.88
437.77	1518.66
438.145	1516.4
438.52	1541.71
438.895	1574.03
439.271	1525.89
439.646	1590.52
440.021	1602.95
440.395	1610.64
440.77	1582.16
441.145	1606.12
441.52	1622.84
441.895	1641.37
442.27	1656.74
442.645	1624.87
443.019	1680.46
443.394	1687.92
443.769	1679.56
444.143	1697.41
444.518	1748.03
444.892	1714.59
445.267	1748.03
445.641	1755.72
446.016	1750.52
446.39	1793.68
446.764	1782.61
447.139	1748.71
447.513	1783.29
447.887	1796.85
448.262	1823.96
448.636	1825.09
449.01	1874.36
449.384	1864.19
449.758	1869.61
450.132	1908.03
450.506	1895.37
450.88	1931.76
451.254	1948.48
451.628	1977.18
452.002	1986.22
452.376	2014.92
452.75	2018.76
453.123	2063.28
453.497	2058.53
453.871	2082.04
454.244	2149.15
454.618	2167.91
454.992	2179.43
455.365	2182.37
455.739	2214.01
456.112	2251.75
456.486	2271.18
456.859	2293.78
457.232	2355.7
457.606	2348.24
457.979	2391.86
458.352	2414.46
458.725	2453.1
459.099	2483.16
459.472	2470.95
459.845	2543.49
460.218	2559.54
460.591	2540.78
460.964	2570.61
461.337	2608.35
461.71	2699.65
462.083	2732.41
462.456	2758.63
462.829	2811.51
463.201	2849.25
463.574	2818.97
463.947	2873.88
464.32	2908.23
464.692	2935.57
465.065	2960.88
465.438	2962.46
465.81	3054.89
466.183	3084.5
466.555	3165.4
466.928	3165.4
467.3	3186.19
467.672	3212.4
468.045	3267.99
468.417	3282.46
468.789	3285.39
469.161	3339.4
469.534	3387.76
469.906	3448.55
470.278	3503.47
470.65	3524.03
471.022	3603.58
471.394	3641.99
471.766	3653.29
472.138	3716.79
472.51	3823.68
472.882	3850.58
473.253	3888.32
473.625	3923.8
473.997	4017.8
474.369	4060.97
474.74	4104.13
475.112	4191.13
475.484	4246.05
475.855	4326.04
476.227	4392.94
476.598	4523.1
476.97	4588.41
477.341	4613.04
477.713	4724.23
478.084	4763.1
478.455	4905.46
478.827	4967.61
479.198	5065.01
479.569	5113.59
479.94	5296.87
480.311	5342.74
480.682	5445.56
481.053	5536.63
481.424	5676.74
481.795	5781.15
482.166	5840.13
482.537	5914.25
482.908	6071.99
483.279	6127.35
483.65	6305.88
484.021	6458.87
484.391	6531.86
484.762	6607.57
485.133	6756.49
485.503	6883.27
485.874	6989.48
486.244	7177.72
486.615	7301.33
486.985	7433.53
487.356	7588.33
487.726	7664.04
488.097	7897.7
488.467	8040.07
488.837	8223.57
489.207	8318.48
489.578	8527.52
489.948	8648.42
490.318	8833.72
490.688	8872.59
491.058	9145.58
491.428	9274.84
491.798	9361.17
492.168	9699.01
492.538	9765
492.908	10035.95
493.278	10217.64
493.648	10326.56
494.017	10602.04
494.387	10741.24
494.757	10809.49
495.126	11052.87
495.496	11201.57
495.866	11412.64
496.235	11590.49
496.605	11804.94
496.974	12029.34
497.344	12253.97
497.713	12405.61
498.082	12592.49
498.452	12794.97
498.821	12977.34
499.19	13171.01
499.559	13368.97
499.928	13596.76
500.298	13759.69
500.667	14014.6
501.036	14103.87
501.405	14380.24
501.774	14440.35
502.143	14749.5
502.512	14948.82
502.88	15197.85
503.249	15333.44
503.618	15604.17
503.987	15782.69
504.356	16068.33
504.724	16238.05
505.093	16356.69
505.462	16466.29
505.83	16744.7
506.199	16936.79
506.567	17232.82
506.936	17398.7
507.304	17685.24
507.672	17828.06
508.041	17978.79
508.409	18209.3
508.777	18448.38
509.145	18734.71
509.514	18704.42
509.882	18971.99
510.25	19091.08
510.618	19344.41
510.986	19444.74
511.354	19570.39
511.722	19880.89
512.09	20128.11
512.458	20032.3
512.826	20277.49
513.193	20449.46
513.561	20603.81
513.929	20711.6
514.297	20925.16
514.664	21022.55
515.032	21152.72
515.4	21408.99
515.767	21461.41
516.135	21598.58
516.502	21498.25
516.869	21959.25
517.237	22086.71
517.604	21861.18
517.972	22250.32
518.339	22350.66
518.706	22465.23
519.073	22519.01
519.44	22560.37
519.808	22818.21
520.175	22948.38
520.542	23137.3
520.909	23227.02
521.276	23218.66
521.643	23511.75
522.009	23561.47
522.376	23733.67
522.743	23772.54
523.11	23981.57
523.477	24149.48
523.843	24205.75
524.21	24439.19
524.577	24488.9
524.943	24615.91
525.31	24677.6
525.676	24919.4
526.043	24989
526.409	25012.05
526.776	25231.03
527.142	25220.64
527.508	25275.55
527.874	25417.47
528.241	25415.66
528.607	25537.01
528.973	25733.17
529.339	25610
529.705	25862.88
530.071	26010.45
530.437	25983.55
530.803	26098.13
531.169	26212.7
531.535	26058.81
531.901	26190.1
532.267	26265.13
532.632	26367.05
532.998	26422.86
533.364	26416.09
533.73	26391.23
534.095	26586.93
534.461	26482.3
534.826	26438.68
535.192	26468.06
535.557	26698.34
535.923	26635.29
536.288	26591
536.653	26622.18
537.019	26558.91
537.384	26599.36
537.749	26492.69
538.114	26538.57
538.479	26469.87
538.845	26429.64
539.21	26248.41
539.575	26407.5
539.94	26346.03
540.305	26549.19
540.67	26291.57
541.034	26327.27
541.399	26192.59
541.764	26234.85
542.129	26263.55
542.494	26278.24
542.858	26135.64
543.223	26033.95
543.587	26094.06
543.952	25990.56
544.316	26071.46
544.681	25857.91
545.045	26021.29
545.41	25995.76
545.774	25864.69
546.138	25823.78
546.503	25721.87
546.867	25683
547.231	25790.34
547.595	25684.58
547.959	25727.52
548.324	25673.05
548.688	25623.34
549.052	25593.06
549.416	25550.35
549.779	25526.16
550.143	25345.15
550.507	25605.26
550.871	25504.92
551.235	25389.9
551.599	25500.4
551.962	25377.69
552.326	25378.15
552.689	25419.05
553.053	25280.52
553.417	25278.94
553.78	25411.14
554.143	25384.02
554.507	25295.89
554.87	25274.65
555.234	25392.16
555.597	25163.69
555.96	25301.99
556.323	25208.89
556.686	25143.35
557.05	25252.27
557.413	25228.32
557.776	25200.98
558.139	25301.54
558.502	25297.92
558.865	25220.86
559.228	25342.44
559.59	25356.45
559.953	25364.36
560.316	25503.34
560.679	25357.36
561.041	25437.81
561.404	25520.74
561.767	25620.17
562.129	25454.08
562.492	25561.87
562.854	25582.43
563.217	25516.45
563.579	25541.08
563.941	25664.92
564.304	25766.16
564.666	25812.49
565.028	25826.95
565.39	25884.35
565.753	25983.1
566.115	26023.55
566.477	26025.36
566.839	26128.86
567.201	26262.42
567.563	26204.11
567.925	26356.88
568.287	26268.97
568.648	26387.84
569.01	26473.94
569.372	26671.45
569.734	26595.97
570.095	26748.96
570.457	26820.37
570.819	26797.09
571.18	26785.11
571.542	27125.44
571.903	26909.63
572.265	26857.66
572.626	27094.03
572.987	26993.25
573.349	27101.26
573.71	27169.06
574.071	27233.92
574.432	27326.12
574.794	27413.57
575.155	27347.13
575.516	27406.79
575.877	27473.68
576.238	27382.84
576.599	27434.82
576.96	27531.31
577.32	27546.9
577.681	27599.78
578.042	27623.74
578.403	27672.55
578.763	27524.08
579.124	27571.99
579.485	27767.24
579.845	27730.63
580.206	27703.73
580.566	27637.3
580.927	27720.68
581.287	27723.4
581.648	27596.39
582.008	27596.17
582.368	27651.76
582.728	27559.33
583.089	27642.27
583.449	27461.93
583.809	27623.96
584.169	27613.12
584.529	27449.96
584.889	27648.14
585.249	27488.37
585.609	27277.31
585.969	27471.88
586.329	27432.33
586.688	27494.47
587.048	27263.07
587.408	27292.45
587.768	27281.37
588.127	27273.92
588.487	27244.09
588.846	27279.57
589.206	27108.04
589.565	27267.14
589.925	27273.01
590.284	27158.21
590.643	27125.9
591.003	27066.69
591.362	27249.28
591.721	27217.65
592.08	27102.62
592.44	27226.01
592.799	27073.69
593.158	27015.62
593.517	26930.2
593.876	26936.98
594.235	27013.81
594.593	26885.68
594.952	26951.89
595.311	26898.78
595.67	27013.58
596.029	26930.2
596.387	27025.11
596.746	27161.15
597.104	26976.75
597.463	26716.87
597.822	26995.05
598.18	26945.56
598.538	26954.38
598.897	27025.79
599.255	26811.1
599.613	27131.77
599.972	26939.46
600.33	27134.71
600.688	26948.95
601.046	26925.9
601.404	27181.26
601.762	27001.83
602.12	27126.35
602.478	27108.04
602.836	27128.16
603.194	26809.75
603.552	27023.75
603.91	26967.71
604.268	27126.12
604.625	27052.45
604.983	27210.41
605.341	26949.63
605.698	27103.52
606.056	27214.48
606.413	27197.99
606.771	27208.15
607.128	27317.3
607.485	27168.61
607.843	27157.08
608.2	27391.65
608.557	27405.89
608.914	27384.87
609.272	27432.78
609.629	27503.29
609.986	27574.92
610.343	27486.11
610.7	27673.91
611.057	27509.39
611.414	27674.36
611.771	27712.1
612.127	27722.49
612.484	27619.22
612.841	27763.17
613.198	27716.39
613.554	27554.81
613.911	27934.92
614.267	27945.54
614.624	27753
614.98	27958.19
615.337	28113.44
615.693	28080
616.05	28012.43
616.406	28095.81
616.762	28018.08
617.118	28130.16
617.475	28150.28
617.831	28333.32
618.187	28158.19
618.543	28299.88
618.899	28413.09
619.255	28311.63
619.611	28283.61
619.967	28581
620.323	28458.74
620.678	28370.16
621.034	28394.34
621.39	28341.46
621.746	28470.95
622.101	28708.68
622.457	28519.98
622.812	28579.19
623.168	28539.42
623.523	28569.7
623.879	28634.11
624.234	28510.27
624.589	28584.39
624.945	28519.53
625.3	28601.34
625.655	28581.45
626.01	28695.57
626.365	28642.69
626.72	28449.93
627.075	28530.38
627.43	28525.63
627.785	28569.25
628.14	28619.87
628.495	28686.31
628.85	28630.04
629.205	28479.76
629.559	28667.1
629.914	28553.43
630.269	28592.98
630.623	28399.76
630.978	28445.86
631.332	28488.12
631.687	28520.89
632.041	28439.08
632.396	28440.44
632.75	28396.15
633.104	28492.87
633.459	28243.83
633.813	28283.15
634.167	28268.24
634.521	28209.26
634.875	28112.31
635.229	28231.86
635.583	28084.97
635.937	27897.85
636.291	28007.46
636.645	28056.27
636.999	27810.62
637.352	28114.12
637.706	27849.27
638.06	28008.81
638.413	27875.48
638.767	27827.35
639.121	27872.54
639.474	27822.38
639.828	27579.67
640.181	27786.9
640.534	27711.64
640.888	27606.34
641.241	27402.95
641.594	27472.55
641.947	27484.31
642.301	27386.46
642.654	27505.1
643.007	27433.46
643.36	27486.57
643.713	27375.61
644.066	27576.73
644.419	27322.28
644.771	26982.17
645.124	26745.34
645.477	26805.45
645.83	26723.87
646.182	26727.26
646.535	26729.3
646.888	26805.23
647.24	26630.32
647.593	26857.88
647.945	26718.45
648.298	26646.36
648.65	26482.3
649.002	26177.9
649.355	26195.3
649.707	26110.78
650.059	26097.45
650.411	26483.2
650.763	26743.76
651.115	27135.16
651.467	26969.74
651.819	26970.42
652.171	26923.19
652.523	26869.41
652.875	26908.28
653.227	26842.74
653.578	27055.16
653.93	26955.96
654.282	26740.14
654.633	26733.14
654.985	26790.31
655.337	26950.76
655.688	26942.4
656.039	26940.82
656.391	26652.24
656.742	26698.79
657.094	26725
657.445	26899.01
657.796	26861.95
658.147	26912.57
658.498	26925
658.849	26948.73
659.2	26748.73
659.551	26849.52
659.902	27076.18
660.253	26894.94
660.604	26976.07
660.955	26772.46
661.306	26998.44
661.656	26879.8
662.007	26891.78
662.358	26982.4
662.708	26980.59
663.059	26932.91
663.409	26713.7
663.76	26983.98
664.11	26964.32
664.461	27026.92
664.811	26979.23
665.161	26965
665.511	26951.89
665.862	27003.87
666.212	27088.61
666.562	27141.26
666.912	27001.38
667.262	26910.31
667.612	26974.49
667.962	27135.61
668.312	26858.33
668.662	27073.92
669.011	27092
669.361	26988.05
669.711	26924.77
670.06	26969.74
670.41	26955.05
670.76	26960.93
671.109	27051.1
671.459	26933.13
671.808	26945.34
672.157	26872.8
672.507	26902.4
672.856	26823.31
673.205	26805.91
673.554	26862.63
673.904	26859.46
674.253	26875.96
674.602	26745.57
674.951	26478
675.3	26242.3
675.649	26727.26
675.998	26859.24
676.346	26768.39
676.695	26775.85
677.044	26556.87
677.393	26653.14
677.741	26628.51
678.09	26630.09
678.438	26525.69
678.787	26616.98
679.135	26668.28
679.484	26374.5
679.832	26532.69
680.181	26472.81
680.529	26452.02
680.877	26409.53
681.225	26257.22
681.573	26555.06
681.922	26224.68
682.27	26333.15
682.618	26223.77
682.966	26036.21
683.314	26119.14
683.661	26000.73
684.009	25932.26
684.357	25842.99
684.705	25876.66
685.053	25956.66
685.4	25631.25
685.748	25665.6
686.095	25741.53
686.443	25601.64
686.79	25483.23
687.138	25587.18
687.485	25500.4
687.832	25303.35
688.18	25352.61
688.527	25183.12
688.874	25134.08
689.221	25111.49
689.568	24881.44
689.915	24996.69
690.262	24986.29
690.609	24869.23
690.956	24707.66
691.303	24746.07
691.65	24618.84
691.997	24551.05
692.344	24548.11
692.69	24340.89
693.037	24364.16
693.383	24182.25
693.73	24161.46
694.077	23994
694.423	23920.78
694.769	23882.82
695.116	23955.36
695.462	23780.9
695.808	23714.91
696.155	23758.75
696.501	23619.77
696.847	23494.13
697.193	23299.33
697.539	23269.28
697.885	23119.22
698.231	23113.35
698.577	23000.58
698.923	23058.43
699.269	22925.78
699.614	22808.5
699.96	22715.62
700.306	22707.03
700.651	22540.93
700.997	22561.72
701.342	22449.41
701.688	22321.5
702.033	22277.44
702.379	22209.19
702.724	22061.4
703.069	22063.21
703.415	21905.47
703.76	21883.1
704.105	21815.08
704.45	21842.19
704.795	21562.43
705.14	21675.42
705.485	21543.9
705.83	21414.18
706.175	21584.57
706.52	21364.47
706.865	21378.25
707.209	21328.08
707.554	21210.8
707.899	21190.69
708.243	21083.57
708.588	21119.95
708.932	20984.59
709.277	21001.99
709.621	20954.31
709.966	20810.36
710.31	20827.53
710.654	20731.04
710.998	20726.52
711.342	20761.54
711.687	20666.86
712.031	20627.54
712.375	20617.37
712.719	20467.09
713.063	20409.69
713.407	20575.11
713.75	20405.62
714.094	20453.53
714.438	20291.95
714.782	20373.76
715.125	20307.55
715.469	20302.57
715.812	20132.63
716.156	20185.97
716.499	20256.47
716.843	20122.47
717.186	20094.44
717.53	20167.21
717.873	20134.44
718.216	20051.28
718.559	20047.44
718.902	19884.05
719.246	19976.25
719.589	19969.47
719.932	19921.57
720.275	19867.78
720.617	20000.66
720.96	19818.74
721.303	19744.4
721.646	19789.14
721.989	19729.26
722.331	19860.33
722.674	19792.76
723.016	19745.07
723.359	19788.01
723.701	19806.32
724.044	19677.96
724.386	19663.27
724.729	19692.65
725.071	19695.81
725.413	19698.07
725.755	19626.21
726.097	19622.37
726.439	19604.74
726.782	19583.95
727.124	19752.31
727.465	19668.47
727.807	19576.72
728.149	19626.43
728.491	19526.32
728.833	19585.3
729.175	19589.37
729.516	19497.62
729.858	19528.58
730.199	19691.06
730.541	19515.7
730.882	19646.77
731.224	19593.89
731.565	19537.17
731.906	19646.32
732.248	19690.84
732.589	19694.91
732.93	19609.71
733.271	19649.94
733.612	19683.61
733.953	19662.82
734.294	19605.42
734.635	19559.77
734.976	19792.3
735.317	19649.94
735.658	19660.1
735.999	19666.88
736.339	19752.98
736.68	19782.81
737.021	19725.19
737.361	19853.09
737.702	19959.98
738.042	19860.1
738.383	19898.74
738.723	20031.39
739.063	20065.52
739.404	20106.42
739.744	20108.91
740.084	20218.96
740.424	20237.49
740.764	20156.36
741.104	20401.55
741.444	20225.06
741.784	20370.59
742.124	20605.39
742.464	20587.99
742.804	20454.66
743.143	20482.46
743.483	20815.78
743.823	20660.08
744.162	20856.91
744.502	20913.63
744.841	20976.23
745.181	21157.69
745.52	21147.98
745.86	21330.34
746.199	21509.77
746.538	21585.48
746.877	21777.56
747.216	21895.07
747.556	21912.25
747.895	22047.61
748.234	22247.38
748.573	22433.14
748.911	22380.03
749.25	22685.79
749.589	22751.77
749.928	23029.28
750.267	23172.55
750.605	23359.67
750.944	23415.71
751.283	23685.31
751.621	23900.9
751.96	23962.82
752.298	24259.76
752.636	24443.71
752.975	24670.59
753.313	24735.23
753.651	25211.37
753.989	25153.97
754.327	25466.96
754.666	25548.31
