Data from 3278_FLMS001491_007.txt Node
Date: Thu Apr 19 15:16:19 BST 2018
User: hsy
Spectrometer: FLMS00149
Trigger mode: 0
Integration Time (sec): 1.000000E-2
Scans to average: 10
Electric dark correction enabled: true
Nonlinearity correction enabled: false
Boxcar width: 0
XAxis mode: Wavelengths
Number of Pixels in Spectrum: 2048
>>>>>Begin Spectral Data<<<<<
341.393	-4.41
341.776	-4.41
342.16	-4.41
342.543	-51.41
342.927	-78.08
343.31	-60
343.693	-71.07
344.077	-65.65
344.46	-64.74
344.843	-46.44
345.226	-57.06
345.61	-22.03
345.993	-3.73
346.376	-20
346.759	11.41
347.142	23.16
347.525	44.86
347.908	67.46
348.291	59.77
348.674	90.73
349.057	113.33
349.44	142.26
349.823	136.83
350.206	186.77
350.588	234.46
350.971	245.76
351.354	280.11
351.737	271.74
352.119	307
352.502	320.1
352.884	324.62
353.267	318.3
353.65	340.22
354.032	326.88
354.414	368.01
354.797	348.8
355.179	363.72
355.562	371.18
355.944	387.9
356.326	365.08
356.709	390.39
357.091	383.38
357.473	385.64
357.855	387.9
358.238	397.62
358.62	376.6
359.002	405.3
359.384	389.48
359.766	400.1
360.148	391.52
360.53	395.13
360.912	399.65
361.294	406.2
361.676	413.44
362.057	395.13
362.439	397.62
362.821	369.59
363.203	411.18
363.584	355.36
363.966	388.58
364.348	376.15
364.729	371.85
365.111	391.52
365.493	383.15
365.874	393.32
366.256	392.87
366.637	379.76
367.019	370.05
367.4	380.67
367.781	400.33
368.163	384.51
368.544	377.05
368.925	375.24
369.306	382.25
369.688	380.67
370.069	392.42
370.45	390.39
370.831	389.03
371.212	355.13
371.593	388.8
371.974	377.5
372.355	373.66
372.736	381.57
373.117	389.71
373.498	381.12
373.879	380.67
374.26	385.64
374.641	385.41
375.021	398.75
375.402	387
375.783	393.55
376.163	399.2
376.544	429.71
376.925	385.41
377.305	418.63
377.686	405.3
378.066	409.82
378.447	417.5
378.827	417.96
379.208	417.73
379.588	422.7
379.968	424.51
380.349	410.95
380.729	428.8
381.109	455.92
381.489	404.85
381.87	449.37
382.25	436.94
382.63	441.91
383.01	462.93
383.39	445.98
383.77	434.68
384.15	437.84
384.53	450.95
384.91	450.72
385.29	478.52
385.67	458.18
386.049	467.67
386.429	479.87
386.809	464.28
387.189	482.59
387.568	483.72
387.948	468.8
388.328	489.59
388.707	477.61
389.087	479.2
389.466	484.62
389.846	476.03
390.225	484.17
390.605	504.28
390.984	498.86
391.363	533.21
391.743	511.06
392.122	537.27
392.501	531.62
392.881	548.57
393.26	554.67
393.639	521.91
394.018	543.6
394.397	548.35
394.776	544.51
395.155	567.33
395.534	577.5
395.913	553.32
396.292	584.28
396.671	579.08
397.05	573.66
397.429	584.28
397.808	578.4
398.186	582.24
398.565	592.87
398.944	584.96
399.323	604.84
399.701	598.52
400.08	600.55
400.458	613.66
400.837	632.86
401.215	621.34
401.594	612.98
401.972	634.22
402.351	627.67
402.729	644.84
403.107	649.36
403.486	636.48
403.864	624.73
404.242	659.98
404.62	661.34
404.999	678.97
405.377	690.94
405.755	663.37
406.133	692.07
406.511	704.95
406.889	720.32
407.267	730.94
407.645	736.59
408.023	728.68
408.401	706.99
408.779	769.36
409.156	750.15
409.534	762.8
409.912	763.48
410.29	782.69
410.667	803.93
411.045	793.76
411.422	801
411.8	812.3
412.178	831.28
412.555	831.73
412.933	859.98
413.31	856.36
413.687	868.34
414.065	862.01
414.442	865.85
414.819	862.69
415.197	885.74
415.574	884.38
415.951	919.64
416.328	925.74
416.705	945.4
417.082	925.74
417.46	946.08
417.837	948.79
418.214	958.96
418.591	964.83
418.967	971.61
419.344	952.63
419.721	990.82
420.098	998.96
420.475	999.63
420.852	1032.18
421.228	1036.02
421.605	1042.35
421.982	1029.92
422.358	1032.4
422.735	1056.13
423.111	1071.72
423.488	1101.55
423.864	1068.33
424.241	1084.15
424.617	1108.78
424.994	1129.35
425.37	1140.42
425.746	1116.69
426.123	1159.4
426.499	1165.73
426.875	1173.42
427.251	1176.58
427.627	1199.86
428.003	1217.71
428.379	1224.94
428.756	1240.53
429.132	1271.04
429.507	1229.23
429.883	1275.56
430.259	1300.19
430.635	1344.48
431.011	1324.37
431.387	1332.06
431.763	1383.81
432.138	1361.66
432.514	1400.75
432.89	1396.91
433.265	1398.27
433.641	1481.66
434.016	1459.51
434.392	1457.25
434.767	1488.21
435.143	1508.32
435.518	1550.13
435.894	1562.56
436.269	1535.21
436.644	1610.69
437.02	1579.96
437.395	1612.05
437.77	1605.49
438.145	1641.2
438.52	1662.89
438.895	1697.47
439.271	1683.01
439.646	1688.2
440.021	1702.89
440.395	1745.15
440.77	1738.15
441.145	1740.86
441.52	1749.45
441.895	1756.23
442.27	1796.68
442.645	1785.38
443.019	1783.57
443.394	1844.36
443.769	1801.65
444.143	1839.61
444.518	1856.34
444.892	1833.06
445.267	1881.65
445.641	1843
446.016	1920.51
446.39	1927.29
446.764	1909.67
447.139	1906.5
447.513	1940.4
447.887	1955.09
448.262	1963.23
448.636	1980.17
449.01	1994.64
449.384	1990.34
449.758	2007.74
450.132	2056.33
450.506	2042.55
450.88	2086.39
451.254	2113.05
451.628	2105.37
452.002	2145.82
452.376	2157.57
452.75	2210.22
453.123	2222.88
453.497	2248.42
453.871	2276.66
454.244	2320.5
454.618	2304.46
454.992	2353.5
455.365	2391.24
455.739	2430.11
456.112	2452.48
456.486	2450.67
456.859	2479.82
457.232	2542.87
457.606	2599.14
457.979	2615.41
458.352	2631
458.725	2659.03
459.099	2682.75
459.472	2692.02
459.845	2830.55
460.218	2805.91
460.591	2843.88
460.964	2870.32
461.337	2911.67
461.71	2913.26
462.083	2999.58
462.456	2994.61
462.829	3041.61
463.201	3038
463.574	3067.6
463.947	3148.73
464.32	3190.76
464.692	3247.03
465.065	3241.84
465.438	3258.56
465.81	3309.86
466.183	3335.39
466.555	3450.64
466.928	3488.38
467.3	3444.77
467.672	3479.12
468.045	3601.37
468.417	3582.39
468.789	3613.8
469.161	3692.45
469.534	3756.62
469.906	3797.08
470.278	3827.13
470.65	3870.75
471.022	3920.69
471.394	3980.8
471.766	4056.05
472.138	4068.93
472.51	4196.84
472.882	4207.23
473.253	4310.73
473.625	4342.82
473.997	4454.46
474.369	4470.28
474.74	4454.01
475.112	4618.07
475.484	4685.41
475.855	4788.46
476.227	4849.93
476.598	4922.47
476.97	5003.15
477.341	5111.84
477.713	5164.27
478.084	5233.42
478.455	5406.75
478.827	5418.28
479.198	5594.99
479.569	5566.75
479.94	5749.34
480.311	5836.12
480.682	5975.32
481.053	6088.09
481.424	6206.28
481.795	6316.56
482.166	6471.13
482.537	6485.59
482.908	6711.12
483.279	6770.33
483.65	6921.74
484.021	7091.68
484.391	7179.81
484.762	7276.76
485.133	7373.7
485.503	7528.5
485.874	7681.04
486.244	7860.7
486.615	8037.87
486.985	8173.23
487.356	8318.31
487.726	8394.69
488.097	8728.92
488.467	8760.11
488.837	8970.05
489.207	9090.5
489.578	9329.81
489.948	9394.89
490.318	9667.66
490.688	9703.13
491.058	9935.44
491.428	10152.39
491.798	10307.86
492.168	10585.37
492.538	10685.26
492.908	10958.92
493.278	11112.82
493.648	11207.5
494.017	11515.74
494.387	11635.97
494.757	11896.07
495.126	12011.77
495.496	12239.79
495.866	12412.89
496.235	12671.87
496.605	12856.72
496.974	13018.75
497.344	13183.27
497.713	13487.67
498.082	13665.97
498.452	13835
498.821	14072.74
499.19	14202.9
499.559	14488.32
499.928	14747.52
500.298	14869.55
500.667	15163.33
501.036	15233.16
501.405	15555.18
501.774	15623.66
502.143	15837.66
502.512	16175.51
502.88	16421.83
503.249	16519.45
503.618	16817.07
503.987	16986.78
504.356	17261.58
504.724	17504.06
505.093	17613.21
505.462	17887.1
505.83	18080.32
506.199	18346.52
506.567	18662.45
506.936	18668.55
507.304	18997.81
507.672	19239.83
508.041	19178.14
508.409	19561.41
508.777	19837.33
509.145	20071.45
509.514	20097.44
509.882	20381.05
510.25	20513.47
510.618	20910.3
510.986	20793.46
511.354	21090.63
511.722	21361.36
512.09	21665.76
512.458	21622.37
512.826	21876.37
513.193	21950.5
513.561	22097.84
513.929	22386.64
514.297	22526.53
514.664	22708.67
515.032	22786.41
515.4	22925.84
515.767	23116.34
516.135	23244.7
516.502	23185.27
516.869	23505.26
517.237	23670.9
517.604	23689.21
517.972	23964.45
518.339	24037.67
518.706	24199.7
519.073	24209.19
519.44	24325.12
519.808	24575.96
520.175	24622.52
520.542	24844.66
520.909	25026.35
521.276	25095.72
521.643	25314.48
522.009	25376.85
522.376	25429.95
522.743	25490.52
523.11	25816.38
523.477	25951.52
523.843	26009.6
524.21	26361.68
524.577	26500.89
524.943	26498.4
525.31	26634.67
525.676	26794.21
526.043	26984.94
526.409	27086.86
526.776	27271.71
527.142	27266.29
527.508	27339.73
527.874	27551.03
528.241	27591.7
528.607	27750.8
528.973	27857.46
529.339	27740.63
529.705	27963.67
530.071	28019.26
530.437	28176.55
530.803	28244.34
531.169	28374.51
531.535	28345.81
531.901	28332.02
532.267	28383.55
532.632	28565.69
532.998	28412.93
533.364	28496.31
533.73	28524.79
534.095	28668.29
534.461	28698.57
534.826	28733.82
535.192	28715.74
535.557	28882.97
535.923	28785.12
536.288	28913.93
536.653	28719.81
537.019	28835.29
537.384	28917.32
537.749	28698.79
538.114	28650.89
538.479	28674.61
538.845	28654.05
539.21	28606.59
539.575	28548.51
539.94	28540.15
540.305	28780.6
540.67	28632.13
541.034	28513.04
541.399	28663.31
541.764	28525.01
542.129	28506.71
542.494	28530.89
542.858	28487.5
543.223	28351.23
543.587	28466.03
543.952	28340.61
544.316	28397.11
544.681	28245.47
545.045	28342.64
545.41	28439.59
545.774	28272.36
546.138	28229.65
546.503	28255.87
546.867	28288.41
547.231	28394.62
547.595	28240.05
547.959	28203.89
548.324	28066.95
548.688	28053.39
549.052	28053.39
549.416	28013.84
549.779	27871.24
550.143	27735.65
550.507	27867.18
550.871	28000.51
551.235	27859.49
551.599	27931.13
551.962	27962.09
552.326	27933.84
552.689	27876.67
553.053	27635.54
553.417	27687.75
553.78	27843
554.143	27686.84
554.507	27834.86
554.87	27806.84
555.234	27824.69
555.597	27596.45
555.96	27635.77
556.323	27637.58
556.686	27650.69
557.05	27788.08
557.413	27819.04
557.776	27755.99
558.139	27880.74
558.502	27748.08
558.865	27827.4
559.228	27905.14
559.59	27871.92
559.953	27948.08
560.316	28202.76
560.679	28079.37
561.041	28121.86
561.404	28132.25
561.767	28179.26
562.129	28073.95
562.492	28353.27
562.854	28325.47
563.217	28341.29
563.579	28307.62
563.941	28388.52
564.304	28455.18
564.666	28599.36
565.028	28590.32
565.39	28696.76
565.753	28862.4
566.115	28836.19
566.477	28901.73
566.839	28872.35
567.201	29088.39
567.563	28973.14
567.925	29277.31
568.287	29153.7
568.648	29179.23
569.01	29336.29
569.372	29580.13
569.734	29416.51
570.095	29681.37
570.457	29655.6
570.819	29689.28
571.18	29483.63
571.542	29834.13
571.903	29824.87
572.265	29885.2
572.626	29904.86
572.987	29908.48
573.349	29997.97
573.71	29993.22
574.071	30158.19
574.432	30242.03
574.794	30386.88
575.155	30279.32
575.516	30329.03
575.877	30409.48
576.238	30333.33
576.599	30416.71
576.96	30566.99
577.32	30472.08
577.681	30512.08
578.042	30677.72
578.403	30578.52
578.763	30524.96
579.124	30525.41
579.485	30635.47
579.845	30813.99
580.206	30570.61
580.566	30600.89
580.927	30769.25
581.287	30690.38
581.648	30510.95
582.008	30814.22
582.368	30728.12
582.728	30587.56
583.089	30648.57
583.449	30587.33
583.809	30666.65
584.169	30651.06
584.529	30524.28
584.889	30700.77
585.249	30437.05
585.609	30431.18
585.969	30590.72
586.329	30443.15
586.688	30533.1
587.048	30424.4
587.408	30461.91
587.768	30307.11
588.127	30223.27
588.487	30195.93
588.846	30373.33
589.206	30163.61
589.565	30178.53
589.925	30258.75
590.284	30200.45
590.643	30238.87
591.003	30190.51
591.362	30319.32
591.721	30186.21
592.08	30166.1
592.44	30214.91
592.799	30220.79
593.158	30058.08
593.517	30024.41
593.876	30079.32
594.235	29975.82
594.593	30035.03
594.952	29956.16
595.311	29970.4
595.67	30005.88
596.029	30230.5
596.387	30126.78
596.746	30171.07
597.104	30037.06
597.463	30039.55
597.822	30129.04
598.18	29982.15
598.538	30015.14
598.897	30028.48
599.255	29837.29
599.613	30237.06
599.972	29886.11
600.33	29987.35
600.688	30056.27
601.046	29980.12
601.404	30161.58
601.762	30031.64
602.12	30155.93
602.478	30124.07
602.836	30142.6
603.194	29907.8
603.552	30011.08
603.91	30027.57
604.268	30155.03
604.625	30012.88
604.983	30316.38
605.341	29985.99
605.698	30103.05
606.056	30317.51
606.413	30174.91
606.771	30255.14
607.128	30284.97
607.485	30136.04
607.843	30222.82
608.2	30273.44
608.557	30475.02
608.914	30332.2
609.272	30539.42
609.629	30703.03
609.986	30597.95
610.343	30522.93
610.7	30891.5
611.057	30715.01
611.414	30620.55
611.771	30795.24
612.127	30950.03
612.484	30893.09
612.841	30856.48
613.198	30861.45
613.554	30840.43
613.911	31091.27
614.267	31075.68
614.624	31020.77
614.98	30926.53
615.337	31206.3
615.693	31120.2
616.05	31256.24
616.406	31279.52
616.762	31197.71
617.118	31215.11
617.475	31362
617.831	31518.15
618.187	31398.61
618.543	31448.55
618.899	31573.75
619.255	31635.21
619.611	31486.97
619.967	31661.88
620.323	31747.75
620.678	31647.19
621.034	31587.31
621.39	31612.84
621.746	31697.36
622.101	31945.71
622.457	31677.25
622.812	31812.61
623.168	31820.52
623.523	31780.75
623.879	31907.07
624.234	31695.32
624.589	31900.74
624.945	31976.9
625.3	31830.69
625.655	31813.29
626.01	31954.3
626.365	31880.4
626.72	31815.55
627.075	31790.01
627.43	31848.54
627.785	31795.66
628.14	31842.21
628.495	31998.37
628.85	31928.99
629.205	31797.24
629.559	31914.53
629.914	31759.05
630.269	31858.71
630.623	31546.18
630.978	31553.41
631.332	31810.58
631.687	31790.24
632.041	31661.43
632.396	31646.29
632.75	31515.67
633.104	31672.05
633.459	31493.52
633.813	31451.72
634.167	31535.78
634.521	31346.86
634.875	31446.07
635.229	31392.73
635.583	31254.21
635.937	31191.16
636.291	31123.81
636.645	31252.85
636.999	30882.01
637.352	31052.4
637.706	30942.8
638.06	31143.93
638.413	30952.75
638.767	31018.73
639.121	30912.75
639.474	30884.95
639.828	30813.54
640.181	30779.42
640.534	30914.1
640.888	30673.66
641.241	30497.62
641.594	30562.47
641.947	30668.69
642.301	30639.31
642.654	30686.76
643.007	30573.32
643.36	30689.25
643.713	30556.82
644.066	30692.41
644.419	30343.5
644.771	30094.01
645.124	29689.95
645.477	29845.43
645.83	29599.79
646.182	29734.92
646.535	29607.7
646.888	29790.06
647.24	29674.59
647.593	29860.8
647.945	29677.75
648.298	29520.24
648.65	29423.07
649.002	29188.95
649.355	29070.31
649.707	28856.98
650.059	28901.05
650.411	29426.46
650.763	29583.29
651.115	30158.87
651.467	30022.37
651.819	29961.36
652.171	30145.54
652.523	29910.06
652.875	29979.66
653.227	29811.53
653.578	30040.45
653.93	29968.59
654.282	29848.14
654.633	29905.54
654.985	29890.85
655.337	29930.4
655.688	29837.97
656.039	29947.35
656.391	29684.3
656.742	29775.15
657.094	29868.71
657.445	29827.13
657.796	29942.6
658.147	29876.62
658.498	29887.46
658.849	29963.84
659.2	29909.38
659.551	29830.74
659.902	29936.05
660.253	29953.68
660.604	29978.53
660.955	29881.59
661.306	30107.34
661.656	29906.67
662.007	29931.3
662.358	30016.95
662.708	30009.95
663.059	29995.93
663.409	29780.57
663.76	30032.54
664.11	29978.53
664.461	30105.31
664.811	29998.65
665.161	30097.17
665.511	30001.13
665.862	30036.84
666.212	30132.2
666.562	30072.77
666.912	30063.5
667.262	29833.45
667.612	30060.34
667.962	30056.05
668.312	30004.07
668.662	30246.1
669.011	30159.55
669.361	30119.77
669.711	30135.59
670.06	30045.65
670.41	29953.68
670.76	29965.65
671.109	30074.12
671.459	30031.64
671.808	29920.68
672.157	30078.87
672.507	29808.82
672.856	29875.94
673.205	29893.56
673.554	29866.9
673.904	29816.28
674.253	29997.97
674.602	29675.04
674.951	29405.22
675.3	29213.81
675.649	29846.56
675.998	29810.85
676.346	29802.04
676.695	29829.16
677.044	29586.91
677.393	29635.04
677.741	29808.37
678.09	29524.76
678.438	29477.53
678.787	29564.76
679.135	29657.19
679.484	29378.32
679.832	29471.43
680.181	29304.88
680.529	29370.41
680.877	29302.17
681.225	29224.2
681.573	29409.74
681.922	29119.12
682.27	29158.67
682.618	29128.84
682.966	29008.39
683.314	29045.22
683.661	28904.21
684.009	28972.46
684.357	28776.31
684.705	28703.09
685.053	28829.19
685.4	28672.13
685.748	28585.58
686.095	28625.35
686.443	28362.08
686.79	28362.08
687.138	28249.31
687.485	28363.21
687.832	28111.46
688.18	28210.9
688.527	28172.48
688.874	28059.94
689.221	28108.98
689.568	27807.97
689.915	27842.77
690.262	27812.26
690.609	27758.71
690.956	27555.32
691.303	27587.86
691.65	27412.27
691.997	27392.61
692.344	27227.19
692.69	27186.06
693.037	27218.38
693.383	26882.34
693.73	26952.4
694.077	26932.51
694.423	26834.21
694.769	26665.4
695.116	26610.94
695.462	26488.46
695.808	26399.19
696.155	26495.46
696.501	26242.36
696.847	26355.58
697.193	26113.32
697.539	25900.45
697.885	25753.11
698.231	25780.45
698.577	25721.24
698.923	25782.94
699.269	25572.32
699.614	25448.71
699.96	25245.78
700.306	25326.9
700.651	25223.86
700.997	25139.56
701.342	25160.81
701.688	25067.48
702.033	24781.83
702.379	24848.95
702.724	24683.76
703.069	24688.5
703.415	24455.74
703.76	24448.28
704.105	24361.96
704.45	24224.56
704.795	24313.15
705.14	24064.11
705.485	24036.77
705.83	23862.08
706.175	23979.14
706.52	23917
706.865	23815.98
707.209	23692.37
707.554	23725.14
707.899	23703.67
708.243	23488.31
708.588	23553.17
708.932	23426.39
709.277	23503
709.621	23366.28
709.966	23253.96
710.31	23164.93
710.654	23050.35
710.998	23199.73
711.342	23107.53
711.687	22866.4
712.031	22943.24
712.375	22890.13
712.719	22861.21
713.063	22805.39
713.407	23015.78
713.75	22728.78
714.094	22806.97
714.438	22621.21
714.782	22599.74
715.125	22658.05
715.469	22765.62
715.812	22528.79
716.156	22502.12
716.499	22433.87
716.843	22486.75
717.186	22310.03
717.53	22593.87
717.873	22489.69
718.216	22463.03
718.559	22331.96
718.902	22122.24
719.246	22186.87
719.589	22192.52
719.932	22160.21
720.275	22185.74
720.617	22154.78
720.96	22085.63
721.303	22093.32
721.646	22181.22
721.989	21999.31
722.331	22020.32
722.674	22026.65
723.016	22096.71
723.359	21998.4
723.701	22045.41
724.044	21958.18
724.386	21849.71
724.729	21990.72
725.071	22029.14
725.413	21881.12
725.755	21905.98
726.097	21847.67
726.439	21832.08
726.782	21787.34
727.124	21904.62
727.465	21879.99
727.807	21761.35
728.149	21814.23
728.491	21727.23
728.833	21759.54
729.175	21672.31
729.516	21715.47
729.858	21725.19
730.199	21860.56
730.541	21786.66
730.882	21789.82
731.224	21897.84
731.565	21736.94
731.906	21651.75
732.248	21801.35
732.589	21767
732.93	21695.81
733.271	21820.1
733.612	21720.67
733.953	21877.5
734.294	21845.41
734.635	21830.27
734.976	21964.51
735.317	21740.56
735.658	21797.73
735.999	21812.65
736.339	21942.36
736.68	22083.37
737.021	21984.39
737.361	21945.07
737.702	22127.44
738.042	22077.72
738.383	22066.2
738.723	22212.86
739.063	22175.12
739.404	22191.17
739.744	22343.03
740.084	22338.96
740.424	22358.4
740.764	22328.57
741.104	22592.51
741.444	22476.13
741.784	22562.46
742.124	22592.06
742.464	22583.47
742.804	22637.03
743.143	22714.32
743.483	22843.13
743.823	22846.52
744.162	22957.48
744.502	23172.61
744.841	23134.65
745.181	23330.57
745.52	23373.06
745.86	23557.23
746.199	23645.82
746.538	23726.49
746.877	23977.79
747.216	24035.87
747.556	24081.74
747.895	24272.7
748.234	24227.05
748.573	24546.59
748.911	24646.7
749.25	24708.62
749.589	24935.73
749.928	25171.88
750.267	25416.17
750.605	25430.4
750.944	25688.48
751.283	25969.6
751.621	26116.71
751.96	26274
752.298	26461.34
752.636	26768.67
752.975	26818.84
753.313	27087.54
753.651	27406.4
753.989	27670.57
754.327	27767.07
754.666	27817.46
