Data from 3278_FLMS001491_001.txt Node
Date: Thu Apr 19 15:15:57 BST 2018
User: hsy
Spectrometer: FLMS00149
Trigger mode: 0
Integration Time (sec): 1.000000E-2
Scans to average: 10
Electric dark correction enabled: true
Nonlinearity correction enabled: false
Boxcar width: 0
XAxis mode: Wavelengths
Number of Pixels in Spectrum: 2048
>>>>>Begin Spectral Data<<<<<
341.393	-13.87
341.776	-13.87
342.16	-13.87
342.543	-76.47
342.927	-62.46
343.31	-63.81
343.693	-73.98
344.077	-55.22
344.46	-75.34
344.843	-49.35
345.226	-50.25
345.61	-44.83
345.993	-10.48
346.376	-6.86
346.759	31.78
347.142	15.96
347.525	46.92
347.908	58.9
348.291	75.85
348.674	95.96
349.057	104.77
349.44	135.5
349.823	142.51
350.206	166.01
350.588	229.51
350.971	260.47
351.354	277.42
351.737	267.93
352.119	297.08
352.502	297.76
352.884	297.53
353.267	306.57
353.65	315.39
354.032	338.21
354.414	343.41
354.797	337.53
355.179	351.77
355.562	340.02
355.944	346.57
356.326	375.95
356.709	368.49
357.091	390.64
357.473	384.76
357.855	377.76
358.238	360.13
358.62	380.7
359.002	382.28
359.384	382.73
359.766	379.34
360.148	384.54
360.53	382.73
360.912	372.79
361.294	379.34
361.676	376.85
362.057	382.28
362.439	358.78
362.821	381.15
363.203	375.5
363.584	375.95
363.966	364.43
364.348	352.45
364.729	361.71
365.111	373.69
365.493	370.75
365.874	350.87
366.256	363.07
366.637	362.17
367.019	343.41
367.4	370.08
367.781	364.2
368.163	342.96
368.544	364.65
368.925	362.84
369.306	364.88
369.688	353.13
370.069	368.72
370.45	369.62
370.831	359.91
371.212	349.96
371.593	347.48
371.974	350.19
372.355	359.23
372.736	380.47
373.117	380.24
373.498	346.35
373.879	360.36
374.26	378.66
374.641	374.37
375.021	374.59
375.402	380.24
375.783	376.63
376.163	387.02
376.544	369.17
376.925	377.76
377.305	398.55
377.686	381.15
378.066	393.35
378.447	387.7
378.827	393.8
379.208	405.33
379.588	391.09
379.968	378.66
380.349	414.59
380.729	382.05
381.109	396.29
381.489	391.54
381.87	401.03
382.25	436.29
382.63	416.4
383.01	409.4
383.39	409.62
383.77	422.73
384.15	403.52
384.53	415.5
384.91	437.64
385.29	422.73
385.67	434.48
386.049	428.6
386.429	410.53
386.809	431.09
387.189	437.42
387.568	441.71
387.948	470.64
388.328	443.52
388.707	445.78
389.087	449.17
389.466	444.65
389.846	454.59
390.225	462.28
390.605	460.69
390.984	468.15
391.363	478.32
391.743	446.46
392.122	459.56
392.501	489.39
392.881	479.9
393.26	479
393.639	495.04
394.018	480.35
394.397	487.59
394.776	483.52
395.155	470.19
395.534	509.05
395.913	539.11
396.292	539.79
396.671	486
397.05	514.25
397.429	500.92
397.808	505.89
398.186	526.68
398.565	525.1
398.944	512.22
399.323	535.95
399.701	524.87
400.08	532.56
400.458	517.87
400.837	540.24
401.215	572.56
401.594	566.23
401.972	566
402.351	577.53
402.729	556.28
403.107	577.75
403.486	571.43
403.864	575.49
404.242	569.39
404.62	568.94
404.999	597.41
405.377	596.51
405.755	599.22
406.133	623.63
406.511	600.35
406.889	617.07
407.267	626.34
407.645	628.83
408.023	647.81
408.401	634.93
408.779	642.61
409.156	658.88
409.534	671.31
409.912	661.14
410.29	677.41
410.667	686
411.045	710.41
411.422	700.01
411.8	677.64
412.178	695.26
412.555	715.6
412.933	753.57
413.31	736.39
413.687	747.92
414.065	770.06
414.442	762.83
414.819	770.29
415.197	770.74
415.574	787.69
415.951	796.73
416.328	812.1
416.705	805.77
417.082	787.01
417.46	806
417.837	812.32
418.214	816.16
418.591	813
418.967	834.47
419.344	827.01
419.721	831.08
420.098	847.12
420.475	834.02
420.852	892.32
421.228	861.81
421.605	898.87
421.982	886.45
422.358	888.71
422.735	901.81
423.111	907.24
423.488	896.84
423.864	921.47
424.241	941.13
424.617	940.23
424.994	941.36
425.37	966.9
425.746	951.98
426.123	951.53
426.499	985.88
426.875	996.73
427.251	996.05
427.627	1020
428.003	1020
428.379	1010.51
428.756	1030.62
429.132	1056.84
429.507	1067.68
429.883	1076.27
430.259	1081.47
430.635	1121.02
431.011	1095.71
431.387	1138.87
431.763	1133.9
432.138	1149.94
432.514	1159.66
432.89	1176.83
433.265	1217.51
433.641	1229.71
434.016	1217.96
434.392	1235.81
434.767	1254.12
435.143	1248.7
435.518	1274.23
435.894	1267.45
436.269	1285.53
436.644	1300.67
437.02	1326.66
437.395	1357.85
437.77	1337.51
438.145	1354.91
438.52	1367.34
438.895	1404.17
439.271	1398.75
439.646	1407.34
440.021	1445.98
440.395	1430.39
440.77	1420.44
441.145	1435.81
441.52	1471.29
441.895	1469.26
442.27	1471.06
442.645	1453.21
443.019	1479.2
443.394	1495.02
443.769	1487.33
444.143	1487.56
444.518	1527.33
444.892	1528.69
445.267	1523.94
445.641	1560.1
446.016	1549.03
446.39	1595.58
446.764	1580.89
447.139	1582.02
447.513	1591.29
447.887	1617.27
448.262	1609.14
448.636	1639.65
449.01	1615.24
449.384	1640.32
449.758	1655.24
450.132	1720.55
450.506	1698.4
450.88	1695.69
451.254	1733.65
451.628	1750.83
452.002	1735.24
452.376	1767.78
452.75	1811.17
453.123	1792.18
453.497	1827.89
453.871	1819.3
454.244	1906.76
454.618	1918.73
454.992	1935.23
455.365	1933.88
455.739	1971.16
456.112	1997.38
456.486	2024.72
456.859	2044.61
457.232	2073.31
457.606	2067.21
457.979	2114.89
458.352	2147.2
458.725	2131.16
459.099	2158.73
459.472	2206.41
459.845	2265.62
460.218	2263.58
460.591	2291.15
460.964	2332.28
461.337	2368.21
461.71	2417.93
462.083	2421.09
462.456	2426.74
462.829	2454.99
463.201	2516.69
463.574	2489.34
463.947	2548.55
464.32	2575.44
464.692	2579.73
465.065	2626.51
465.438	2647.08
465.81	2660.18
466.183	2685.27
466.555	2743.12
466.928	2749.9
467.3	2796.68
467.672	2840.52
468.045	2872.38
468.417	2920.97
468.789	2908.99
469.161	2965.49
469.534	2988.99
469.906	3042.77
470.278	3092.49
470.65	3125.93
471.022	3196.22
471.394	3207.29
471.766	3233.5
472.138	3288.87
472.51	3386.94
472.882	3394.18
473.253	3433.72
473.625	3504.23
473.997	3554.17
474.369	3572.7
474.74	3618.13
475.112	3713.04
475.484	3729.76
475.855	3798.01
476.227	3871.45
476.598	3966.82
476.97	4052.92
477.341	4116.87
477.713	4174.49
478.084	4203.19
478.455	4320.25
478.827	4360.48
479.198	4456.52
479.569	4532.23
479.94	4586.91
480.311	4700.81
480.682	4840.24
481.053	4935.15
481.424	5014.7
481.795	5072.55
482.166	5145.09
482.537	5202.26
482.908	5355.25
483.279	5474.35
483.65	5559.32
484.021	5727.67
484.391	5813.32
484.762	5862.59
485.133	5930.61
485.503	6099.64
485.874	6216.47
486.244	6389.58
486.615	6524.04
486.985	6568.1
487.356	6738.04
487.726	6838.61
488.097	7002.22
488.467	7080.63
488.837	7265.03
489.207	7378.03
489.578	7513.16
489.948	7733.95
490.318	7853.95
490.688	7923.32
491.058	8105.24
491.428	8293.26
491.798	8507.71
492.168	8666.35
492.538	8759.91
492.908	8954.71
493.278	9083.97
493.648	9233.34
494.017	9443.28
494.387	9602.15
494.757	9770.51
495.126	9855.02
495.496	10045.3
495.866	10241.91
496.235	10397.16
496.605	10618.39
496.974	10792.63
497.344	10992.39
497.713	11202.33
498.082	11367.07
498.452	11558.93
498.821	11721.87
499.19	11874.63
499.559	12112.59
499.928	12271.68
500.298	12518.23
500.667	12728.85
501.036	12799.58
501.405	13063.98
501.774	13201.15
502.143	13508.71
502.512	13626.9
502.88	13889.04
503.249	14032.99
503.618	14267.79
503.987	14329.03
504.356	14669.59
504.724	14806.76
505.093	15061.89
505.462	15165.62
505.83	15374.43
506.199	15609
506.567	15847.86
506.936	15959.95
507.304	16295.08
507.672	16412.14
508.041	16489.2
508.409	16818
508.777	17048.28
509.145	17323.3
509.514	17319.46
509.882	17549.28
510.25	17677.19
510.618	17861.82
510.986	17977.3
511.354	18050.97
511.722	18392.65
512.09	18531.18
512.458	18696.6
512.826	18808.23
513.193	18893.66
513.561	19017.95
513.929	19223.82
514.297	19397.6
514.664	19531.83
515.032	19650.25
515.4	19761.2
515.767	19937.7
516.135	19992.61
516.502	19907.64
516.869	20333.17
517.237	20412.71
517.604	20252.26
517.972	20671.69
518.339	20649.32
518.706	20760.95
519.073	20798.01
519.44	20854.96
519.808	21095.18
520.175	21170.66
520.542	21414.72
520.909	21499.24
521.276	21543.76
521.643	21822.62
522.009	21771.77
522.376	21878.21
522.743	22024.19
523.11	22102.61
523.477	22357.52
523.843	22292.21
524.21	22628.25
524.577	22760.45
524.943	22742.37
525.31	22712.76
525.676	22937.39
526.043	23093.09
526.409	23110.49
526.776	23322.01
527.142	23164.73
527.508	23391.84
527.874	23553.42
528.241	23524.04
528.607	23561.56
528.973	23805.39
529.339	23686.3
529.705	23977.36
530.071	23960.42
530.437	23875.9
530.803	24198.15
531.169	24174.19
531.535	23971.49
531.901	24176.45
532.267	24179.62
532.632	24178.04
532.998	24249.67
533.364	24301.2
533.73	24154.08
534.095	24310.69
534.461	24379.39
534.826	24278.6
535.192	24371.48
535.557	24467.75
535.923	24293.97
536.288	24344.13
536.653	24457.35
537.019	24229.56
537.384	24369.9
537.749	24293.51
538.114	24251.93
538.479	24212.84
538.845	24179.84
539.21	24185.49
539.575	24015.33
539.94	24001.54
540.305	24074.76
540.67	24044.03
541.034	24101.43
541.399	24017.81
541.764	23999.28
542.129	23887.65
542.494	23938.72
542.858	23961.09
543.223	23744.15
543.587	23823.7
543.952	23786.86
544.316	23729.69
544.681	23695.56
545.045	23704.83
545.41	23684.72
545.774	23514.55
546.138	23417.83
546.503	23448.11
546.867	23486.08
547.231	23456.47
547.595	23370.15
547.959	23437.27
548.324	23357.04
548.688	23322.47
549.052	23287.44
549.416	23206.99
549.779	23117.05
550.143	23066.43
550.507	23143.26
550.871	23030.5
551.235	23035.92
551.599	23227.55
551.962	22943.72
552.326	22929.93
552.689	22896.71
553.053	22814
553.417	22836.6
553.78	22982.59
554.143	22854.91
554.507	22859.2
554.87	22775.81
555.234	22805.42
555.597	22643.61
555.96	22695.82
556.323	22764.97
556.686	22687.91
557.05	22804.51
557.413	22707.57
557.776	22589.83
558.139	22735.59
558.502	22708.47
558.865	22626.44
559.228	22825.76
559.59	22705.98
559.953	22613.56
560.316	22832.08
560.679	22769.94
561.041	22749.15
561.404	22793.67
561.767	23014.9
562.129	22750.28
562.492	22967.45
562.854	22950.95
563.217	22884.51
563.579	22904.17
563.941	23030.27
564.304	23019.65
564.666	23072.3
565.028	23104.62
565.39	23020.33
565.753	23221.45
566.115	23192.75
566.477	23246.31
566.839	23259.87
567.201	23363.59
567.563	23312.52
567.925	23422.8
568.287	23479.07
568.648	23458.51
569.01	23435.23
569.372	23705.05
569.734	23647.2
570.095	23734.66
570.457	23824.15
570.819	23822.34
571.18	23733.08
571.542	23914.77
571.903	23869.34
572.265	23931.94
572.626	23923.81
572.987	23976.01
573.349	24082.22
573.71	24085.61
574.071	24096.91
574.432	24230.24
574.794	24191.82
575.155	24285.83
575.516	24198.83
575.877	24293.74
576.238	24238.15
576.599	24330.12
576.96	24405.38
577.32	24351.82
577.681	24331.7
578.042	24456.9
578.403	24383.23
578.763	24426.62
579.124	24293.74
579.485	24431.14
579.845	24555.65
580.206	24411.48
580.566	24428.65
580.927	24492.38
581.287	24459.16
581.648	24441.31
582.008	24418.03
582.368	24372.38
582.728	24324.25
583.089	24325.6
583.449	24367.41
583.809	24267.07
584.169	24376.45
584.529	24260.29
584.889	24353.63
585.249	24232.72
585.609	24135.55
585.969	24328.77
586.329	24091.26
586.688	24226.62
587.048	24102.78
587.408	24185.04
587.768	24033.41
588.127	23914.54
588.487	24031.15
588.846	24125.38
589.206	23845.84
589.565	23910.7
589.925	24078.15
590.284	23892.62
590.643	23860.08
591.003	23992.73
591.362	24101.88
591.721	23861.21
592.08	23859.4
592.44	24052.62
592.799	23913.18
593.158	23875.45
593.517	23759.29
593.876	23917.03
594.235	23802.23
594.593	23726.07
594.952	23795
595.311	23694.89
595.67	23751.83
596.029	23797.03
596.387	23775.79
596.746	23913.64
597.104	23738.95
597.463	23637.03
597.822	23780.76
598.18	23702.57
598.538	23638.16
598.897	23781.44
599.255	23586.19
599.613	23847.2
599.972	23701.89
600.33	23725.85
600.688	23613.31
601.046	23659.63
601.404	23791.38
601.762	23732.85
602.12	23726.75
602.478	23905.95
602.836	23884.03
603.194	23688.56
603.552	23700.99
603.91	23770.82
604.268	23795.9
604.625	23753.41
604.983	23815.56
605.341	23598.84
605.698	23856.46
606.056	23978.27
606.413	23717.03
606.771	24029.34
607.128	23863.47
607.485	23873.41
607.843	23860.98
608.2	23961.77
608.557	23984.14
608.914	23890.13
609.272	24005.61
609.629	24123.8
609.986	24120.64
610.343	24014.43
610.7	24258.49
611.057	24197.92
611.414	24127.87
611.771	24206.06
612.127	24308.2
612.484	24342.33
612.841	24339.16
613.198	24357.69
613.554	24298.49
613.911	24446.73
614.267	24481.31
614.624	24466.39
614.98	24401.08
615.337	24592.71
615.693	24595.65
616.05	24624.13
616.406	24780.28
616.762	24677.91
617.118	24590.46
617.475	24637.01
617.831	24756.78
618.187	24836.55
618.543	24860.28
618.899	24913.16
619.255	24856.66
619.611	24839.94
619.967	25007.62
620.323	24936.43
620.678	24883.55
621.034	24848.3
621.39	24932.59
621.746	24929.43
622.101	25293.49
622.457	24982.08
622.812	25107.5
623.168	25161.06
623.523	25112.48
623.879	25204
624.234	25018.47
624.589	25178.91
624.945	25189.99
625.3	25183.43
625.655	25272.7
626.01	25246.94
626.365	25298.23
626.72	25168.07
627.075	25156.99
627.43	25182.98
627.785	25135.07
628.14	25138.46
628.495	25165.58
628.85	25088.3
629.205	25180.95
629.559	25264.56
629.914	25091.23
630.269	25076.09
630.623	25027.51
630.978	24956.55
631.332	25163.77
631.687	25087.39
632.041	25046.26
632.396	25153.6
632.75	24869.32
633.104	25033.38
633.459	24916.55
633.813	24850.34
634.167	24890.11
634.521	24870
634.875	24943.89
635.229	24844.01
635.583	24548.87
635.937	24691.7
636.291	24657.57
636.645	24701.41
636.999	24594.97
637.352	24594.07
637.706	24422.55
638.06	24566.5
638.413	24447.86
638.767	24401.08
639.121	24434.08
639.474	24418.03
639.828	24463.23
640.181	24368.31
640.534	24374.19
640.888	24283.34
641.241	24216.91
641.594	24235.66
641.947	24292.16
642.301	24127.19
642.654	24145.72
643.007	24127.64
643.36	24212.39
643.713	24200.41
644.066	24264.36
644.419	24041.99
644.771	23775.56
645.124	23683.59
645.477	23554.1
645.83	23586.64
646.182	23508.68
646.535	23487.89
646.888	23606.07
647.24	23550.48
647.593	23745.51
647.945	23667.32
648.298	23467.32
648.65	23285.18
649.002	23291.96
649.355	23080.66
649.707	22949.59
650.059	22962.25
650.411	23338.06
650.763	23591.16
651.115	23891.04
651.467	23804.04
651.819	23793.41
652.171	23769.69
652.523	23707.77
652.875	23754.77
653.227	23588.22
653.578	23851.04
653.93	23853.3
654.282	23738.73
654.633	23720.42
654.985	23794.77
655.337	23741.66
655.688	23708.9
656.039	23754.77
656.391	23556.58
656.742	23630.71
657.094	23646.98
657.445	23662.8
657.796	23650.14
658.147	23630.71
658.498	23667.77
658.849	23829.35
659.2	23625.51
659.551	23694.43
659.902	23926.74
660.253	23745.73
660.604	23859.85
660.955	23681.33
661.306	23924.26
661.656	23841.1
662.007	23764.26
662.358	23782.34
662.708	23802
663.059	23868.44
663.409	23648.78
663.76	23882.45
664.11	23913.18
664.461	23931.04
664.811	23969.23
665.161	23851.04
665.511	23865.05
665.862	23949.57
666.212	23964.03
666.562	23993.18
666.912	23947.53
667.262	23896.24
667.612	23848.55
667.962	24031.37
668.312	23964.03
668.662	23990.24
669.011	24029.11
669.361	23938.49
669.711	24022.11
670.06	23946.4
670.41	23895.11
670.76	23881.55
671.109	23995.89
671.459	23973.52
671.808	23936.01
672.157	23957.03
672.507	23685.17
672.856	23858.5
673.205	23839.74
673.554	23811.49
673.904	23778.73
674.253	23893.75
674.602	23806.07
674.951	23465.96
675.3	23342.13
675.649	23772.17
675.998	23807.2
676.346	23737.37
676.695	23827.99
677.044	23614.44
677.393	23686.75
677.741	23685.62
678.09	23571.27
678.438	23566.3
678.787	23621.22
679.135	23662.8
679.484	23419.19
679.832	23506.19
680.181	23371.05
680.529	23460.77
680.877	23307.1
681.225	23246.08
681.573	23510.48
681.922	23302.58
682.27	23261.22
682.618	23287.89
682.966	23196.82
683.314	23162.24
683.661	23098.06
684.009	23051.29
684.357	22944.17
684.705	22953.21
685.053	22854
685.4	22735.59
685.748	22788.24
686.095	22693.78
686.443	22667.12
686.79	22672.54
687.138	22646.78
687.485	22659.43
687.832	22508.02
688.18	22474.35
688.527	22380.57
688.874	22333.57
689.221	22293.11
689.568	22155.72
689.915	22156.39
690.262	22198.43
690.609	22054.02
690.956	21903.97
691.303	22002.5
691.65	21832.11
691.997	21725.67
692.344	21643.87
692.69	21637.54
693.037	21651.55
693.383	21438.45
693.73	21506.92
694.077	21312.58
694.423	21222.86
694.769	21194.39
695.116	21110.77
695.462	21019.93
695.808	20933.38
696.155	21020.38
696.501	20804.79
696.847	20857.67
697.193	20618.36
697.539	20694.51
697.885	20509.43
698.231	20399.38
698.577	20391.47
698.923	20370.68
699.269	20166.62
699.614	20208.42
699.96	20147.41
700.306	20073.29
700.651	19900.86
700.997	19781.32
701.342	19797.81
701.688	19783.8
702.033	19651.83
702.379	19573.41
702.724	19534.99
703.069	19571.83
703.415	19277.37
703.76	19331.38
704.105	19214.78
704.45	19154.44
704.795	19158.96
705.14	19150.6
705.485	19175.68
705.83	18888.68
706.175	19039.19
706.52	18857.27
706.865	18870.83
707.209	18821.57
707.554	18793.55
707.899	18765.75
708.243	18655.02
708.588	18591.06
708.932	18460.22
709.277	18562.59
709.621	18438.07
709.966	18329.15
710.31	18451.18
710.654	18283.73
710.998	18304.07
711.342	18377.06
711.687	18238.53
712.031	18238.08
712.375	18100.46
712.719	18116.95
713.063	18033.34
713.407	18164.41
713.75	18000.57
714.094	18033.11
714.438	17921.48
714.782	18033.57
715.125	17834.93
715.469	18113.11
715.812	17911.08
716.156	17811.42
716.499	17908.14
716.843	17824.31
717.186	17712.22
717.53	17822.72
717.873	17754.25
718.216	17784.08
718.559	17614.14
718.902	17530.75
719.246	17648.26
719.589	17571.43
719.932	17527.14
720.275	17603.52
720.617	17528.49
720.96	17484.88
721.303	17546.35
721.646	17646.68
721.989	17493.47
722.331	17629.73
722.674	17499.79
723.016	17533.01
723.359	17505.44
723.701	17437.65
724.044	17436.07
724.386	17272.23
724.729	17460.47
725.071	17427.25
725.413	17414.6
725.755	17404.66
726.097	17400.36
726.439	17367.82
726.782	17280.14
727.124	17474.48
727.465	17419.12
727.807	17422.73
728.149	17350.42
728.491	17381.83
728.833	17337.99
729.175	17410.3
729.516	17359.01
729.858	17409.85
730.199	17456.18
730.541	17326.24
730.882	17354.49
731.224	17515.16
731.565	17358.78
731.906	17434.49
732.248	17472.22
732.589	17357.42
732.93	17409.18
733.271	17451.43
733.612	17516.06
733.953	17526.01
734.294	17512
734.635	17449.4
734.976	17610.98
735.317	17570.3
735.658	17636.29
735.999	17663.86
736.339	17685.1
736.68	17597.87
737.021	17677.42
737.361	17587.25
737.702	17822.95
738.042	17800.35
738.383	17788.6
738.723	17881.7
739.063	17909.05
739.404	17965.09
739.744	17974.58
740.084	18013.9
740.424	18082.15
740.764	18187.91
741.104	18216.39
741.444	18188.14
741.784	18228.59
742.124	18399.66
742.464	18430.17
742.804	18407.57
743.143	18427.23
743.483	18737.95
743.823	18573.89
744.162	18716.71
744.502	18896.14
744.841	18974.11
745.181	19101.33
745.52	19033.99
745.86	19256.13
746.199	19404.15
746.538	19493.41
746.877	19645.27
747.216	19744.25
747.556	19923.01
747.895	20062.66
748.234	20124.13
748.573	20258.37
748.911	20450.22
749.25	20637.11
749.589	20720.5
749.928	20873.26
750.267	21077.78
750.605	21217.89
750.944	21446.58
751.283	21597.54
751.621	21831.88
751.96	21914.37
752.298	22206.56
752.636	22429.16
752.975	22523.16
753.313	22707.11
753.651	23049.25
753.989	23147.1
754.327	23498.96
754.666	23659.63
755.004	23863.02
