Data from 3278_FLMS001491_003.txt Node
Date: Thu Apr 19 15:16:06 BST 2018
User: hsy
Spectrometer: FLMS00149
Trigger mode: 0
Integration Time (sec): 1.000000E-2
Scans to average: 10
Electric dark correction enabled: true
Nonlinearity correction enabled: false
Boxcar width: 0
XAxis mode: Wavelengths
Number of Pixels in Spectrum: 2048
>>>>>Begin Spectral Data<<<<<
341.393	-4.97
341.776	-4.97
342.16	-4.97
342.543	-55.14
342.927	-50.17
343.31	-64.41
343.693	-74.35
344.077	-73.9
344.46	-84.07
344.843	-42.03
345.226	-29.15
345.61	-43.16
345.993	-7.91
346.376	-6.78
346.759	-2.71
347.142	49.94
347.525	44.97
347.908	58.08
348.291	77.06
348.674	94.01
349.057	104.4
349.44	132.43
349.823	159.77
350.206	184.18
350.588	251.07
350.971	256.26
351.354	268.47
351.737	272.08
352.119	284.96
352.502	294.91
352.884	309.37
353.267	327
353.65	341.69
354.032	323.83
354.414	360.44
354.797	352.76
355.179	356.37
355.562	359.76
355.944	362.7
356.326	385.3
356.709	383.72
357.091	382.59
357.473	388.92
357.855	386.2
358.238	376.71
358.62	378.52
359.002	394.34
359.384	396.6
359.766	382.59
360.148	377.62
360.53	384.85
360.912	359.54
361.294	392.98
361.676	385.07
362.057	388.46
362.439	375.58
362.821	379.65
363.203	383.04
363.584	355.7
363.966	364.51
364.348	370.61
364.729	386.43
365.111	371.97
365.493	353.44
365.874	367
366.256	379.43
366.637	374.68
367.019	357.96
367.4	382.36
367.781	372.87
368.163	373.78
368.544	399.99
368.925	369.71
369.306	378.3
369.688	367.9
370.069	378.97
370.45	376.49
370.831	363.61
371.212	375.13
371.593	357.5
371.974	370.61
372.355	349.6
372.736	389.37
373.117	386.88
373.498	390.72
373.879	390.5
374.26	378.75
374.641	371.29
375.021	384.17
375.402	378.75
375.783	396.6
376.163	388.69
376.544	407.22
376.925	410.84
377.305	408.58
377.686	412.19
378.066	383.27
378.447	406.99
378.827	412.64
379.208	417.84
379.588	400.67
379.968	426.2
380.349	397.5
380.729	425.98
381.109	412.42
381.489	435.69
381.87	412.19
382.25	422.36
382.63	442.02
383.01	421.68
383.39	443.83
383.77	434.79
384.15	449.71
384.53	451.51
384.91	432.98
385.29	457.62
385.67	470.95
386.049	470.04
386.429	456.49
386.809	467.11
387.189	456.03
387.568	475.69
387.948	468.24
388.328	471.85
388.707	484.96
389.087	476.37
389.466	501.91
389.846	508.69
390.225	479.31
390.605	490.38
390.984	501.23
391.363	487.67
391.743	494.22
392.122	510.27
392.501	508.91
392.881	495.81
393.26	526.99
393.639	525.86
394.018	525.18
394.397	535.58
394.776	531.29
395.155	533.09
395.534	549.59
395.913	557.5
396.292	548.91
396.671	533.77
397.05	553.43
397.429	569.02
397.808	572.87
398.186	558.4
398.565	573.77
398.944	577.39
399.323	606.31
399.701	592.3
400.08	581.45
400.458	601.11
400.837	604.73
401.215	597.27
401.594	625.07
401.972	635.24
402.351	639.08
402.729	629.59
403.107	634.56
403.486	641.57
403.864	618.74
404.242	647.21
404.62	648.57
404.999	650.83
405.377	686.54
405.755	679.98
406.133	682.24
406.511	689.25
406.889	699.87
407.267	724.5
407.645	706.87
408.023	721.34
408.401	701.9
408.779	740.55
409.156	726.99
409.534	757.49
409.912	764.73
410.29	766.76
410.667	754.1
411.045	769.25
411.422	785.29
411.8	805.18
412.178	788.68
412.555	803.59
412.933	794.78
413.31	834.33
413.687	817.15
414.065	858.96
414.442	849.02
414.819	889.47
415.197	851.5
415.574	896.47
415.951	884.04
416.328	890.15
416.705	907.09
417.082	902.8
417.46	903.71
417.837	922.91
418.214	959.75
418.591	931.05
418.967	948.9
419.344	950.03
419.721	962.23
420.098	951.39
420.475	976.7
420.852	962.01
421.228	997.04
421.605	996.58
421.982	988.45
422.358	1006.98
422.735	1025.74
423.111	1029.13
423.488	1048.33
423.864	1070.25
424.241	1077.03
424.617	1086.3
424.994	1086.3
425.37	1103.93
425.746	1110.93
426.123	1128.11
426.499	1120.87
426.875	1137.37
427.251	1131.5
427.627	1161.33
428.003	1181.89
428.379	1211.04
428.756	1176.01
429.132	1187.54
429.507	1222.11
429.883	1216.24
430.259	1240.87
430.635	1280.42
431.011	1280.64
431.387	1294.88
431.763	1322.68
432.138	1321.77
432.514	1320.64
432.89	1345.05
433.265	1398.61
433.641	1411.71
434.016	1392.73
434.392	1436.57
434.767	1466.4
435.143	1448.32
435.518	1475.89
435.894	1481.77
436.269	1528.32
436.644	1536.68
437.02	1556.8
437.395	1545.04
437.77	1557.25
438.145	1602.67
438.52	1594.99
438.895	1618.94
439.271	1582.56
439.646	1633.18
440.021	1637.7
440.395	1668.2
440.77	1661.88
441.145	1646.74
441.52	1698.49
441.895	1680.63
442.27	1699.16
442.645	1698.03
443.019	1760.41
443.394	1761.31
443.769	1790.24
444.143	1763.57
444.518	1814.19
444.892	1757.02
445.267	1798.37
445.641	1812.38
446.016	1846.05
446.39	1831.59
446.764	1835.21
447.139	1826.62
447.513	1874.98
447.887	1866.39
448.262	1907.97
448.636	1943.68
449.01	1933.73
449.384	1928.99
449.758	1975.09
450.132	1990.68
450.506	1997.24
450.88	2039.72
451.254	1988.42
451.628	2027.29
452.002	2060.51
452.376	2088.98
452.75	2103
453.123	2143.9
453.497	2175.31
453.871	2160.85
454.244	2251.69
454.618	2255.08
454.992	2275.42
455.365	2295.98
455.739	2293.27
456.112	2357.45
456.486	2408.07
456.859	2430.67
457.232	2452.82
457.606	2498.24
457.979	2533.49
458.352	2542.31
458.725	2586.6
459.099	2591.12
459.472	2651.23
459.845	2674.05
460.218	2689.19
460.591	2709.31
460.964	2712.92
461.337	2783.43
461.71	2864.56
462.083	2865.46
462.456	2883.77
462.829	2883.31
463.201	2959.24
463.574	2963.54
463.947	3005.34
464.32	3083.99
464.692	3091.44
465.065	3111.78
465.438	3162.4
465.81	3187.49
466.183	3254.38
466.555	3279.01
466.928	3326.24
467.3	3323.98
467.672	3363.08
468.045	3430.19
468.417	3439.91
468.789	3478.1
469.161	3542.51
469.534	3566.69
469.906	3647.59
470.278	3653.01
470.65	3730.98
471.022	3801.71
471.394	3800.8
471.766	3869.05
472.138	3913.57
472.51	4002.15
472.882	4068.14
473.253	4081.02
473.625	4197.63
473.997	4243.28
474.369	4264.97
474.74	4276.95
475.112	4432.88
475.484	4468.13
475.855	4556.72
476.227	4591.07
476.598	4741.34
476.97	4809.14
477.341	4879.65
477.713	4989.02
478.084	5017.27
478.455	5144.5
478.827	5194.67
479.198	5347.66
479.569	5410.03
479.94	5574.77
480.311	5685.95
480.682	5709.91
481.053	5901.99
481.424	5948.54
481.795	5998.71
482.166	6075.09
482.537	6258.82
482.908	6400.06
483.279	6452.49
483.65	6637.34
484.021	6777.67
484.391	6811.57
484.762	6936.99
485.133	7035.97
485.503	7140.83
485.874	7368.39
486.244	7513.25
486.615	7654.04
486.985	7758.89
487.356	7947.81
487.726	8012.22
488.097	8325.66
488.467	8308.71
488.837	8527.91
489.207	8727
489.578	8801.58
489.948	9061.91
490.318	9203.37
490.688	9318.85
491.058	9557.26
491.428	9706.41
491.798	9788.44
492.168	10082.67
492.538	10175.33
492.908	10423.68
493.278	10639.04
493.648	10760.17
494.017	10948.64
494.387	11144.11
494.757	11297.56
495.126	11500.71
495.496	11699.35
495.866	11909.07
496.235	12020.93
496.605	12248.04
496.974	12479.22
497.344	12697.07
497.713	12847.8
498.082	13049.37
498.452	13220.9
498.821	13458.4
499.19	13605.97
499.559	13850.03
499.928	14054.77
500.298	14246.18
500.667	14457.7
501.036	14605.49
501.405	14843.45
501.774	15016.1
502.143	15336.77
502.512	15505.81
502.88	15706.71
503.249	15804.1
503.618	16010.65
503.987	16209.29
504.356	16457.42
504.724	16740.8
505.093	16884.3
505.462	17013.34
505.83	17256.95
506.199	17383.27
506.567	17814.67
506.936	17909.13
507.304	18210.37
507.672	18369.23
508.041	18474.32
508.409	18799.73
508.777	19046.96
509.145	19277.46
509.514	19381.86
509.882	19496.21
510.25	19641.97
510.618	19953.6
510.986	20027.04
511.354	20290.99
511.722	20609.63
512.09	20688.72
512.458	20662.28
512.826	20917.19
513.193	21079.45
513.561	21198.09
513.929	21364.86
514.297	21697.51
514.664	21823.16
515.032	21994
515.4	22129.59
515.767	22233.09
516.135	22384.27
516.502	22151.28
516.869	22717.37
517.237	22727.99
517.604	22687.77
517.972	23116.68
518.339	23089.34
518.706	23202.55
519.073	23328.43
519.44	23424.02
519.808	23634.41
520.175	23769.32
520.542	23891.12
520.909	23933.61
521.276	23984.68
521.643	24294.28
522.009	24333.15
522.376	24480.49
522.743	24490.2
523.11	24757.77
523.477	25031.66
523.843	24996.86
524.21	25266.45
524.577	25360.69
524.943	25534.92
525.31	25487.47
525.676	25720.45
526.043	25784.86
526.409	25911.86
526.776	26018.3
527.142	26167.22
527.508	26286.09
527.874	26435.69
528.241	26428.46
528.607	26487.67
528.973	26676.36
529.339	26573.99
529.705	26841.33
530.071	26926.3
530.437	26989.57
530.803	27147.08
531.169	27200.87
531.535	27072.96
531.901	27263.92
532.267	27247.42
532.632	27266.63
532.998	27375.33
533.364	27369.22
533.73	27453.74
534.095	27591.14
534.461	27513.85
534.826	27645.83
535.192	27547.3
535.557	27727.18
535.923	27630.23
536.288	27667.07
536.653	27732.6
537.019	27420.07
537.384	27631.36
537.749	27530.35
538.114	27629.1
538.479	27530.8
538.845	27514.08
539.21	27477.47
539.575	27409.67
539.94	27554.76
540.305	27471.37
540.67	27436.34
541.034	27624.81
541.399	27549.33
541.764	27483.12
542.129	27455.32
542.494	27445.15
542.858	27430.69
543.223	27287.42
543.587	27345.72
543.952	27252.84
544.316	27311.37
544.681	27221.43
545.045	27280.19
545.41	27232.73
545.774	27059.4
546.138	26960.87
546.503	26957.26
546.867	27038.84
547.231	27035.45
547.595	26910.93
547.959	27014.43
548.324	26857.82
548.688	26881.55
549.052	26814.66
549.416	26734.89
549.779	26750.26
550.143	26621.22
550.507	26826.64
550.871	26737.83
551.235	26666.19
551.599	26908.67
551.962	26741.67
552.326	26711.61
552.689	26773.53
553.053	26430.72
553.417	26578.28
553.78	26635.46
554.143	26611.05
554.507	26588.91
554.87	26684.72
555.234	26744.61
555.597	26394.11
555.96	26484.73
556.323	26601.33
556.686	26619.87
557.05	26650.15
557.413	26642.01
557.776	26505.74
558.139	26694.44
558.502	26589.58
558.865	26584.39
559.228	26778.28
559.59	26686.53
559.953	26735.34
560.316	26841.55
560.679	26786.64
561.041	26836.81
561.404	26907.32
561.767	27093.75
562.129	26870.71
562.492	27100.98
562.854	26989.12
563.217	27033.64
563.579	27039.74
563.941	27204.93
564.304	27169.46
564.666	27404.7
565.028	27216.46
565.39	27361.54
565.753	27596.79
566.115	27544.59
566.477	27586.62
566.839	27748.42
567.201	27783.9
567.563	27778.03
567.925	27885.82
568.287	27880.85
568.648	27899.61
569.01	28182.99
569.372	28148.64
569.734	28187.51
570.095	28238.35
570.457	28385.02
570.819	28469.53
571.18	28266.6
571.542	28541.4
571.903	28527.39
572.265	28658
572.626	28600.6
572.987	28666.14
573.349	28699.81
573.71	28811.9
574.071	28964.66
574.432	28950.2
574.794	29070.2
575.155	29072.46
575.516	28959.92
575.877	29163.08
576.238	29123.08
576.599	29119.23
576.96	29173.7
577.32	29073.36
577.681	29334.82
578.042	29324.2
578.403	29295.5
578.763	29289.17
579.124	29388.83
579.485	29307.25
579.845	29421.15
580.206	29255.73
580.566	29397.65
580.927	29397.19
581.287	29523.07
581.648	29344.09
582.008	29451.2
582.368	29363.3
582.728	29468.38
583.089	29214.83
583.449	29278.55
583.809	29232
584.169	29393.58
584.529	29147.03
584.889	29436.74
585.249	29141.83
585.609	29042.85
585.969	29175.28
586.329	29140.25
586.688	29135.51
587.048	29047.37
587.408	29007.6
587.768	29036.52
588.127	28869.98
588.487	29003.08
588.846	29208.27
589.206	28725.35
589.565	28731.22
589.925	29035.39
590.284	28848.73
590.643	28860.71
591.003	28953.36
591.362	28973.93
591.721	28870.2
592.08	28861.39
592.44	28885.57
592.799	28803.31
593.158	28813.71
593.517	28747.04
593.876	28795.85
594.235	28755.18
594.593	28833.14
594.952	28827.72
595.311	28749.3
595.67	28730.09
596.029	28933.25
596.387	28810.99
596.746	28981.84
597.104	28795.18
597.463	28674.27
597.822	28936.87
598.18	28730.09
598.538	28559.48
598.897	28771.9
599.255	28674.05
599.613	28815.51
599.972	28609.19
600.33	28772.35
600.688	28678.12
601.046	28765.12
601.404	28945.91
601.762	28782.29
602.12	28949.97
602.478	28900.71
602.836	28779.13
603.194	28693.93
603.552	28774.38
603.91	28647.61
604.268	28850.09
604.625	28791.56
604.983	28969.41
605.341	28581.17
605.698	29000.14
606.056	29074.04
606.413	28820.94
606.771	29150.42
607.128	29073.59
607.485	28950.43
607.843	28998.56
608.2	29039.91
608.557	29088.95
608.914	29027.03
609.272	29139.12
609.629	29290.76
609.986	29441.49
610.343	29218.21
610.7	29430.64
611.057	29351.32
611.414	29363.52
611.771	29477.19
612.127	29611.65
612.484	29580.24
612.841	29620.46
613.198	29564.42
613.554	29451.65
613.911	29705.21
614.267	29709.28
614.624	29715.6
614.98	29797.18
615.337	29904.07
615.693	29888.48
616.05	29840.8
616.406	30055.93
616.762	30077.4
617.118	30018.87
617.475	29956.05
617.831	30062.94
618.187	30088.7
618.543	30227.23
618.899	30296.38
619.255	30167.57
619.611	30154.24
619.967	30334.12
620.323	30453.66
620.678	30299.77
621.034	30360.56
621.39	30309.49
621.746	30398.07
622.101	30502.93
622.457	30312.42
622.812	30532.76
623.168	30509.48
623.523	30502.93
623.879	30629.48
624.234	30441.23
624.589	30607.1
624.945	30517.16
625.3	30606.2
625.655	30530.72
626.01	30480.78
626.365	30597.61
626.72	30461.8
627.075	30533.21
627.43	30395.81
627.785	30501.12
628.14	30471.52
628.495	30599.87
628.85	30593.32
629.205	30534.79
629.559	30585.18
629.914	30512.19
630.269	30469.03
630.623	30302.48
630.978	30248.02
631.332	30386.32
631.687	30495.47
632.041	30380.22
632.396	30258.41
632.75	30098.87
633.104	30250.05
633.459	30094.12
633.813	30109.26
634.167	30052.09
634.521	30044.63
634.875	30095.93
635.229	30016.61
635.583	29937.74
635.937	29887.35
636.291	29794.24
636.645	29784.98
636.999	29705.43
637.352	29973.68
637.706	29687.13
638.06	29767.13
638.413	29715.6
638.767	29667.24
639.121	29650.29
639.474	29616.4
639.828	29631.99
640.181	29632.22
640.534	29755.38
640.888	29398.1
641.241	29293.92
641.594	29220.93
641.947	29350.19
642.301	29364.43
642.654	29253.69
643.007	29175.5
643.36	29269.06
643.713	29234.26
644.066	29402.16
644.419	29275.61
644.771	28709.53
645.124	28499.59
645.477	28526.93
645.83	28405.81
646.182	28562.41
646.535	28529.42
646.888	28660.26
647.24	28431.57
647.593	28560.15
647.945	28507.27
648.298	28390.44
648.65	28232.7
649.002	28087.17
649.355	27998.13
649.707	27858.7
650.059	27924.69
650.411	28239.94
650.763	28446.94
651.115	28848.96
651.467	28875.62
651.819	28670.66
652.171	28817.1
652.523	28584.56
652.875	28664.11
653.227	28637.21
653.578	28986.36
653.93	28752.69
654.282	28605.58
654.633	28604.9
654.985	28677.44
655.337	28673.6
655.688	28705.91
656.039	28643.31
656.391	28460.49
656.742	28511.11
657.094	28693.48
657.445	28586.14
657.796	28707.72
658.147	28663.2
658.498	28623.65
658.849	28741.84
659.2	28536.42
659.551	28411
659.902	28766.93
660.253	28572.36
660.604	28785.01
660.955	28559.7
661.306	28720.6
661.656	28680.83
662.007	28607.16
662.358	28726.48
662.708	28760.6
663.059	28773.25
663.409	28622.3
663.76	28786.36
664.11	28784.55
664.461	28902.74
664.811	28777.55
665.161	28759.47
665.511	28731.45
665.862	28640.6
666.212	28747.27
666.562	28873.14
666.912	28783.2
667.262	28662.52
667.612	28860.03
667.962	28701.84
668.312	28572.13
668.662	28885.79
669.011	28732.35
669.361	28888.05
669.711	28761.28
670.06	28789.3
670.41	28636.31
670.76	28727.15
671.109	28869.07
671.459	28762.63
671.808	28665.91
672.157	28816.19
672.507	28471.34
672.856	28568.06
673.205	28632.02
673.554	28730.09
673.904	28528.97
674.253	28698.68
674.602	28559.02
674.951	28225.02
675.3	28032.26
675.649	28626.14
675.998	28509.98
676.346	28515.86
676.695	28519.7
677.044	28432.7
677.393	28331.23
677.741	28514.5
678.09	28545.24
678.438	28315.87
678.787	28424.34
679.135	28361.06
679.484	28206.49
679.832	28109.09
680.181	28130.56
680.529	28127.85
680.877	28023.9
681.225	27952.49
681.573	28222.76
681.922	27991.81
682.27	27895.54
682.618	28003.11
682.966	27877.46
683.314	27838.59
683.661	27840.85
684.009	27724.47
684.357	27688.09
684.705	27613.74
685.053	27541.65
685.4	27395.66
685.748	27376
686.095	27325.84
686.443	27396.12
686.79	27112.28
687.138	27338.49
687.485	27180.98
687.832	27033.41
688.18	26978.27
688.527	26930.59
688.874	26904.6
689.221	26879.75
689.568	26767.21
689.915	26653.31
690.262	26746.42
690.609	26687.21
690.956	26419.19
691.303	26420.1
691.65	26280.21
691.997	26181.91
692.344	26207.9
692.69	25971.52
693.037	25927.91
693.383	25670.74
693.73	25832.32
694.077	25704.18
694.423	25708.48
694.769	25457.86
695.116	25576.28
695.462	25410.18
695.808	25273.91
696.155	25328.15
696.501	25044.31
696.847	25049.28
697.193	24962.73
697.539	25008.16
697.885	24769.97
698.231	24728.84
698.577	24598.68
698.923	24560.71
699.269	24288.85
699.614	24310.77
699.96	24259.02
700.306	24189.65
700.651	24079.37
700.997	23956.66
701.342	23881.41
701.688	23834.4
702.033	23701.75
702.379	23805.25
702.724	23626.95
703.069	23598.93
703.415	23349.89
703.76	23345.37
704.105	23302.66
704.45	23268.54
704.795	23212.72
705.14	23038.94
705.485	23130.24
705.83	22860.19
706.175	22984.25
706.52	22907.42
706.865	22712.4
707.209	22690.48
707.554	22631.95
707.899	22854.77
708.243	22577.49
708.588	22501.1
708.932	22345.18
709.277	22485.28
709.621	22375
709.966	22240.09
710.31	22351.05
710.654	22148.8
710.998	22095.46
711.342	22200.55
711.687	21920.55
712.031	21981.34
712.375	21878.52
712.719	21837.84
713.063	21850.27
713.407	21970.95
713.75	21713.33
714.094	21793.33
714.438	21724.63
714.782	21614.35
715.125	21520.11
715.469	21664.52
715.812	21490.06
716.156	21448.25
716.499	21558.98
716.843	21550.17
717.186	21513.56
717.53	21488.02
717.873	21452.09
718.216	21395.82
718.559	21383.84
718.902	21272.21
719.246	21264.53
719.589	21200.12
719.932	21063.63
720.275	21194.92
720.617	21163.29
720.96	21121.93
721.303	21193.34
721.646	21198.99
721.989	21047.58
722.331	21002.84
722.674	21078.54
723.016	21102.72
723.359	20931.43
723.701	21010.07
724.044	20973.23
724.386	20872.67
724.729	20971.88
725.071	20962.61
725.413	20929.17
725.755	20925.33
726.097	20841.26
726.439	20855.04
726.782	20911.31
727.124	20969.62
727.465	20899.11
727.807	20795.39
728.149	20781.6
728.491	20690.08
728.833	20902.28
729.175	20832.9
729.516	20787.48
729.858	20788.38
730.199	20881.03
730.541	20842.84
730.882	20816.63
731.224	20907.25
731.565	20875.16
731.906	20805.78
732.248	20937.98
732.589	20714.71
732.93	20872.22
733.271	20846.01
733.612	20943.4
733.953	20878.55
734.294	20869.06
734.635	20794.03
734.976	20998.09
735.317	20901.37
735.658	21002.84
735.999	20981.37
736.339	20962.84
736.68	21075.83
737.021	21026.11
737.361	21055.27
737.702	21131.42
738.042	21128.26
738.383	21179.78
738.723	21296.62
739.063	21192.89
739.404	21291.19
739.744	21351.75
740.084	21280.34
740.424	21412.32
740.764	21537.29
741.104	21623.84
741.444	21598.53
741.784	21558.3
742.124	21733.44
742.464	21746.55
742.804	21787.22
743.143	21785.19
743.483	21857.96
743.823	21983.6
744.162	22075.13
744.502	22211.39
744.841	22212.07
745.181	22363.25
745.52	22394.44
745.86	22608.45
746.199	22697.93
746.538	22788.55
746.877	23058.6
747.216	22993.29
747.556	23123.23
747.895	23328.2
748.234	23407.97
748.573	23480.51
748.911	23628.31
749.25	23812.48
749.589	23803.89
749.928	24142.42
750.267	24339.02
750.605	24483.65
750.944	24571.78
751.283	24853.36
751.621	25008.38
751.96	25150.98
752.298	25283.18
752.636	25610.4
752.975	25850.62
753.313	25830.73
753.651	26284.73
753.989	26305.75
754.327	26625.74
754.666	26681.11
