Data from 350_FLMS001491_002.txt Node
Date: Thu Apr 19 15:44:22 BST 2018
User: hsy
Spectrometer: FLMS00149
Trigger mode: 0
Integration Time (sec): 1.000000E-2
Scans to average: 10
Electric dark correction enabled: true
Nonlinearity correction enabled: false
Boxcar width: 0
XAxis mode: Wavelengths
Number of Pixels in Spectrum: 2048
>>>>>Begin Spectral Data<<<<<
341.393	-19.56
341.776	-19.56
342.16	-19.56
342.543	-56.85
342.927	-66.11
343.31	-60.46
343.693	-65.89
344.077	-62.27
344.46	-59.33
344.843	-57.07
345.226	-20.92
345.61	-32.67
345.993	-12.56
346.376	-29.5
346.759	16.82
347.142	33.54
347.525	54.56
347.908	37.61
348.291	69.7
348.674	83.71
349.057	104.73
349.44	116.03
349.823	140.89
350.206	172.75
350.588	217.27
350.971	225.86
351.354	227.89
351.737	251.84
352.119	267.21
352.502	266.53
352.884	291.84
353.267	296.36
353.65	311.73
354.032	330.49
354.414	341.56
354.797	359.41
355.179	368.22
355.562	348.11
355.944	340.88
356.326	352.18
356.709	349.92
357.091	366.87
357.473	366.87
357.855	342.46
358.238	370.03
358.62	357.83
359.002	357.6
359.384	354.89
359.766	351.73
360.148	348.79
360.53	374.55
360.912	362.35
361.294	354.67
361.676	361.9
362.057	366.19
362.439	364.16
362.821	367.09
363.203	364.16
363.584	369.58
363.966	379.98
364.348	380.65
364.729	355.57
365.111	358.06
365.493	377.26
365.874	345.17
366.256	336.14
366.637	339.98
367.019	363.03
367.4	366.42
367.781	347.89
368.163	350.15
368.544	349.69
368.925	362.35
369.306	358.28
369.688	347.66
370.069	341.33
370.45	339.75
370.831	360.77
371.212	349.69
371.593	358.28
371.974	346.3
372.355	345.63
372.736	370.48
373.117	359.41
373.498	353.76
373.879	380.88
374.26	357.15
374.641	332.52
375.021	349.69
375.402	382.24
375.783	396.92
376.163	367.77
376.544	398.96
376.925	393.31
377.305	385.17
377.686	386.53
378.066	395.34
378.447	374.1
378.827	386.98
379.208	374.33
379.588	416.13
379.968	387.43
380.349	391.95
380.729	400.09
381.109	403.7
381.489	408.68
381.87	397.38
382.25	401.44
382.63	426.75
383.01	400.54
383.39	426.75
383.77	401.67
384.15	415.68
384.53	414.55
384.91	417.72
385.29	443.93
385.67	432.86
386.049	445.96
386.429	418.84
386.809	448.22
387.189	433.53
387.568	452.74
387.948	449.35
388.328	447.09
388.707	456.58
389.087	446.41
389.466	452.52
389.846	467.88
390.225	462.46
390.605	474.66
390.984	489.58
391.363	477.83
391.743	468.79
392.122	498.39
392.501	488
392.881	491.84
393.26	519.18
393.639	497.94
394.018	475.79
394.397	500.65
394.776	488.9
395.155	499.07
395.534	490.71
395.913	495
396.292	511.95
396.671	515.79
397.05	520.09
397.429	521.89
397.808	513.53
398.186	535.68
398.565	527.77
398.944	523.02
399.323	550.59
399.701	542.91
400.08	542.46
400.458	541.33
400.837	529.12
401.215	566.86
401.594	561.89
401.972	566.86
402.351	561.21
402.729	574.55
403.107	571.38
403.486	563.93
403.864	584.94
404.242	584.26
404.62	577.94
404.999	594.21
405.377	590.14
405.755	593.08
406.133	602.12
406.511	600.08
406.889	623.36
407.267	623.36
407.645	612.06
408.023	643.02
408.401	648.22
408.779	641.21
409.156	665.62
409.534	654.54
409.912	663.36
410.29	688.22
410.667	673.75
411.045	689.8
411.422	701.1
411.8	700.19
412.178	701.1
412.555	730.7
412.933	715.56
413.31	749.23
413.687	752.62
414.065	745.16
414.442	746.97
414.819	758.05
415.197	779.74
415.574	783.81
415.951	773.19
416.328	795.78
416.705	774.77
417.082	797.59
417.46	788.33
417.837	795.11
418.214	803.69
418.591	814.54
418.967	832.39
419.344	819.29
419.721	829.68
420.098	835.56
420.475	845.73
420.852	856.8
421.228	846.18
421.605	867.65
421.982	857.7
422.358	869.45
422.735	882.79
423.111	856.12
423.488	897.93
423.864	896.12
424.241	906.06
424.617	893.86
424.994	949.23
425.37	925.72
425.746	940.41
426.123	938.38
426.499	966.63
426.875	951.03
427.251	989.23
427.627	1009.56
428.003	981.09
428.379	1000.3
428.756	1009.11
429.132	1023.8
429.507	1013.18
429.883	1053.4
430.259	1078.04
430.635	1065.16
431.011	1052.95
431.387	1106.28
431.763	1126.85
432.138	1108.09
432.514	1141.09
432.89	1130.46
433.265	1178.15
433.641	1169.11
434.016	1177.92
434.392	1181.08
434.767	1224.25
435.143	1217.02
435.518	1231.93
435.894	1239.39
436.269	1254.53
436.644	1290.23
437.02	1286.39
437.395	1284.81
437.77	1300.63
438.145	1309.89
438.52	1334.3
438.895	1351.02
439.271	1351.93
439.646	1362.1
440.021	1384.24
440.395	1386.73
440.77	1370.01
441.145	1380.4
441.52	1389.89
441.895	1391.7
442.27	1401.64
442.645	1396.45
443.019	1426.05
443.394	1417.24
443.769	1458.82
444.143	1436.67
444.518	1475.31
444.892	1453.17
445.267	1452.72
445.641	1500.17
446.016	1480.29
446.39	1512.83
446.764	1500.85
447.139	1521.64
447.513	1487.97
447.887	1527.97
448.262	1527.52
448.636	1541.3
449.01	1564.13
449.384	1589.44
449.758	1567.06
450.132	1599.15
450.506	1607.74
450.88	1629.66
451.254	1619.04
451.628	1629.21
452.002	1642.54
452.376	1659.04
452.75	1672.6
453.123	1685.25
453.497	1730
453.871	1740.62
454.244	1784.01
454.618	1804.35
454.992	1800.5
455.365	1833.05
455.739	1845.47
456.112	1870.33
456.486	1896.09
456.859	1887.05
457.232	1967.5
457.606	1934.51
457.979	1966.6
458.352	1995.75
458.725	2030.55
459.099	2002.98
459.472	2067.39
459.845	2085.24
460.218	2098.8
460.591	2127.73
460.964	2160.49
461.337	2164.79
461.71	2226.93
462.083	2237.55
462.456	2218.57
462.829	2246.14
463.201	2319.81
463.574	2296.76
463.947	2314.61
464.32	2365.46
464.692	2374.95
465.065	2392.8
465.438	2461.96
465.81	2477.77
466.183	2491.78
466.555	2520.48
466.928	2566.59
467.3	2547.6
467.672	2584.66
468.045	2643.19
468.417	2665.79
468.789	2691.78
469.161	2692.68
469.534	2764.77
469.906	2811.55
470.278	2793.92
470.65	2848.39
471.022	2881.61
471.394	2974.03
471.766	2971.32
472.138	3015.84
472.51	3071.66
472.882	3119.56
473.253	3141.26
473.625	3188.94
473.997	3245.89
474.369	3299.9
474.74	3315.49
475.112	3383.74
475.484	3421.7
475.855	3454.47
476.227	3523.4
476.598	3631.87
476.97	3605.43
477.341	3657.63
477.713	3765.88
478.084	3794.35
478.455	3844.07
478.827	3937.17
479.198	3984.63
479.569	4075.25
479.94	4114.79
480.311	4152.31
480.682	4275.69
481.053	4370.15
481.424	4442.24
481.795	4491.51
482.166	4526.76
482.537	4601.11
482.908	4715.91
483.279	4746.64
483.65	4844.94
484.021	4935.79
484.391	5009.68
484.762	5067.08
485.133	5126.74
485.503	5199.96
485.874	5348.88
486.244	5383.91
486.615	5466.85
486.985	5595.88
487.356	5662.32
487.726	5702.77
488.097	5880.17
488.467	5918.59
488.837	6031.8
489.207	6098.02
489.578	6226.15
489.948	6315.19
490.318	6351.34
490.688	6460.27
491.058	6511.79
491.428	6584.56
491.798	6712.92
492.168	6791.11
492.538	6915.17
492.908	6989.07
493.278	7056.41
493.648	7131.21
494.017	7241.72
494.387	7266.35
494.757	7401.26
495.126	7446
495.496	7604.87
495.866	7651.88
496.235	7744.53
496.605	7824.53
496.974	7860.23
497.344	7950.62
497.713	8015.48
498.082	8053.22
498.452	8161.47
498.821	8245.76
499.19	8279.66
499.559	8445.53
499.928	8481.23
500.298	8582.92
500.667	8601.68
501.036	8709.93
501.405	8756.03
501.774	8797.16
502.143	8917.38
502.512	8955.12
502.88	9068.56
503.249	9118.96
503.618	9203.02
503.987	9345.62
504.356	9354.66
504.724	9433.52
505.093	9462.45
505.462	9550.13
505.83	9565.27
506.199	9669.9
506.567	9867.18
506.936	9876.68
507.304	9959.16
507.672	10024.47
508.041	10033.28
508.409	10174.29
508.777	10284.35
509.145	10341.97
509.514	10396.66
509.882	10482.31
510.25	10599.14
510.618	10669.87
510.986	10657.22
511.354	10838.23
511.722	10949.19
512.09	11086.81
512.458	11056.76
512.826	11119.35
513.193	11252.46
513.561	11383.98
513.929	11404.77
514.297	11522.51
514.664	11678.21
515.032	11701.03
515.4	11782.39
515.767	11927.02
516.135	11953.91
516.502	11892.22
516.869	12185.09
517.237	12184.64
517.604	12185.99
517.972	12465.31
518.339	12459.43
518.706	12567.68
519.073	12577.4
519.44	12708.01
519.808	12883.83
520.175	12920.66
520.542	13043.15
520.909	13126.31
521.276	13283.59
521.643	13429.8
522.009	13484.72
522.376	13593.19
522.743	13751.6
523.11	13879.73
523.477	14037.24
523.843	14097.13
524.21	14304.13
524.577	14321.08
524.943	14470.23
525.31	14493.5
525.676	14778.47
526.043	14839.48
526.409	14954.28
526.776	15123.99
527.142	15173.94
527.508	15271.11
527.874	15337.77
528.241	15521.27
528.607	15556.53
528.973	15780.7
529.339	15849.17
529.705	16096.62
530.071	16180.92
530.437	16090.52
530.803	16312.89
531.169	16429.05
531.535	16539.1
531.901	16531.42
532.267	16631.07
532.632	16842.59
532.998	16864.06
533.364	16942.03
533.73	17017.5
534.095	17290.94
534.461	17169.59
534.826	17217.95
535.192	17277.84
535.557	17539.52
535.923	17543.59
536.288	17612.97
536.653	17773.87
537.019	17746.98
537.384	17814.55
537.749	17891.15
538.114	17937.48
538.479	17955.33
538.845	18181.09
539.21	18166.4
539.575	18198.26
539.94	18174.31
540.305	18344.48
540.67	18361.88
541.034	18422.21
541.399	18486.39
541.764	18597.12
542.129	18616.33
542.494	18659.72
542.858	18729.78
543.223	18768.87
543.587	18923.67
543.952	18866.72
544.316	18953.95
544.681	18981.52
545.045	19117.79
545.41	19261.06
545.774	19270.33
546.138	19258.58
546.503	19329.99
546.867	19331.79
547.231	19419.48
547.595	19515.74
547.959	19638.9
548.324	19544.44
548.688	19767.71
549.052	19635.51
549.416	19685.46
549.779	19775.17
550.143	19835.74
550.507	19928.84
550.871	20007.48
551.235	20066.69
551.599	20300.58
551.962	20237.76
552.326	20336.51
552.689	20487.7
553.053	20263.29
553.417	20508.26
553.78	20730.4
554.143	20620.35
554.507	20759.1
554.87	20805.88
555.234	20937.4
555.597	20964.52
555.96	21012.65
556.323	21120.22
556.686	21193.89
557.05	21366.09
557.413	21463.49
557.776	21513.43
558.139	21675.46
558.502	21758.4
558.865	21709.36
559.228	21891.05
559.59	21974.89
559.953	22016.02
560.316	22284.71
560.679	22228.67
561.041	22426.4
561.404	22543.23
561.767	22710.01
562.129	22655.77
562.492	22891.7
562.854	22978.48
563.217	22975.09
563.579	23129.21
563.941	23247.17
564.304	23226.83
564.666	23549.54
565.028	23540.27
565.39	23731.23
565.753	23853.93
566.115	23957.21
566.477	24000.15
566.839	24125.34
567.201	24340.7
567.563	24433.81
567.925	24529.85
568.287	24603.29
568.648	24613.01
569.01	24758.32
569.372	25013.23
569.734	24962.15
570.095	25159.89
570.457	25286.67
570.819	25323.73
571.18	25499.77
571.542	25710.84
571.903	25673.32
572.265	25664.06
572.626	26028.34
572.987	26030.37
573.349	26139.98
573.71	26226.98
574.071	26331.38
574.432	26522.79
574.794	26639.17
575.155	26702.45
575.516	26647.31
575.877	26727.08
576.238	26711.71
576.599	26929.79
576.96	27006.62
577.32	27123
577.681	27149.89
578.042	27246.16
578.403	27295.65
578.763	27205.26
579.124	27328.65
579.485	27533.61
579.845	27512.82
580.206	27496.55
580.566	27375.88
580.927	27522.54
581.287	27520.73
581.648	27483.44
582.008	27778.8
582.368	27646.83
582.728	27672.59
583.089	27645.02
583.449	27743.32
583.809	27728.41
584.169	27781.74
584.529	27678.92
584.889	27912.36
585.249	27654.51
585.609	27637.79
585.969	27869.2
586.329	27734.06
586.688	27882.08
587.048	27851.8
587.408	27818.35
587.768	27708.97
588.127	27730.67
588.487	27799.14
588.846	27981.51
589.206	27732.93
589.565	27681.63
589.925	27874.17
590.284	27729.54
590.643	27797.56
591.003	27810.89
591.362	27933.15
591.721	27831.46
592.08	27761.85
592.44	27828.29
592.799	27740.84
593.158	27741.52
593.517	27798.24
593.876	27734.74
594.235	27697.45
594.593	27797.56
594.952	27854.51
595.311	27699.94
595.67	27852.47
596.029	27898.57
596.387	27925.92
596.746	27925.69
597.104	27836.2
597.463	27807.73
597.822	27947.61
598.18	27812.93
598.538	27756.88
598.897	27964.11
599.255	27755.53
599.613	28205.91
599.972	27918.69
600.33	28045.46
600.688	28019.02
601.046	27862.42
601.404	28078.23
601.762	27976.54
602.12	28103.54
602.478	28174.95
602.836	28158.45
603.194	28019.93
603.552	27991
603.91	28147.83
604.268	28141.73
604.625	28073.94
604.983	28260.6
605.341	28082.75
605.698	28216.08
606.056	28385.12
606.413	28135.63
606.771	28475.06
607.128	28359.13
607.485	28174.95
607.843	28314.61
608.2	28436.19
608.557	28501.72
608.914	28403.65
609.272	28639.57
609.629	28709.85
609.986	28762.96
610.343	28633.92
610.7	28875.95
611.057	28668.27
611.414	28817.87
611.771	28967.25
612.127	28956.85
612.484	28894.48
612.841	28985.78
613.198	28846.12
613.554	28929.73
613.911	29106
614.267	29171.76
614.624	29005.89
614.98	29137.64
615.337	29334.92
615.693	29208.82
616.05	29204.53
616.406	29383.73
616.762	29479.1
617.118	29278.88
617.475	29337.41
617.831	29615.14
618.187	29520.9
618.543	29557.06
618.899	29664.18
619.255	29652.65
619.611	29597.96
619.967	29697.62
620.323	29798.86
620.678	29630.96
621.034	29778.75
621.39	29723.61
621.746	29719.09
622.101	29991.4
622.457	29732.88
622.812	29853.33
623.168	29957.73
623.523	29847
623.879	29992.08
624.234	29835.7
624.589	30011.97
624.945	29944.85
625.3	29962.93
625.655	29973.55
626.01	30003.6
626.365	29907.11
626.72	29866.66
627.075	29772.65
627.43	29865.75
627.785	29874.57
628.14	29821.46
628.495	29938.75
628.85	29930.84
629.205	29924.06
629.559	29997.95
629.914	29993.21
630.269	29903.27
630.623	29673.89
630.978	29610.85
631.332	29863.95
631.687	29809.03
632.041	29666.66
632.396	29792.31
632.75	29633.9
633.104	29736.49
633.459	29548.25
633.813	29502.15
634.167	29493.33
634.521	29567.91
634.875	29535.59
635.229	29483.84
635.583	29339.21
635.937	29334.47
636.291	29343.73
636.645	29339.21
636.999	29368.37
637.352	29289.72
637.706	29121.14
638.06	29199.33
638.413	29155.04
638.767	29004.99
639.121	29226.9
639.474	29017.64
639.828	28864.2
640.181	29042.73
640.534	28964.54
640.888	28836.18
641.241	28628.95
641.594	28864.65
641.947	28901.49
642.301	28754.37
642.654	28761.83
643.007	28624.43
643.36	28684.99
643.713	28735.16
644.066	28767.7
644.419	28616.3
644.771	28226.7
645.124	27946.71
645.477	27990.1
645.83	27979.02
646.182	28001.17
646.535	27925.24
646.888	27921.62
647.24	27874.62
647.593	28011.79
647.945	28047.95
648.298	27704.91
648.65	27548.75
649.002	27405.25
649.355	27143.34
649.707	27099.73
650.059	26958.71
650.411	27501.97
650.763	27726.83
651.115	28274.38
651.467	28126.36
651.819	28135.86
652.171	28145.8
652.523	27962.75
652.875	28053.82
653.227	27814.28
653.578	28082.07
653.93	27948.52
654.282	27985.58
654.633	27958.69
654.985	27966.82
655.337	27838.69
655.688	27882.08
656.039	28013.6
656.391	27542.2
656.742	27681.63
657.094	27737
657.445	27768.63
657.796	27800.5
658.147	27765.47
658.498	27790.78
658.849	27846.15
659.2	27788.52
659.551	27755.75
659.902	27805.24
660.253	27720.95
660.604	27783.55
660.955	27594.18
661.306	27797.33
661.656	27657.22
662.007	27715.08
662.358	27652.25
662.708	27713.04
663.059	27597.11
663.409	27567.06
663.76	27626.72
664.11	27686.15
664.461	27793.49
664.811	27882.76
665.161	27691.57
665.511	27713.72
665.862	27708.3
666.212	27815.86
666.562	27746.26
666.912	27788.75
667.262	27693.16
667.612	27700.84
667.962	27698.58
668.312	27699.48
668.662	27804.57
669.011	27593.05
669.361	27632.14
669.711	27587.4
670.06	27628.75
670.41	27676.89
670.76	27513.95
671.109	27639.37
671.459	27663.1
671.808	27617
672.157	27809.54
672.507	27486.16
672.856	27512.14
673.205	27504.23
673.554	27546.04
673.904	27411.36
674.253	27642.31
674.602	27439.83
674.951	27227.63
675.3	27124.58
675.649	27410.23
675.998	27498.13
676.346	27404.35
676.695	27495.2
677.044	27359.83
677.393	27317.12
677.741	27531.58
678.09	27376.55
678.438	27254.75
678.787	27301.3
679.135	27404.8
679.484	27221.08
679.832	27196.9
680.181	27070.35
680.529	27196.67
680.877	26999.84
681.225	27056.34
681.573	27217.01
681.922	26996.23
682.27	27103.12
682.618	27078.48
682.966	26892.73
683.314	26936.11
683.661	26919.84
684.009	26813.86
684.357	26762.33
684.705	26773.18
685.053	26724.37
685.4	26592.62
685.748	26589.23
686.095	26559.4
686.443	26245.06
686.79	26290.26
687.138	26373.87
687.485	26393.98
687.832	26291.38
688.18	26304.94
688.527	26044.16
688.874	26157.15
689.221	26050.04
689.568	25839.87
689.915	25775.47
690.262	25756.03
690.609	25685.3
690.956	25652.08
691.303	25783.38
691.65	25459.99
691.997	25492.54
692.344	25278.3
692.69	25297.51
693.037	25284.63
693.383	25102.26
693.73	25168.25
694.077	24993.34
694.423	25100.68
694.769	24890.52
695.116	24967.8
695.462	24719.22
695.808	24687.59
696.155	24725.32
696.501	24427.03
696.847	24629.51
697.193	24314.04
697.539	24322.85
697.885	24269.07
698.231	24141.39
698.577	24143.64
698.923	24047.15
699.269	23910.66
699.614	23894.61
699.96	23763.32
700.306	23856.87
700.651	23668.63
700.997	23602.42
701.342	23507.73
701.688	23482.19
702.033	23298.7
702.379	23348.86
702.724	23258.92
703.069	23341.86
703.415	23070.68
703.76	23098.47
704.105	22998.59
704.45	22967.4
704.795	22934.19
705.14	22801.53
705.485	22716.56
705.83	22600.63
706.175	22707.07
706.52	22597.92
706.865	22576.91
707.209	22343.47
707.554	22416.23
707.899	22257.14
708.243	22271.6
708.588	22251.72
708.932	22107.31
709.277	22163.36
709.621	22066.86
709.966	21885.4
710.31	21888.79
710.654	21725.4
710.998	21885.85
711.342	21927.21
711.687	21847.43
712.031	21705.97
712.375	21616.93
712.719	21543.04
713.063	21514.11
713.407	21571.51
713.75	21462.13
714.094	21530.61
714.438	21338.07
714.782	21309.6
715.125	21306.66
715.469	21380.55
715.812	21202.71
716.156	21176.04
716.499	21326.77
716.843	21210.16
717.186	21043.16
717.53	21115.02
717.873	21192.54
718.216	21119.77
718.559	20982.6
718.902	20897.18
719.246	20867.35
719.589	20934.24
719.932	20810.63
720.275	20795.71
720.617	20826.44
720.96	20768.14
721.303	20762.94
721.646	20804.3
721.989	20633
722.331	20658.31
722.674	20553.46
723.016	20560.01
723.359	20566.11
723.701	20565.43
724.044	20565.89
724.386	20495.15
724.729	20569.95
725.071	20508.71
725.413	20442.95
725.755	20383.52
726.097	20341.26
726.439	20298.1
726.782	20276.85
727.124	20434.82
727.465	20321.6
727.807	20190.98
728.149	20317.53
728.491	20285.67
728.833	20211.32
729.175	20193.01
729.516	20181.72
729.858	20298.1
730.199	20349.39
730.541	20219.91
730.882	20156.41
731.224	20223.97
731.565	20162.73
731.906	20132.9
732.248	20202.05
732.589	20071.66
732.93	20114.6
733.271	20087.93
733.612	20011.55
733.953	20092.45
734.294	20141.04
734.635	20040.7
734.976	20120.25
735.317	20005
735.658	20052.23
735.999	20004.32
736.339	19956.18
736.68	20070.31
737.021	20091.32
737.361	20027.59
737.702	20158.21
738.042	20073.47
738.383	20071.66
738.723	20097.42
739.063	20049.97
739.404	20095.84
739.744	20070.31
740.084	20083.86
740.424	20082.51
740.764	20026.01
741.104	20179
741.444	20037.99
741.784	20098.33
742.124	20101.49
742.464	19883.19
742.804	20094.03
743.143	20070.31
743.483	20094.71
743.823	20043.41
744.162	20054.26
744.502	20143.07
744.841	20099.91
745.181	20229.4
745.52	20093.36
745.86	20059.91
746.199	20049.97
746.538	20072.34
746.877	20190.53
747.216	20244.54
747.556	20241.83
747.895	20247.93
748.234	20298.32
748.573	20172
748.911	20271.88
749.25	20372.9
749.589	20184.2
749.928	20367.25
750.267	20406.12
750.605	20409.96
750.944	20462.84
751.283	20284.76
751.621	20361.37
751.96	20369.28
752.298	20454.25
752.636	20444.99
752.975	20502.16
753.313	20536.28
753.651	20634.58
753.989	20443.18
754.327	20563.17
754.666	20429.17
755.004	20607.92
755.342	20517.53
755.679	20713.23
