Data from 350_FLMS001491_006.txt Node
Date: Thu Apr 19 15:44:37 BST 2018
User: hsy
Spectrometer: FLMS00149
Trigger mode: 0
Integration Time (sec): 1.000000E-2
Scans to average: 10
Electric dark correction enabled: true
Nonlinearity correction enabled: false
Boxcar width: 0
XAxis mode: Wavelengths
Number of Pixels in Spectrum: 2048
>>>>>Begin Spectral Data<<<<<
341.393	14.28
341.776	14.28
342.16	14.28
342.543	-60.75
342.927	-70.01
343.31	-85.61
343.693	-79.5
344.077	-54.19
344.46	-62.78
344.843	-64.81
345.226	-37.02
345.61	-3.35
345.993	-18.71
346.376	-2.67
346.759	18.12
347.142	12.92
347.525	23.09
347.908	52.02
348.291	78.91
348.674	102.86
349.057	120.72
349.44	140.83
349.823	162.07
350.206	165.69
350.588	223.09
350.971	237.32
351.354	238
351.737	258.11
352.119	273.26
352.502	278
352.884	290.88
353.267	292.24
353.65	311.9
354.032	333.37
354.414	341.28
354.797	351.22
355.179	347.38
355.562	336.76
355.944	352.12
356.326	348.51
356.709	384.67
357.091	367.26
357.473	384.21
357.855	361.61
358.238	380.6
358.62	366.36
359.002	359.81
359.384	363.2
359.766	374.72
360.148	345.57
360.53	383.54
360.912	369.98
361.294	368.62
361.676	341.73
362.057	369.3
362.439	387.83
362.821	371.78
363.203	351.67
363.584	367.04
363.966	353.48
364.348	364.78
364.729	342.86
365.111	354.38
365.493	350.09
365.874	374.72
366.256	351.22
366.637	361.84
367.019	365.46
367.4	335.4
367.781	351.9
368.163	351.45
368.544	356.87
368.925	372.91
369.306	349.19
369.688	355.74
370.069	371.78
370.45	350.54
370.831	375.4
371.212	371.33
371.593	351.22
371.974	361.61
372.355	373.59
372.736	386.47
373.117	371.78
373.498	370.2
373.879	361.84
374.26	355.51
374.641	364.78
375.021	368.85
375.402	376.76
375.783	371.11
376.163	400.03
376.544	387.83
376.925	364.55
377.305	388.51
377.686	403.2
378.066	378.11
378.447	384.89
378.827	368.39
379.208	389.86
379.588	406.81
379.968	388.96
380.349	410.65
380.729	416.3
381.109	413.59
381.489	400.71
381.87	411.11
382.25	398.9
382.63	412.69
383.01	417.66
383.39	428.73
383.77	421.73
384.15	420.37
384.53	431.22
384.91	444.1
385.29	437.77
385.67	448.17
386.049	451.1
386.429	441.61
386.809	435.29
387.189	428.05
387.568	475.51
387.948	455.85
388.328	460.37
388.707	455.62
389.087	483.65
389.466	467.6
389.846	476.41
390.225	468.96
390.605	492.91
390.984	484.78
391.363	487.49
391.743	462.4
392.122	472.8
392.501	485.45
392.881	492.91
393.26	482.06
393.639	526.36
394.018	510.54
394.397	483.87
394.776	531.33
395.155	498.33
395.534	537.43
395.913	505.79
396.292	532.68
396.671	541.72
397.05	560.93
397.429	547.15
397.808	542.4
398.186	529.75
398.565	541.27
398.944	536.53
399.323	549.86
399.701	543.3
400.08	536.75
400.458	553.93
400.837	566.13
401.215	569.74
401.594	581.04
401.972	577.43
402.351	571.78
402.729	587.15
403.107	564.1
403.486	601.16
403.864	598.67
404.242	584.66
404.62	611.55
404.999	615.85
405.377	618.33
405.755	597.54
406.133	648.39
406.511	649.06
406.889	638.67
407.267	654.94
407.645	653.81
408.023	658.33
408.401	677.76
408.779	675.73
409.156	704.43
409.534	672.12
409.912	700.59
410.29	702.4
410.667	703.53
411.045	698.1
411.422	710.31
411.8	734.49
412.178	718.89
412.555	757.31
412.933	767.93
413.31	719.57
413.687	747.82
414.065	764.77
414.442	775.62
414.819	776.52
415.197	795.95
415.574	815.61
415.951	803.41
416.328	799.8
416.705	807.93
417.082	851.32
417.46	847.93
417.837	808.38
418.214	804.54
418.591	878.44
418.967	843.64
419.344	867.59
419.721	845.44
420.098	862.62
420.475	884.99
420.852	881.38
421.228	886.35
421.605	873.01
421.982	884.54
422.358	900.81
422.735	916.18
423.111	914.59
423.488	958.21
423.864	939.45
424.241	948.04
424.617	958.44
424.994	932.9
425.37	983.97
425.746	962.5
426.123	992.11
426.499	1004.54
426.875	998.21
427.251	1034.14
427.627	1025.33
428.003	1021.94
428.379	1045.44
428.756	1047.02
429.132	1041.14
429.507	1122.95
429.883	1070.07
430.259	1131.76
430.635	1109.17
431.011	1109.39
431.387	1130.18
431.763	1176.96
432.138	1180.8
432.514	1192.78
432.89	1176.73
433.265	1204.3
433.641	1212.89
434.016	1256.51
434.392	1261.93
434.767	1263.06
435.143	1252.89
435.518	1289.05
435.894	1306.67
436.269	1314.58
436.644	1345.54
437.02	1346.45
437.395	1346.22
437.77	1351.19
438.145	1366.33
438.52	1381.47
438.895	1391.87
439.271	1382.6
439.646	1404.53
440.021	1397.97
440.395	1402.49
440.77	1423.96
441.145	1415.82
441.52	1471.64
441.895	1480.46
442.27	1477.74
442.645	1461.02
443.019	1500.57
443.394	1500.57
443.769	1504.18
444.143	1507.12
444.518	1530.17
444.892	1524.07
445.267	1538.08
445.641	1562.94
446.016	1546.44
446.39	1541.7
446.764	1577.85
447.139	1579.66
447.513	1600.45
447.887	1610.4
448.262	1595.25
448.636	1607.23
449.01	1632.99
449.384	1658.98
449.758	1659.66
450.132	1691.3
450.506	1691.3
450.88	1674.8
451.254	1680.22
451.628	1730.39
452.002	1749.37
452.376	1768.81
452.75	1782.37
453.123	1783.95
453.497	1827.11
453.871	1824.4
454.244	1894
454.618	1905.98
454.992	1936.26
455.365	1950.05
455.739	1939.43
456.112	1973.32
456.486	1991.18
456.859	2009.93
457.232	2049.25
457.606	2046.54
457.979	2091.74
458.352	2131.96
458.725	2145.75
459.099	2145.75
459.472	2190.95
459.845	2215.8
460.218	2189.82
460.591	2272.52
460.964	2287.89
461.337	2298.06
461.71	2347.55
462.083	2372.86
462.456	2386.65
462.829	2406.53
463.201	2420.09
463.574	2447.44
463.947	2471.84
464.32	2460.99
464.692	2531.5
465.065	2557.26
465.438	2587.54
465.81	2629.35
466.183	2661.67
466.555	2667.09
466.928	2708.9
467.3	2696.24
467.672	2764.49
468.045	2847.88
468.417	2807.43
468.789	2857.59
469.161	2829.12
469.534	2923.58
469.906	2984.37
470.278	2968.55
470.65	3058.49
471.022	3065.95
471.394	3115.67
471.766	3162.67
472.138	3167.19
472.51	3255.78
472.882	3266.85
473.253	3272.72
473.625	3360.86
473.997	3405.83
474.369	3458.03
474.74	3502.78
475.112	3575.09
475.484	3593.85
475.855	3668.42
476.227	3698.7
476.598	3812.37
476.97	3797
477.341	3912.03
477.713	3952.93
478.084	4018.69
478.455	4054.4
478.827	4160.61
479.198	4213.94
479.569	4262.76
479.94	4395.18
480.311	4453.26
480.682	4522.41
481.053	4631.11
481.424	4682.63
481.795	4730.99
482.166	4772.12
482.537	4903.42
482.908	5027.25
483.279	5067.25
483.65	5163.52
484.021	5181.15
484.391	5286.01
484.762	5334.37
485.133	5389.51
485.503	5562.83
485.874	5647.8
486.244	5723.51
486.615	5823.17
486.985	5885.76
487.356	5959.66
487.726	6029.26
488.097	6197.39
488.467	6238.75
488.837	6358.07
489.207	6475.35
489.578	6579.08
489.948	6619.76
490.318	6723.93
490.688	6730.03
491.058	6883.25
491.428	6964.38
491.798	7066.3
492.168	7263.35
492.538	7286.63
492.908	7427.19
493.278	7449.34
493.648	7543.57
494.017	7656.56
494.387	7752.15
494.757	7819.5
495.126	7946.27
495.496	7980.17
495.866	8120.96
496.235	8086.38
496.605	8246.38
496.974	8334.51
497.344	8392.59
497.713	8522.76
498.082	8505.58
498.452	8604.56
498.821	8671.9
499.19	8863.54
499.559	8871.67
499.928	8866.7
500.298	9000.03
500.667	9090.88
501.036	9194.6
501.405	9255.17
501.774	9295.84
502.143	9379
502.512	9496.29
502.88	9585.1
503.249	9588.49
503.618	9708.49
503.987	9683.4
504.356	9866.45
504.724	9923.85
505.093	9953.45
505.462	10029.38
505.83	10094.47
506.199	10275.7
506.567	10370.39
506.936	10367.23
507.304	10432.76
507.672	10553.44
508.041	10662.81
508.409	10815.13
508.777	10821
509.145	10941.9
509.514	10898.06
509.882	11048.11
510.25	11161.33
510.618	11339.63
510.986	11277.03
511.354	11400.19
511.722	11535.33
512.09	11606.74
512.458	11582.11
512.826	11790.69
513.193	11852.61
513.561	11892.84
513.929	11966.96
514.297	12147.52
514.664	12192.94
515.032	12293.73
515.4	12518.81
515.767	12501.41
516.135	12528.07
516.502	12563.78
516.869	12751.8
517.237	12905.24
517.604	12749.31
517.972	13061.62
518.339	13132.13
518.706	13217.32
519.073	13291.67
519.44	13279.92
519.808	13496.64
520.175	13542.06
520.542	13715.61
520.909	13769.62
521.276	13852.79
521.643	14045.1
522.009	14189.5
522.376	14220.01
522.743	14398.31
523.11	14457.06
523.477	14731.63
523.843	14728.47
524.21	14909.25
524.577	15068.8
524.943	15103.37
525.31	15225.18
525.676	15424.5
526.043	15588.11
526.409	15633.08
526.776	15791.49
527.142	15907.42
527.508	16002.33
527.874	16124.36
528.241	16245.04
528.607	16339.95
528.973	16511.7
529.339	16583.79
529.705	16722.31
530.071	16876.43
530.437	16919.6
530.803	17043.89
531.169	17134.06
531.535	17192.36
531.901	17333.6
532.267	17321.39
532.632	17516.87
532.998	17563.65
533.364	17673.7
533.73	17705.79
534.095	17835.28
534.461	17943.75
534.826	17970.19
535.192	18039.57
535.557	18218.77
535.923	18220.35
536.288	18333.12
536.653	18410.86
537.019	18447.92
537.384	18500.57
537.749	18541.48
538.114	18570.4
538.479	18654.02
538.845	18805.2
539.21	18794.12
539.575	18865.31
539.94	18904.86
540.305	19029.37
540.67	19050.84
541.034	19134
541.399	19122.03
541.764	19181.01
542.129	19214.9
542.494	19358.86
542.858	19428.23
543.223	19408.35
543.587	19491.28
543.952	19574.89
544.316	19607.44
544.681	19619.87
545.045	19847.43
545.41	19854.21
545.774	19790.71
546.138	19830.93
546.503	19979.86
546.867	19999.74
547.231	20143.24
547.595	20146.63
547.959	20204.48
548.324	20287.19
548.688	20285.38
549.052	20385.04
549.416	20457.36
549.779	20466.85
550.143	20545.94
550.507	20576.68
550.871	20690.12
551.235	20726.73
551.599	20767.86
551.962	20885.59
552.326	20994.07
552.689	20997.23
553.053	20989.77
553.417	21124.46
553.78	21316.54
554.143	21332.59
554.507	21466.14
554.87	21452.36
555.234	21581.85
555.597	21534.84
555.96	21676.76
556.323	21725.35
556.686	21732.8
557.05	21872.24
557.413	22022.74
557.776	22018.22
558.139	22374.14
558.502	22333.92
558.865	22358.32
559.228	22560.35
559.59	22561.26
559.953	22742.72
560.316	22866.56
560.679	22879.21
561.041	22954.69
561.404	23255.7
561.767	23263.39
562.129	23330.28
562.492	23449.82
562.854	23546.77
563.217	23677.39
563.579	23757.16
563.941	23799.87
564.304	23960.77
564.666	24237.15
565.028	24173.64
565.39	24233.53
565.753	24435.33
566.115	24532.96
566.477	24676.23
566.839	24833.51
567.201	25117.57
567.563	25018.14
567.925	25178.36
568.287	25245.25
568.648	25314.41
569.01	25484.12
569.372	25691.57
569.734	25653.61
570.095	25860.61
570.457	26013.14
570.819	26095.63
571.18	26059.47
571.542	26304.44
571.903	26313.93
572.265	26391.66
572.626	26608.16
572.987	26576.52
573.349	26745.78
573.71	26984.42
574.071	26971.54
574.432	27128.59
574.794	27357.97
575.155	27341.02
575.516	27235.71
575.877	27355.71
576.238	27415.59
576.599	27524.97
576.96	27563.39
577.32	27664.63
577.681	27751.86
578.042	27827.56
578.403	27830.5
578.763	27823.49
579.124	27949.14
579.485	28051.06
579.845	28213.54
580.206	28080.66
580.566	28018.74
580.927	28320.65
581.287	28285.63
581.648	28120.21
582.008	28401.56
582.368	28374.89
582.728	28406.75
583.089	28300.09
583.449	28417.83
583.809	28397.94
584.169	28567.88
584.529	28361.33
584.889	28550.48
585.249	28427.32
585.609	28279.98
585.969	28505.73
586.329	28237.49
586.688	28366.98
587.048	28357.26
587.408	28378.51
587.768	28469.8
588.127	28463.47
588.487	28367.88
588.846	28682.23
589.206	28445.62
589.565	28421.67
589.925	28537.15
590.284	28422.57
590.643	28404.27
591.003	28408.11
591.362	28591.38
591.721	28448.79
592.08	28476.81
592.44	28599.52
592.799	28588.9
593.158	28341.44
593.517	28451.27
593.876	28533.08
594.235	28348.68
594.593	28537.82
594.952	28572.62
595.311	28403.36
595.67	28593.87
596.029	28708.89
596.387	28622.79
596.746	28773.07
597.104	28456.92
597.463	28509.58
597.822	28677.25
598.18	28407.43
598.538	28570.36
598.897	28632.74
599.255	28445.17
599.613	28842.45
599.972	28717.93
600.33	28614.43
600.688	28526.75
601.046	28696.01
601.404	28900.98
601.762	28565.39
602.12	28722
602.478	28692.85
602.836	28736.69
603.194	28617.59
603.552	28694.88
603.91	28620.08
604.268	28847.87
604.625	28699.17
604.983	28856.46
605.341	28659.4
605.698	28903.69
606.056	29096.45
606.413	28872.73
606.771	28995.21
607.128	28955.44
607.485	28788.44
607.843	28839.28
608.2	29091.93
608.557	29341.42
608.914	29078.37
609.272	29267.52
609.629	29438.59
609.986	29383.45
610.343	29272.72
610.7	29446.05
611.057	29345.26
611.414	29220.74
611.771	29468.65
612.127	29444.47
612.484	29607.17
612.841	29757.9
613.198	29598.36
613.554	29611.69
613.911	29764.68
614.267	29736.66
614.624	29712.93
614.98	29712.71
615.337	29986.82
615.693	29874.51
616.05	29939.59
616.406	30026.6
616.762	29864.57
617.118	29952.48
617.475	29981.63
617.831	30274.05
618.187	30199.7
618.543	30192.47
618.899	30275.18
619.255	30276.76
619.611	30209.87
619.967	30483.08
620.323	30432.69
620.678	30364.89
621.034	30352.01
621.39	30199.93
621.746	30357.66
622.101	30641.95
622.457	30461.61
622.812	30615.28
623.168	30634.04
623.523	30461.39
623.879	30548.84
624.234	30526.7
624.589	30617.09
624.945	30635.85
625.3	30610.54
625.655	30679.46
626.01	30614.83
626.365	30722.62
626.72	30643.53
627.075	30527.83
627.43	30617.32
627.785	30437.66
628.14	30544.78
628.495	30605.34
628.85	30680.37
629.205	30546.58
629.559	30596.75
629.914	30406.25
630.269	30471.56
630.623	30175.97
630.978	30362.41
631.332	30531.44
631.687	30477.43
632.041	30420.71
632.396	30410.77
632.75	30312.69
633.104	30342.97
633.459	30173.26
633.813	30208.29
634.167	30114.5
634.521	30104.34
634.875	30199.25
635.229	30165.12
635.583	30028.41
635.937	30048.74
636.291	29946.6
636.645	29885.36
636.999	29794.97
637.352	29842.42
637.706	29776.66
638.06	29869.99
638.413	29714.52
638.767	29680.62
639.121	29800.16
639.474	29480.85
639.828	29713.16
640.181	29526.5
640.534	29649.21
640.888	29410.79
641.241	29435.43
641.594	29336.67
641.947	29468.87
642.301	29257.35
642.654	29232.72
643.007	29237.24
643.36	29305.49
643.713	29237.24
644.066	29321.53
644.419	29186.39
644.771	28711.83
645.124	28496.69
645.477	28490.82
645.83	28512.29
646.182	28557.48
646.535	28392.74
646.888	28463.25
647.24	28415.57
647.593	28554.77
647.945	28542.34
648.298	28464.15
648.65	28206.76
649.002	27916.82
649.355	27709.37
649.707	27722.48
650.059	27592.09
650.411	28033.2
650.763	28275.23
651.115	28699.63
651.467	28605.39
651.819	28549.57
652.171	28518.39
652.523	28457.37
652.875	28493.76
653.227	28519.97
653.578	28586.64
653.93	28501.67
654.282	28332.86
654.633	28460.99
654.985	28352.74
655.337	28270.26
655.688	28194.1
656.039	28393.19
656.391	28228
656.742	28235.68
657.094	28210.37
657.445	28420.76
657.796	28308.22
658.147	28159.98
658.498	28335.12
658.849	28350.26
659.2	28174.22
659.551	28025.97
659.902	28363.59
660.253	28230.03
660.604	28255.34
660.955	28095.35
661.306	28340.99
661.656	28175.35
662.007	28278.17
662.358	28208.11
662.708	28248.57
663.059	28261.67
663.409	28073.65
663.76	28344.38
664.11	28273.42
664.461	28295.8
664.811	28264.84
665.161	28276.14
665.511	28179.87
665.862	28198.4
666.212	28313.65
666.562	28229.81
666.912	28227.77
667.262	28082.02
667.612	28180.32
667.962	28215.12
668.312	28058.74
668.662	28208.79
669.011	28178.06
669.361	28195.91
669.711	28190.71
670.06	28030.49
670.41	27971.28
670.76	27976.93
671.109	28172.63
671.459	28174.67
671.808	28119.53
672.157	28195.69
672.507	27960.89
672.856	28054.9
673.205	27866.65
673.554	28049.93
673.904	27946.43
674.253	28143.71
674.602	27938.29
674.951	27689.03
675.3	27555.7
675.649	27953.21
675.998	27877.05
676.346	28003.83
676.695	27976.26
677.044	27859.87
677.393	27854.68
677.741	27935.81
678.09	27804.06
678.438	27782.81
678.787	27756.83
679.135	27874.11
679.484	27651.52
679.832	27720.9
680.181	27686.55
680.529	27677.96
680.877	27484.97
681.225	27505.76
681.573	27797.73
681.922	27560.45
682.27	27430.28
682.618	27504.18
682.966	27399.55
683.314	27422.6
683.661	27504.86
684.009	27278.2
684.357	27262.15
684.705	26995.04
685.053	27116.17
685.4	27043.17
685.748	26928.37
686.095	27022.16
686.443	26875.27
686.79	26807.93
687.138	26922.05
687.485	26847.47
687.832	26558.89
688.18	26793.24
688.527	26656.52
688.874	26580.59
689.221	26451.78
689.568	26266.02
689.915	26313.02
690.262	26331.33
690.609	26351.89
690.956	26117.32
691.303	26056.53
691.65	26009.98
691.997	25851.11
692.344	25855.63
692.69	25801.17
693.037	25683.21
693.383	25511.91
693.73	25615.64
694.077	25299.04
694.423	25462.65
694.769	25184.69
695.116	25288.64
695.462	25205.71
695.808	25057.91
696.155	25080.29
696.501	24887.52
696.847	24904.02
697.193	24766.4
697.539	24729.34
697.885	24686.62
698.231	24584.25
698.577	24524.14
698.923	24511.04
699.269	24242.34
699.614	24234.89
699.96	24165.96
700.306	24086.64
700.651	23926.42
700.997	23924.16
701.342	23906.53
701.688	23817.27
702.033	23749.47
702.379	23684.62
702.724	23591.74
703.069	23574.34
703.415	23412.08
703.76	23368.47
704.105	23367.56
704.45	23251.18
704.795	23159.43
705.14	23147
705.485	23141.13
705.83	22995.6
706.175	23069.72
706.52	22977.74
706.865	22865.66
707.209	22781.36
707.554	22703.4
707.899	22702.04
708.243	22693.91
708.588	22632.22
708.932	22452.56
709.277	22487.36
709.621	22345.9
709.966	22256.18
710.31	22303.18
710.654	22170.98
710.998	22261.15
711.342	22195.62
711.687	22175.05
712.031	21980.93
712.375	21972.57
712.719	22068.16
713.063	21908.39
713.407	22018.67
713.75	21777.55
714.094	21787.27
714.438	21625.46
714.782	21655.97
715.125	21643.32
715.469	21800.15
715.812	21550.44
716.156	21525.58
716.499	21446.26
716.843	21492.36
717.186	21377.79
717.53	21538.69
717.873	21452.81
718.216	21448.52
718.559	21312.48
718.902	21167.85
719.246	21215.3
719.589	21144.35
719.932	21154.97
720.275	21132.37
720.617	21071.35
720.96	21147.06
721.303	21052.6
721.646	21093.27
721.989	21017.34
722.331	21119.04
722.674	20881.53
723.016	20999.04
723.359	20937.12
723.701	20990.45
724.044	20924.69
724.386	20745.49
724.729	20926.95
725.071	20848.53
725.413	20770.34
725.755	20786.16
726.097	20675.43
726.439	20613.06
726.782	20626.84
727.124	20846.95
727.465	20714.3
727.807	20641.08
728.149	20636.11
728.491	20492.84
728.833	20659.16
729.175	20516.79
729.516	20506.17
729.858	20542.33
730.199	20582.33
730.541	20491.93
730.882	20360.41
731.224	20453.29
731.565	20395.66
731.906	20443.8
732.248	20556.56
732.589	20393.86
732.93	20373.74
733.271	20336.91
733.612	20445.61
733.953	20396.34
734.294	20404.7
734.635	20348.21
734.976	20476.79
735.317	20419.17
735.658	20246.97
735.999	20368.77
736.339	20339.39
736.68	20376.46
737.021	20270.02
737.361	20228.89
737.702	20298.27
738.042	20360.41
738.383	20320.19
738.723	20326.06
739.063	20277.93
739.404	20476.57
739.744	20346.4
740.084	20234.09
740.424	20312.28
740.764	20276.57
741.104	20458.04
741.444	20343.01
741.784	20226.86
742.124	20320.19
742.464	20244.93
742.804	20393.63
743.143	20419.84
743.483	20389.56
743.823	20238.83
744.162	20321.54
744.502	20412.39
744.841	20291.26
745.181	20451.48
745.52	20331.26
745.86	20474.98
746.199	20378.94
746.538	20422.33
746.877	20550.01
747.216	20524.25
747.556	20435.21
747.895	20613.51
748.234	20567.41
748.573	20593.17
748.911	20509.33
749.25	20592.95
749.589	20558.15
749.928	20649.44
750.267	20654.87
750.605	20603.57
750.944	20720.4
751.283	20640.18
751.621	20758.59
751.96	20687.63
752.298	20743.9
752.636	20833.62
752.975	20766.73
753.313	20709.78
753.651	20943.9
753.989	20900.96
754.327	20898.48
754.666	20849.44
755.004	20971.02
755.342	20998.59
