Data from 350_FLMS001491_005.txt Node
Date: Thu Apr 19 15:44:34 BST 2018
User: hsy
Spectrometer: FLMS00149
Trigger mode: 0
Integration Time (sec): 1.000000E-2
Scans to average: 10
Electric dark correction enabled: true
Nonlinearity correction enabled: false
Boxcar width: 0
XAxis mode: Wavelengths
Number of Pixels in Spectrum: 2048
>>>>>Begin Spectral Data<<<<<
341.393	-3.52
341.776	-3.52
342.16	-3.52
342.543	-71.99
342.927	-78.54
343.31	-64.76
343.693	-48.71
344.077	-68.83
344.46	-56.62
344.843	-30.86
345.226	-64.53
345.61	-32.89
345.993	-20.01
346.376	2.58
346.759	9.14
347.142	18.63
347.525	41
347.908	44.62
348.291	79.87
348.674	86.88
349.057	104.5
349.44	118.51
349.823	119.87
350.206	140.43
350.588	181.34
350.971	205.29
351.354	258.62
351.737	245.97
352.119	244.61
352.502	274.89
352.884	310.83
353.267	307.89
353.65	325.97
354.032	318.73
354.414	300.43
354.797	330.03
355.179	352.41
355.562	332.29
355.944	343.82
356.326	341.33
356.709	331.39
357.091	350.37
357.473	354.89
357.855	370.26
358.238	342.01
358.62	357.15
359.002	346.53
359.384	371.84
359.766	351.28
360.148	365.96
360.53	367.77
360.912	346.98
361.294	365.29
361.676	343.37
362.057	355.12
362.439	352.18
362.821	339.52
363.203	343.37
363.584	349.02
363.966	336.36
364.348	333.2
364.729	364.38
365.111	364.61
365.493	333.2
365.874	351.05
366.256	354.21
366.637	337.72
367.019	364.61
367.4	375.23
367.781	360.54
368.163	356.93
368.544	350.15
368.925	347.43
369.306	359.41
369.688	361.67
370.069	348.34
370.45	344.27
370.831	346.08
371.212	350.37
371.593	355.57
371.974	365.06
372.355	352.41
372.736	366.19
373.117	360.99
373.498	360.77
373.879	369.13
374.26	358.51
374.641	351.05
375.021	358.28
375.402	364.16
375.783	380.65
376.163	387.43
376.544	396.25
376.925	381.56
377.305	371.39
377.686	377.49
378.066	396.92
378.447	380.88
378.827	381.11
379.208	391.5
379.588	390.6
379.968	396.7
380.349	386.76
380.729	375.23
381.109	428.56
381.489	395.79
381.87	389.69
382.25	393.76
382.63	386.08
383.01	396.47
383.39	402.57
383.77	418.62
384.15	419.07
384.53	421.33
384.91	420.65
385.29	451.84
385.67	434.89
386.049	454.32
386.429	452.29
386.809	408.9
387.189	445.51
387.568	445.96
387.948	437.15
388.328	432.63
388.707	447.54
389.087	461.33
389.466	446.64
389.846	464.95
390.225	449.58
390.605	472.63
390.984	474.66
391.363	478.5
391.743	466.98
392.122	488.9
392.501	493.87
392.881	496.36
393.26	474.21
393.639	515.79
394.018	471.72
394.397	477.83
394.776	495.68
395.155	505.4
395.534	498.16
395.913	525.51
396.292	503.14
396.671	516.7
397.05	551.95
397.429	523.93
397.808	518.28
398.186	520.76
398.565	542.68
398.944	524.83
399.323	533.42
399.701	534.55
400.08	531.16
400.458	546.07
400.837	562.12
401.215	556.69
401.594	533.87
401.972	560.99
402.351	574.55
402.729	567.54
403.107	555.56
403.486	567.77
403.864	585.62
404.242	572.97
404.62	594.21
404.999	588.78
405.377	596.24
405.755	603.7
406.133	604.83
406.511	619.07
406.889	618.39
407.267	625.17
407.645	635.79
408.023	620.87
408.401	640.31
408.779	645.28
409.156	666.52
409.534	660.42
409.912	676.47
410.29	674.43
410.667	700.19
411.045	687.09
411.422	675.56
411.8	707.65
412.178	711.27
412.555	690.25
412.933	719.18
413.31	723.47
413.687	739.97
414.065	746.07
414.442	752.17
414.819	757.14
415.197	768.89
415.574	773.64
415.951	774.09
416.328	803.24
416.705	787.87
417.082	792.17
417.46	803.02
417.837	824.48
418.214	802.11
418.591	797.37
418.967	815.22
419.344	819.51
419.721	837.59
420.098	839.85
420.475	826.74
420.852	851.15
421.228	868.78
421.605	873.97
421.982	884.82
422.358	899.96
422.735	885.05
423.111	891.6
423.488	900.87
423.864	893.63
424.241	907.19
424.617	939.96
424.994	918.04
425.37	953.52
425.746	941.54
426.123	945.84
426.499	962.56
426.875	993.52
427.251	958.72
427.627	990.36
428.003	1019.06
428.379	1009.79
428.756	1052.05
429.132	1038.04
429.507	1059.28
429.883	1055.89
430.259	1076.23
430.635	1075.55
431.011	1116.45
431.387	1116.68
431.763	1157.36
432.138	1140.63
432.514	1146.74
432.89	1155.32
433.265	1163.68
433.641	1180.18
434.016	1177.02
434.392	1216.79
434.767	1231.93
435.143	1232.83
435.518	1241.65
435.894	1235.32
436.269	1270.57
436.644	1268.54
437.02	1321.65
437.395	1306.51
437.77	1315.77
438.145	1320.29
438.52	1328.88
438.895	1367.52
439.271	1345.83
439.646	1380.4
440.021	1397.8
440.395	1408.42
440.77	1348.31
441.145	1388.99
441.52	1394.19
441.895	1394.19
442.27	1454.75
442.645	1428.31
443.019	1451.36
443.394	1463.11
443.769	1434.41
444.143	1481.19
444.518	1497.01
444.892	1473.05
445.267	1510.34
445.641	1515.99
446.016	1508.31
446.39	1539.72
446.764	1537.23
447.139	1487.52
447.513	1536.33
447.887	1520.74
448.262	1547.85
448.636	1572.03
449.01	1569.1
449.384	1586.95
449.758	1587.4
450.132	1611.81
450.506	1625.37
450.88	1642.54
451.254	1642.54
451.628	1688.64
452.002	1696.78
452.376	1706.49
452.75	1710.56
453.123	1730.22
453.497	1777.23
453.871	1765.7
454.244	1792.82
454.618	1809.99
454.992	1835.76
455.365	1837.56
455.739	1859.49
456.112	1869.43
456.486	1932.25
456.859	1938.35
457.232	1963.66
457.606	1982.87
457.979	2026.94
458.352	2055.19
458.725	2061.74
459.099	2054.96
459.472	2104.68
459.845	2141.29
460.218	2175.18
460.591	2169.08
460.964	2179.48
461.337	2238.01
461.71	2232.36
462.083	2256.99
462.456	2306.93
462.829	2307.38
463.201	2377.21
463.574	2356.87
463.947	2390.09
464.32	2418.11
464.692	2450.66
465.065	2475.51
465.438	2509.41
465.81	2512.35
466.183	2569.75
466.555	2586.7
466.928	2635.06
467.3	2598.22
467.672	2656.75
468.045	2692.23
468.417	2713.02
468.789	2739.46
469.161	2767.94
469.534	2846.35
469.906	2860.81
470.278	2880.02
470.65	2906.24
471.022	2961.6
471.394	3006.35
471.766	3014.26
472.138	3055.61
472.51	3120.47
472.882	3178.77
473.253	3186.68
473.625	3264.42
473.997	3330.18
474.369	3315.72
474.74	3377.86
475.112	3430.52
475.484	3437.97
475.855	3562.27
476.227	3581.93
476.598	3658.08
476.97	3674.35
477.341	3784.41
477.713	3838.42
478.084	3867.12
478.455	3975.36
478.827	3952.54
479.198	4082.93
479.569	4089.03
479.94	4222.13
480.311	4284.96
480.682	4399.08
481.053	4433.65
481.424	4557.95
481.795	4569.92
482.166	4602.24
482.537	4710.94
482.908	4842.68
483.279	4868.45
483.65	4953.19
484.021	5050.59
484.391	5084.03
484.762	5225.05
485.133	5241.77
485.503	5305.04
485.874	5497.58
486.244	5462.1
486.615	5555.66
486.985	5667.29
487.356	5771.7
487.726	5880.17
488.097	6008.98
488.467	6022.31
488.837	6092.37
489.207	6186.83
489.578	6321.51
489.948	6363.55
490.318	6546.14
490.688	6583.88
491.058	6683.31
491.428	6735.51
491.798	6790.2
492.168	6959.24
492.538	7020.71
492.908	7117.65
493.278	7205.56
493.648	7273.81
494.017	7348.38
494.387	7480.13
494.757	7429.96
495.126	7642.38
495.496	7681.93
495.866	7739.33
496.235	7883.06
496.605	8014.8
496.974	8002.15
497.344	8140
497.713	8180.45
498.082	8219.32
498.452	8363.49
498.821	8478.07
499.19	8486.66
499.559	8559.2
499.928	8649.81
500.298	8729.36
500.667	8832.63
501.036	8785.4
501.405	8921.22
501.774	8951.5
502.143	9062.01
502.512	9148.33
502.88	9325.5
503.249	9237.37
503.618	9367.99
503.987	9421.77
504.356	9529.34
504.724	9623.35
505.093	9612.5
505.462	9758.49
505.83	9757.13
506.199	9915.77
506.567	10008.88
506.936	10020.17
507.304	10163.45
507.672	10197.12
508.041	10298.36
508.409	10395.53
508.777	10509.43
509.145	10644.11
509.514	10635.3
509.882	10725.92
510.25	10800.04
510.618	10850.44
510.986	10958.45
511.354	11024.67
511.722	11115.51
512.09	11214.04
512.458	11190.54
512.826	11426.47
513.193	11457.2
513.561	11491.55
513.929	11558.89
514.297	11745.1
514.664	11826.91
515.032	11911.42
515.4	12011.76
515.767	12134.92
516.135	12194.58
516.502	12104.19
516.869	12351.19
517.237	12436.61
517.604	12369.49
517.972	12594.34
518.339	12639.99
518.706	12702.82
519.073	12775.36
519.44	12985.75
519.808	13055.57
520.175	13119.75
520.542	13306.19
520.909	13405.17
521.276	13406.98
521.643	13571.04
522.009	13612.17
522.376	13833.63
522.743	13879.73
523.11	14131.93
523.477	14153.17
523.843	14298.48
524.21	14464.8
524.577	14433.62
524.943	14658.7
525.31	14665.93
525.676	14896.66
526.043	15081.51
526.409	15095.52
526.776	15267.04
527.142	15352.01
527.508	15458
527.874	15606.02
528.241	15815.05
528.607	15692.57
528.973	15997.87
529.339	16001.94
529.705	16146.79
530.071	16389.95
530.437	16353.79
530.803	16515.6
531.169	16620.9
531.535	16688.7
531.901	16760.34
532.267	16875.14
532.632	16922.14
532.998	17020.89
533.364	17078.29
533.73	17168.46
534.095	17355.12
534.461	17252.07
534.826	17503.82
535.192	17488.45
535.557	17588.11
535.923	17567.32
536.288	17704.49
536.653	17836.24
537.019	17786.52
537.384	17865.39
537.749	17983.13
538.114	18100.87
538.479	18132.96
538.845	18140.86
539.21	18173.86
539.575	18279.17
539.94	18294.31
540.305	18461.53
540.67	18473.74
541.034	18588.99
541.399	18537.46
541.764	18612.72
542.129	18769.32
542.494	18734.52
542.858	18867.17
543.223	18735.2
543.587	18902.2
543.952	18961.86
544.316	19021.29
544.681	18917.79
545.045	19140.16
545.41	19160.05
545.774	19172.25
546.138	19283.66
546.503	19342.19
546.867	19339.48
547.231	19516.42
547.595	19463.09
547.959	19602.3
548.324	19606.81
548.688	19612.69
549.052	19753.93
549.416	19673.93
549.779	19722.97
550.143	19791.44
550.507	19912.12
550.871	20002.96
551.235	19998.67
551.599	20259.68
551.962	20208.38
552.326	20236.63
552.689	20339
553.053	20242.28
553.417	20395.72
553.78	20641.59
554.143	20656.28
554.507	20691.31
554.87	20749.61
555.234	21044.74
555.597	20813.11
555.96	20882.26
556.323	21129.71
556.686	21136.49
557.05	21248.35
557.413	21313.89
557.776	21270.73
558.139	21432.53
558.502	21483.6
558.865	21560.66
559.228	21821.9
559.59	21755.23
559.953	21932.18
560.316	22185.73
560.679	22130.14
561.041	22340.08
561.404	22459.4
561.767	22514.31
562.129	22455.78
562.492	22833.17
562.854	22737.81
563.217	22763.79
563.579	22875.88
563.941	23065.71
564.304	23313.61
564.666	23256.89
565.028	23284.68
565.39	23581.4
565.753	23620.95
566.115	23717.44
566.477	23863.88
566.839	23994.04
567.201	24163.98
567.563	24103.19
567.925	24411.43
568.287	24315.62
568.648	24468.61
569.01	24551.32
569.372	24881.25
569.734	24900.91
570.095	25125.09
570.457	25149.95
570.819	25150.17
571.18	25215.71
571.542	25383.39
571.903	25385.19
572.265	25591.29
572.626	25723.94
572.987	25722.36
573.349	25920.77
573.71	25908.12
574.071	26076.25
574.432	26160.54
574.794	26392.17
575.155	26339.97
575.516	26350.59
575.877	26549.46
576.238	26574.32
576.599	26723.46
576.96	26747.87
577.32	26737.93
577.681	26937.7
578.042	26969.79
578.403	26960.75
578.763	27031.7
579.124	26977.47
579.485	27325.93
579.845	27273.73
580.206	27245.26
580.566	27227.41
580.927	27181.08
581.287	27468.08
581.648	27288.87
582.008	27520.96
582.368	27419.94
582.728	27320.28
583.089	27596.21
583.449	27549.66
583.809	27513.73
584.169	27577.23
584.529	27517.34
584.889	27801.63
585.249	27552.59
585.609	27438.25
585.969	27685.02
586.329	27401.64
586.688	27725.7
587.048	27551.24
587.408	27522.77
587.768	27570
588.127	27654.96
588.487	27461.75
588.846	27756.88
589.206	27522.31
589.565	27538.58
589.925	27635.3
590.284	27563.22
590.643	27474.18
591.003	27541.07
591.362	27720.73
591.721	27618.58
592.08	27617.68
592.44	27725.92
592.799	27617.68
593.158	27639.6
593.517	27468.08
593.876	27576.55
594.235	27601.41
594.593	27560.73
594.952	27577.9
595.311	27485.25
595.67	27598.92
596.029	27781.52
596.387	27709.88
596.746	27746.71
597.104	27637.34
597.463	27601.41
597.822	27900.61
598.18	27672.59
598.538	27760.72
598.897	27886.82
599.255	27617
599.613	27885.92
599.972	27691.57
600.33	27693.83
600.688	27697.22
601.046	27724.12
601.404	27885.92
601.762	27852.25
602.12	27934.28
602.478	27904.22
602.836	27999.59
603.194	27775.87
603.552	27906.71
603.91	27839.82
604.268	27939.48
604.625	27789.42
604.983	28066.48
605.341	27878.91
605.698	28128.17
606.056	28193.48
606.413	28049.53
606.771	28122.3
607.128	28244.1
607.485	28106.7
607.843	28023.09
608.2	28244.1
608.557	28278.68
608.914	28218.79
609.272	28433.93
609.629	28433.02
609.986	28486.81
610.343	28358.22
610.7	28672.57
611.057	28586.47
611.414	28417.88
611.771	28665.56
612.127	28692.9
612.484	28673.7
612.841	28821.04
613.198	28672.57
613.554	28682.73
613.911	28850.19
614.267	28883.86
614.624	28745.33
614.98	28919.34
615.337	29114.36
615.693	28979.22
616.05	29016.96
616.406	29059.67
616.762	29068.04
617.118	29046.79
617.475	29088.6
617.831	29197.3
618.187	29262.15
618.543	29225.32
618.899	29455.14
619.255	29358.65
619.611	29303.28
619.967	29501.24
620.323	29539.89
620.678	29416.05
621.034	29338.76
621.39	29388.93
621.746	29459.66
622.101	29616.95
622.457	29424.41
622.812	29562.49
623.168	29684.52
623.523	29687.91
623.879	29739.66
624.234	29547.12
624.589	29710.05
624.945	29769.03
625.3	29690.39
625.655	29702.59
626.01	29661.24
626.365	29771.52
626.72	29705.98
627.075	29555.93
627.43	29589.38
627.785	29655.14
628.14	29679.54
628.495	29673.44
628.85	29615.14
629.205	29672.31
629.559	29680.22
629.914	29517.06
630.269	29565.42
630.623	29470.06
630.978	29370.63
631.332	29664.63
631.687	29562.49
632.041	29488.82
632.396	29535.37
632.75	29392.09
633.104	29491.98
633.459	29329.5
633.813	29278.88
634.167	29207.92
634.521	29244.98
634.875	29361.36
635.229	29257.86
635.583	28997.3
635.937	29138.32
636.291	28990.75
636.645	29072.33
636.999	28900.81
637.352	29082.95
637.706	28819.91
638.06	28934.03
638.413	28884.99
638.767	28811.77
639.121	28908.72
639.474	28813.8
639.828	28629.85
640.181	28696.97
640.534	28716.41
640.888	28536.52
641.241	28377.66
641.594	28450.42
641.947	28579.23
642.301	28393.7
642.654	28480.25
643.007	28527.71
643.36	28484.55
643.713	28508.73
644.066	28503.53
644.419	28264.89
644.771	28039.59
645.124	27614.51
645.477	27705.59
645.83	27518.02
646.182	27601.41
646.535	27617.23
646.888	27751.46
647.24	27712.36
647.593	27748.97
647.945	27700.16
648.298	27522.09
648.65	27291.13
649.002	27066.51
649.355	26928.66
649.707	26805.27
650.059	26682.34
650.411	27246.16
650.763	27489.32
651.115	28019.93
651.467	27683.21
651.819	27730.44
652.171	27849.54
652.523	27666.49
652.875	27728.86
653.227	27565.48
653.578	27851.8
653.93	27769.99
654.282	27698.35
654.633	27607.06
654.985	27530.22
655.337	27715.98
655.688	27525.25
656.039	27737.9
656.391	27352.83
656.742	27367.29
657.094	27365.93
657.445	27498.36
657.796	27493.84
658.147	27357.57
658.498	27511.24
658.849	27499.49
659.2	27319.38
659.551	27317.8
659.902	27487.51
660.253	27336.1
660.604	27452.48
660.955	27402.32
661.306	27421.07
661.656	27375.88
662.007	27437.34
662.358	27412.71
662.708	27448.42
663.059	27454.97
663.409	27147.18
663.76	27434.41
664.11	27439.38
664.461	27622.42
664.811	27362.32
665.161	27363.67
665.511	27407.97
665.862	27371.13
666.212	27440.73
666.562	27439.38
666.912	27396.44
667.262	27222.21
667.612	27268.53
667.962	27370.9
668.312	27292.26
668.662	27439.38
669.011	27360.96
669.361	27399.6
669.711	27404.58
670.06	27332.26
670.41	27233.28
670.76	27267.86
671.109	27395.08
671.459	27319.38
671.808	27266.73
672.157	27302.43
672.507	27183.56
672.856	27184.47
673.205	27243.68
673.554	27381.07
673.904	27239.61
674.253	27367.97
674.602	27164.36
674.951	26831.94
675.3	26763.91
675.649	27094.98
675.998	27134.07
676.346	27261.98
676.695	27380.85
677.044	26966.17
677.393	27080.74
677.741	27325.48
678.09	27076.68
678.438	27086.84
678.787	27038.26
679.135	27005.04
679.484	26930.46
679.832	26937.02
680.181	26886.17
680.529	26978.15
680.877	26776.57
681.225	26813.63
681.573	26974.08
681.922	26733.18
682.27	26721.2
682.618	26565.95
682.966	26480.76
683.314	26668.78
683.661	26666.97
684.009	26572.73
684.357	26530.02
684.705	26415.68
685.053	26409.12
685.4	26331.16
685.748	26111.5
686.095	26164.83
686.443	25985.4
686.79	25949.25
687.138	26146.53
687.485	26017.27
687.832	25897.05
688.18	25951.51
688.527	25727.56
688.874	25703.38
689.221	25765.98
689.568	25667.9
689.915	25476.94
690.262	25637.16
690.609	25532.08
690.956	25267.91
691.303	25291.19
691.65	25194.92
691.997	25186.56
692.344	25125.99
692.69	24972.78
693.037	24980.01
693.383	24725.55
693.73	24871.76
694.077	24696.17
694.423	24594.48
694.769	24509.74
695.116	24486.69
695.462	24412.56
695.808	24268.84
696.155	24424.54
696.501	24198.78
696.847	24261.16
697.193	24006.93
697.539	24164.66
697.885	23857.78
698.231	23828.17
698.577	23791.11
698.923	23758.12
699.269	23591.57
699.614	23547.73
699.96	23569.2
700.306	23464.34
700.651	23300.5
700.997	23211.47
701.342	23234.29
701.688	23119.72
702.033	22999.95
702.379	23057.35
702.724	22888.08
703.069	23005.14
703.415	22758.14
703.76	22692.38
704.105	22676.34
704.45	22549.34
704.795	22591.37
705.14	22497.59
705.485	22409
705.83	22219.18
706.175	22480.41
706.52	22244.49
706.865	22125.62
707.209	22216.01
707.554	22020.99
707.899	22016.24
708.243	21991.16
708.588	21913.2
708.932	21809.92
709.277	21822.58
709.621	21751.17
709.966	21682.24
710.31	21655.12
710.654	21521.79
710.998	21581.23
711.342	21565.41
711.687	21418.29
712.031	21433.89
712.375	21327.45
712.719	21303.95
713.063	21196.83
713.407	21237.51
713.75	21167.68
714.094	21174.46
714.438	21087.23
714.782	21116.61
715.125	20950.51
715.469	21083.61
715.812	20823.05
716.156	20738.54
716.499	20912.09
716.843	20841.81
717.186	20826.22
717.53	20836.61
717.873	20852.43
718.216	20724.07
718.559	20734.02
718.902	20584.87
719.246	20620.35
719.589	20598.2
719.932	20479.56
720.275	20563.4
720.617	20490.86
720.96	20417.42
721.303	20476.4
721.646	20496.74
721.989	20387.81
722.331	20498.77
722.674	20326.8
723.016	20394.82
723.359	20354.82
723.701	20285.89
724.044	20292.9
724.386	20198.89
724.729	20250.19
725.071	20275.5
725.413	20277.98
725.755	20269.62
726.097	20102.85
726.439	20029.18
726.782	20041.15
727.124	20171.32
727.465	20006.13
727.807	19976.3
728.149	19975.17
728.491	19830.09
728.833	20048.39
729.175	19948.27
729.516	19890.2
729.858	19857.2
730.199	19988.5
730.541	19962.06
730.882	19922.29
731.224	19996.41
731.565	19849.97
731.906	19789.18
732.248	19983.08
732.589	19847.26
732.93	19886.36
733.271	19884.55
733.612	19893.14
733.953	19951.21
734.294	19905.11
734.635	19735.17
734.976	19888.62
735.317	19754.16
735.658	19783.76
735.999	19718
736.339	19745.12
736.68	19816.53
737.021	19719.58
737.361	19761.61
737.702	19867.83
738.042	19753.48
738.383	19715.96
738.723	19808.39
739.063	19725
739.404	19769.07
739.744	19751.44
740.084	19683.88
740.424	19831.67
740.764	19780.14
741.104	19885.68
741.444	19806.58
741.784	19826.92
742.124	19818.33
742.464	19778.56
742.804	19790.99
743.143	19716.64
743.483	19737.88
743.823	19661.73
744.162	19734.27
744.502	19792.12
744.841	19715.29
745.181	19995.51
745.52	19823.08
745.86	19908.95
746.199	19836.87
746.538	19947.82
746.877	20013.58
747.216	19928.39
747.556	19935.62
747.895	20029.85
748.234	19965.22
748.573	20123.86
748.911	19984.66
749.25	20077.31
749.589	20011.55
749.928	20177.42
750.267	20174.94
750.605	20092
750.944	20129.97
751.283	20199.57
751.621	20412.44
751.96	20261.49
752.298	20326.34
752.636	20252
752.975	20304.65
753.313	20264.88
753.651	20383.52
753.989	20468.94
754.327	20411.31
754.666	20249.06
755.004	20412.9
755.342	20459.45
