Data from 350_FLMS001491_007.txt Node
Date: Thu Apr 19 15:44:40 BST 2018
User: hsy
Spectrometer: FLMS00149
Trigger mode: 0
Integration Time (sec): 1.000000E-2
Scans to average: 10
Electric dark correction enabled: true
Nonlinearity correction enabled: false
Boxcar width: 0
XAxis mode: Wavelengths
Number of Pixels in Spectrum: 2048
>>>>>Begin Spectral Data<<<<<
341.393	-2.47
341.776	-2.47
342.16	-2.47
342.543	-61.68
342.927	-63.04
343.31	-87.22
343.693	-77.27
344.077	-58.74
344.46	-56.71
344.843	-55.58
345.226	-36.82
345.61	-38.85
345.993	-11.29
346.376	-25.3
346.759	25.1
347.142	45.21
347.525	37.75
347.908	59
348.291	71.65
348.674	94.93
349.057	114.14
349.44	126.56
349.823	134.02
350.206	166.79
350.588	216.05
350.971	228.93
351.354	252.21
351.737	254.02
352.119	244.08
352.502	296.96
352.884	286.56
353.267	308.48
353.65	322.27
354.032	320.01
354.414	320.68
354.797	342.15
355.179	352.1
355.562	343.28
355.944	365.65
356.326	352.32
356.709	354.81
357.091	364.75
357.473	350.51
357.855	365.65
358.238	367.91
358.62	379.67
359.002	362.26
359.384	378.99
359.766	376.73
360.148	383.96
360.53	377.41
360.912	360.46
361.294	377.18
361.676	383.28
362.057	361.81
362.439	360.46
362.821	364.07
363.203	355.49
363.584	350.06
363.966	360.46
364.348	359.1
364.729	376.5
365.111	366.56
365.493	357.29
365.874	326.11
366.256	360.91
366.637	355.94
367.019	353
367.4	356.61
367.781	367.46
368.163	353
368.544	325.66
368.925	365.65
369.306	355.03
369.688	336.95
370.069	376.28
370.45	371.76
370.831	362.26
371.212	380.57
371.593	363.62
371.974	378.54
372.355	343.73
372.736	364.52
373.117	371.98
373.498	347.58
373.879	350.97
374.26	367.01
374.641	376.5
375.021	342.38
375.402	372.43
375.783	367.91
376.163	381.47
376.544	387.57
376.925	373.79
377.305	403.85
377.686	375.6
378.066	378.99
378.447	396.84
378.827	372.66
379.208	396.16
379.588	390.96
379.968	379.89
380.349	404.75
380.729	376.95
381.109	400.68
381.489	391.87
381.87	397.29
382.25	406.11
382.63	388.93
383.01	414.69
383.39	424.64
383.77	412.88
384.15	404.3
384.53	440.68
384.91	425.77
385.29	437.74
385.67	422.6
386.049	420.34
386.429	446.1
386.809	429.38
387.189	428.48
387.568	420.57
387.948	442.26
388.328	450.85
388.707	460.79
389.087	448.14
389.466	452.21
389.846	436.16
390.225	434.58
390.605	454.92
390.984	453.34
391.363	453.34
391.743	462.15
392.122	461.24
392.501	477.52
392.881	475.03
393.26	479.55
393.639	472.54
394.018	479.78
394.397	517.29
394.776	483.17
395.155	484.3
395.534	506.89
395.913	508.02
396.292	511.64
396.671	504.86
397.05	517.29
397.429	517.74
397.808	506.89
398.186	510.28
398.565	511.87
398.944	515.03
399.323	510.51
399.701	515.71
400.08	527.23
400.458	531.07
400.837	547.8
401.215	534.24
401.594	541.02
401.972	554.35
402.351	527.01
402.729	543.73
403.107	553.22
403.486	564.29
403.864	578.76
404.242	562.94
404.62	580.79
404.999	582.6
405.377	576.27
405.755	584.86
406.133	605.65
406.511	610.17
406.889	594.57
407.267	601.35
407.645	620.56
408.023	601.13
408.401	622.14
408.779	626.89
409.156	630.73
409.534	641.81
409.912	638.87
410.29	658.08
410.667	654.23
411.045	670.96
411.422	669.38
411.8	659.43
412.178	688.36
412.555	681.58
412.933	706.44
413.31	699.66
413.687	704.63
414.065	703.05
414.442	722.03
414.819	731.97
415.197	718.64
415.574	738.53
415.951	741.92
416.328	724.97
416.705	752.31
417.082	735.59
417.46	767.45
417.837	753.89
418.214	784.63
418.591	794.57
418.967	766.55
419.344	793.44
419.721	793.89
420.098	795.93
420.475	801.8
420.852	814.23
421.228	825.98
421.605	810.61
421.982	822.82
422.358	834.79
422.735	833.89
423.111	837.05
423.488	860.56
423.864	858.75
424.241	863.49
424.617	850.39
424.994	891.29
425.37	862.59
425.746	897.39
426.123	895.36
426.499	923.38
426.875	902.82
427.251	937.62
427.627	948.69
428.003	954.11
428.379	954.79
428.756	983.49
429.132	967.45
429.507	988.46
429.883	972.19
430.259	1017.16
430.635	1007.45
431.011	1014.68
431.387	1045.41
431.763	1085.86
432.138	1068.69
432.514	1063.04
432.89	1093.77
433.265	1103.04
433.641	1126.99
434.016	1134.67
434.392	1144.62
434.767	1176.48
435.143	1159.98
435.518	1156.14
435.894	1167.22
436.269	1186.42
436.644	1201.11
437.02	1183.49
437.395	1223.48
437.77	1200.89
438.145	1235.46
438.52	1226.42
438.895	1245.41
439.271	1250.38
439.646	1290.83
440.021	1270.04
440.395	1286.31
440.77	1268.91
441.145	1312.07
441.52	1334.89
441.895	1333.76
442.27	1360.43
442.645	1341.22
443.019	1334.67
443.394	1337.61
443.769	1369.92
444.143	1330.15
444.518	1397.94
444.892	1361.79
445.267	1380.99
445.641	1383.25
446.016	1414.67
446.39	1391.84
446.764	1425.51
447.139	1424.61
447.513	1442.91
447.887	1434.55
448.262	1438.17
448.636	1434.55
449.01	1487.43
449.384	1491.27
449.758	1493.76
450.132	1496.92
450.506	1515.23
450.88	1536.47
451.254	1534.66
451.628	1513.19
452.002	1533.99
452.376	1574.44
452.75	1585.96
453.123	1591.61
453.497	1618.05
453.871	1611.27
454.244	1666.64
454.618	1665.28
454.992	1703.92
455.365	1721.78
455.739	1729.91
456.112	1745.28
456.486	1771.94
456.859	1766.75
457.232	1855.11
457.606	1820.08
457.979	1852.85
458.352	1884.48
458.725	1899.85
459.099	1875.67
459.472	1953.41
459.845	1970.13
460.218	1996.8
460.591	2030.47
460.964	2009.68
461.337	2030.24
461.71	2081.32
462.083	2110.02
462.456	2125.83
462.829	2092.16
463.201	2186.85
463.574	2181.43
463.947	2205.83
464.32	2219.16
464.692	2218.49
465.065	2267.07
465.438	2289.45
465.81	2307.3
466.183	2355.66
466.555	2345.94
466.928	2385.94
467.3	2424.81
467.672	2427.52
468.045	2485.37
468.417	2486.95
468.789	2503.45
469.161	2517.01
469.534	2560.62
469.906	2600.62
470.278	2633.84
470.65	2669.77
471.022	2724.24
471.394	2749.55
471.766	2799.26
472.138	2797.23
472.51	2860.05
472.882	2886.49
473.253	2897.57
473.625	2959.94
473.997	3032.7
474.369	3064.57
474.74	3063.21
475.112	3124.23
475.484	3162.19
475.855	3243.77
476.227	3229.08
476.598	3329.19
476.97	3364.67
477.341	3443.31
477.713	3464.56
478.084	3543.65
478.455	3603.08
478.827	3640.6
479.198	3727.83
479.569	3770.54
479.94	3828.16
480.311	3890.53
480.682	3941.61
481.053	4035.84
481.424	4080.58
481.795	4180.47
482.166	4219.56
482.537	4269.28
482.908	4386.79
483.279	4428.37
483.65	4515.38
484.021	4594.24
484.391	4649.16
484.762	4658.42
485.133	4724.41
485.503	4831.3
485.874	4917.4
486.244	4989.04
486.615	5058.86
486.985	5166.88
487.356	5236.49
487.726	5300.67
488.097	5439.19
488.467	5485.75
488.837	5590.83
489.207	5625.63
489.578	5750.37
489.948	5805.51
490.318	5871.95
490.688	5926.64
491.058	6087.09
491.428	6130.7
491.798	6218.61
492.168	6334.99
492.538	6354.65
492.908	6465.38
493.278	6581.31
493.648	6596.22
494.017	6674.41
494.387	6701.31
494.757	6871.25
495.126	6868.31
495.496	7016.78
495.866	7041.86
496.235	7110.79
496.605	7193.95
496.974	7273.72
497.344	7326.38
497.713	7366.15
498.082	7482.08
498.452	7599.59
498.821	7623.54
499.19	7666.03
499.559	7764.78
499.928	7841.84
500.298	7921.16
500.667	8036.86
501.036	8014.04
501.405	8103.08
501.774	8121.83
502.143	8204.09
502.512	8316.18
502.88	8374.94
503.249	8404.09
503.618	8524.31
503.987	8502.39
504.356	8650.18
504.724	8746.22
505.093	8731.31
505.462	8827.13
505.83	8895.37
506.199	8896.73
506.567	9065.99
506.936	9136.5
507.304	9255.14
507.672	9228.25
508.041	9335.59
508.409	9441.12
508.777	9534.9
509.145	9584.62
509.514	9621.46
509.882	9793.88
510.25	9762.47
510.618	9840.21
510.986	9842.24
511.354	10067.55
511.722	10096.92
512.09	10167.66
512.458	10197.71
512.826	10353.41
513.193	10390.7
513.561	10454.88
513.929	10534.2
514.297	10697.81
514.664	10693.52
515.032	10857.13
515.4	10970.35
515.767	10959.95
516.135	10990.91
516.502	10966.05
516.869	11177.12
517.237	11271.36
517.604	11230.23
517.972	11423.67
518.339	11451.01
518.706	11587.73
519.073	11607.17
519.44	11723.77
519.808	11802.87
520.175	11896.88
520.542	12041.96
520.909	12085.57
521.276	12140.26
521.643	12343.87
522.009	12403.98
522.376	12509.06
522.743	12531.89
523.11	12701.15
523.477	12865.89
523.843	12891.43
524.21	13097.75
524.577	13113.34
524.943	13255.71
525.31	13341.58
525.676	13464.97
526.043	13594.68
526.409	13694.12
526.776	13802.82
527.142	13837.16
527.508	14038.52
527.874	14107.89
528.241	14260.66
528.607	14285.51
528.973	14423.59
529.339	14470.14
529.705	14624.49
530.071	14749.46
530.437	14824.71
530.803	14935.89
531.169	15016.57
531.535	15067.19
531.901	15144.02
532.267	15236.68
532.632	15343.34
532.998	15451.13
533.364	15470.34
533.73	15541.07
534.095	15735.42
534.461	15738.58
534.826	15759.6
535.192	15830.56
535.557	16048.63
535.923	15949.65
536.288	16047.28
536.653	16188.97
537.019	16228.29
537.384	16327.72
537.749	16270.09
538.114	16352.8
538.479	16466.47
538.845	16458.56
539.21	16543.99
539.575	16591.22
539.94	16633.7
540.305	16741.49
540.67	16675.96
541.034	16829.4
541.399	16814.71
541.764	16947.37
542.129	17020.36
542.494	17003.86
542.858	17064.42
543.223	17135.38
543.587	17248.15
543.952	17221.71
544.316	17365.89
544.681	17328.82
545.045	17439.1
545.41	17519.1
545.774	17549.38
546.138	17584.64
546.503	17627.8
546.867	17622.38
547.231	17704.18
547.595	17796.83
547.959	17874.8
548.324	17872.31
548.688	17926.77
549.052	18040.44
549.416	18055.36
549.779	18035.25
550.143	18140.1
550.507	18218.74
550.871	18322.47
551.235	18296.93
551.599	18432.52
551.962	18505.06
552.326	18508.68
552.689	18546.87
553.053	18603.14
553.417	18613.54
553.78	18858.05
554.143	18853.08
554.507	18949.57
554.87	19076.12
555.234	19184.14
555.597	18977.37
555.96	19234.31
556.323	19307.3
556.686	19392.95
557.05	19279.51
557.413	19536.45
557.776	19399.96
558.139	19596.34
558.502	19611.7
558.865	19662.77
559.228	19917.46
559.59	20002.88
559.953	20039.49
560.316	20193.38
560.679	20185.92
561.041	20390.21
561.404	20392.47
561.767	20699.13
562.129	20498.23
562.492	20821.16
562.854	20834.72
563.217	20841.95
563.579	20937.77
563.941	21122.4
564.304	21171.89
564.666	21354.48
565.028	21399
565.39	21522.84
565.753	21810.51
566.115	21661.14
566.477	21888.7
566.839	21874.24
567.201	22339.31
567.563	22084.41
567.925	22419.31
568.287	22400.33
568.648	22503.6
569.01	22613.88
569.372	22809.81
569.734	22634.45
570.095	22917.6
570.457	23131.61
570.819	23122.34
571.18	23192.62
571.542	23424.71
571.903	23360.76
572.265	23441.43
572.626	23651.14
572.987	23667.41
573.349	23829.44
573.71	23809.33
574.071	23943.57
574.432	23992.15
574.794	24302.43
575.155	24260.17
575.516	24279.83
575.877	24374.74
576.238	24430.78
576.599	24561.63
576.96	24529.54
577.32	24670.78
577.681	24654.73
578.042	24757.1
578.403	24984.44
578.763	24917.33
579.124	24825.12
579.485	25047.94
579.845	25101.28
580.206	25092.69
580.566	25166.58
580.927	25063.76
581.287	25215.62
581.648	25157.54
582.008	25220.37
582.368	25251.55
582.728	25369.06
583.089	25225.57
583.449	25230.54
583.809	25260.14
584.169	25402.28
584.529	25304.21
584.889	25497.2
585.249	25303.98
585.609	25353.7
585.969	25501.26
586.329	25271.44
586.688	25470.76
587.048	25443.86
587.408	25309.63
587.768	25398.44
588.127	25567.93
588.487	25341.27
588.846	25599.12
589.206	25294.49
589.565	25240.71
589.925	25368.39
590.284	25319.57
590.643	25355.05
591.003	25213.36
591.362	25475.5
591.721	25486.12
592.08	25424.66
592.44	25491.1
592.799	25513.47
593.158	25338.1
593.517	25391.44
593.876	25401.61
594.235	25265.56
594.593	25366.35
594.952	25502.85
595.311	25427.14
595.67	25247.03
596.029	25571.77
596.387	25564.31
596.746	25573.8
597.104	25444.99
597.463	25486.35
597.822	25574.93
598.18	25440.7
598.538	25341.49
598.897	25505.56
599.255	25358.22
599.613	25645.67
599.972	25368.39
600.33	25477.31
600.688	25555.05
601.046	25600.24
601.404	25710.07
601.762	25661.71
602.12	25724.08
602.478	25650.41
602.836	25675.05
603.194	25528.38
603.552	25732.9
603.91	25633.69
604.268	25738.55
604.625	25731.09
604.983	25785.55
605.341	25609.74
605.698	25906.68
606.056	25940.12
606.413	25767.47
606.771	25964.98
607.128	25876.85
607.485	25884.76
607.843	25891.31
608.2	25999.78
608.557	26099.67
608.914	25850.41
609.272	26052.44
609.629	26211.53
609.986	26255.37
610.343	26163.62
610.7	26409.72
611.057	26420.34
611.414	26221.7
611.771	26357.29
612.127	26358.87
612.484	26514.35
612.841	26587.11
613.198	26392.31
613.554	26364.07
613.911	26532.88
614.267	26670.73
614.624	26546.43
614.98	26743.49
615.337	26816.48
615.693	26715.92
616.05	26748.92
616.406	26881.57
616.762	26811.96
617.118	26762.25
617.475	26709.82
617.831	26981.68
618.187	26985.29
618.543	27012.64
618.899	27073.88
619.255	27096.25
619.611	27006.99
619.967	27101.9
620.323	27223.71
620.678	27089.47
621.034	27110.49
621.39	27107.1
621.746	27014.67
622.101	27459.41
622.457	27194.33
622.812	27366.75
623.168	27388.22
623.523	27345.96
623.879	27418.28
624.234	27192.75
624.589	27362.01
624.945	27266.64
625.3	27326.08
625.655	27311.39
626.01	27279.75
626.365	27416.02
626.72	27451.27
627.075	27273.87
627.43	27359.29
627.785	27354.1
628.14	27307.54
628.495	27340.76
628.85	27383.47
629.205	27285.85
629.559	27431.61
629.914	27313.87
630.269	27285.85
630.623	27183.25
630.978	27084.05
631.332	27284.72
631.687	27329.24
632.041	27189.36
632.396	27222.35
632.75	27108
633.104	27204.04
633.459	26954.11
633.813	27056.25
634.167	26982.58
634.521	27064.61
634.875	27004.28
635.229	26933.54
635.583	26758.41
635.937	26783.94
636.291	26912.53
636.645	26813.09
636.999	26655.81
637.352	26785.52
637.706	26591.63
638.06	26785.98
638.413	26561.58
638.767	26558.86
639.121	26590.95
639.474	26512.99
639.828	26573.55
640.181	26498.07
640.534	26593.67
640.888	26470.73
641.241	26292.66
641.594	26238.87
641.947	26304.63
642.301	26345.54
642.654	26233.67
643.007	26183.73
643.36	26205.88
643.713	26230.28
644.066	26261.92
644.419	26054.7
644.771	25585.78
645.124	25489.29
645.477	25464.88
645.83	25453.58
646.182	25470.08
646.535	25534.26
646.888	25483.19
647.24	25456.52
647.593	25590.3
647.945	25448.38
648.298	25352.12
648.65	25168.62
649.002	24974.72
649.355	24907.16
649.707	24668.29
650.059	24611.12
650.411	25006.81
650.763	25128.39
651.115	25681.82
651.467	25563.64
651.819	25520.02
652.171	25481.38
652.523	25564.31
652.875	25472.79
653.227	25381.27
653.578	25564.54
653.93	25457.88
654.282	25353.92
654.633	25357.99
654.985	25514.15
655.337	25432.79
655.688	25317.54
656.039	25425.11
656.391	25248.39
656.742	25278.22
657.094	25323.64
657.445	25237.99
657.796	25284.32
658.147	25215.17
658.498	25355.05
658.849	25432.79
659.2	25180.59
659.551	25196.19
659.902	25349.4
660.253	25220.14
660.604	25296.98
660.955	25212.91
661.306	25243.64
661.656	25241.16
662.007	25268.95
662.358	25199.13
662.708	25329.97
663.059	25242.29
663.409	25114.83
663.76	25415.17
664.11	25359.12
664.461	25441.83
664.811	25350.31
665.161	25243.42
665.511	25147.38
665.862	25241.61
666.212	25381.72
666.562	25360.7
666.912	25293.81
667.262	25182.18
667.612	25267.6
667.962	25214.72
668.312	25190.54
668.662	25266.02
669.011	25234.38
669.361	25238.22
669.711	25297.65
670.06	25193.93
670.41	25248.62
670.76	25134.49
671.109	25189.86
671.459	25141.95
671.808	25122.52
672.157	25106.7
672.507	25040.71
672.856	25003.42
673.205	25121.16
673.554	25160.03
673.904	25128.17
674.253	25174.27
674.602	25052.46
674.951	24726.14
675.3	24575.41
675.649	25006.14
675.998	24987.83
676.346	25064.67
676.695	25156.41
677.044	24927.27
677.393	24911.68
677.741	25009.98
678.09	24915.29
678.438	24832.13
678.787	24923.43
679.135	24877.78
679.484	24798.91
679.832	24840.72
680.181	24778.8
680.529	24792.58
680.877	24660.38
681.225	24713.26
681.573	24866.93
681.922	24763.66
682.27	24578.58
682.618	24732.02
682.966	24635.98
683.314	24556.2
683.661	24579.93
684.009	24406.6
684.357	24423.78
684.705	24340.84
685.053	24322.09
685.4	24229.66
685.748	24134.52
686.095	24127.97
686.443	23940.63
686.79	24029.44
687.138	24150.34
687.485	24038.93
687.832	23906.96
688.18	23870.35
688.527	23759.16
688.874	23796.68
689.221	23728.66
689.568	23643.23
689.915	23500.64
690.262	23561.88
690.609	23525.27
690.956	23376.57
691.303	23408.66
691.65	23245.5
691.997	23275.56
692.344	23137.71
692.69	23106.53
693.037	23101.78
693.383	22845.06
693.73	22953.08
694.077	22886.64
694.423	22906.08
694.769	22745.63
695.116	22619.53
695.462	22666.76
695.808	22488.01
696.155	22551.51
696.501	22268.13
696.847	22356.49
697.193	22116.04
697.539	22193.55
697.885	22057.51
698.231	21996.95
698.577	21872.89
698.923	22023.16
699.269	21855.48
699.614	21742.27
699.96	21702.49
700.306	21655.04
700.651	21467.02
700.997	21440.81
701.342	21318.78
701.688	21342.5
702.033	21288.72
702.379	21326.69
702.724	21185.67
703.069	21213.92
703.415	21011.67
703.76	20874.49
704.105	20975.06
704.45	20921.72
704.795	20736.64
705.14	20703.88
705.485	20777.32
705.83	20659.36
706.175	20695.06
706.52	20659.13
706.865	20518.57
707.209	20418.23
707.554	20397.67
707.899	20423.43
708.243	20317.9
708.588	20261.85
708.932	20163.33
709.277	20121.52
709.621	19999.49
709.966	19937.12
710.31	20024.57
710.654	19820.51
710.998	19905.71
711.342	19836.78
711.687	19744.58
712.031	19813.5
712.375	19713.17
712.719	19648.54
713.063	19694.41
713.407	19619.61
713.75	19515.89
714.094	19439.95
714.438	19479.28
714.782	19504.13
715.125	19365.83
715.469	19416
715.812	19375.55
716.156	19255.1
716.499	19298.49
716.843	19353.63
717.186	19141.66
717.53	19295.78
717.873	19264.59
718.216	19264.37
718.559	19162.45
718.902	18864.6
719.246	19029.8
719.589	18978.72
719.932	18901.21
720.275	18950.48
720.617	19006.07
720.96	18972.85
721.303	18982.57
721.646	19081.77
721.989	18824.38
722.331	18957.48
722.674	18843.59
723.016	18885.17
723.359	18849.69
723.701	18823.25
724.044	18756.81
724.386	18624.16
724.729	18699.41
725.071	18725.62
725.413	18656.92
725.755	18597.49
726.097	18658.28
726.439	18495.57
726.782	18457.61
727.124	18634.55
727.465	18631.61
727.807	18454.67
728.149	18516.14
728.491	18507.55
728.833	18466.2
729.175	18528.79
729.516	18456.03
729.858	18374.22
730.199	18431.39
730.541	18497.61
730.882	18504.84
731.224	18433.2
731.565	18303.49
731.906	18368.12
732.248	18473.43
732.589	18322.47
732.93	18409.93
733.271	18414.45
733.612	18294.9
733.953	18303.49
734.294	18150.05
734.635	18287.44
734.976	18311.62
735.317	18311.4
735.658	18219.87
735.999	18282.92
736.339	18314.11
736.68	18363.6
737.021	18382.58
737.361	18261.68
737.702	18335.35
738.042	18229.82
738.383	18369.93
738.723	18371.28
739.063	18244.51
739.404	18398.17
739.744	18232.98
740.084	18333.32
740.424	18420.77
740.764	18267.56
741.104	18395.24
741.444	18293.32
741.784	18309.82
742.124	18384.62
742.464	18379.42
742.804	18326.99
743.143	18307.33
743.483	18402.69
743.823	18344.62
744.162	18303.49
744.502	18449.25
744.841	18365.86
745.181	18484.5
745.52	18408.8
745.86	18489.02
746.199	18408.57
746.538	18388.68
746.877	18578.06
747.216	18624.38
747.556	18521.11
747.895	18578.73
748.234	18577.15
748.573	18648.79
748.911	18646.98
749.25	18579.86
749.589	18604.27
749.928	18637.26
750.267	18717.04
750.605	18689.92
750.944	18660.31
751.283	18714.78
751.621	18871.83
751.96	18711.61
752.298	18735.57
752.636	18777.83
752.975	18886.75
753.313	18822.12
753.651	18924.94
753.989	18834.32
754.327	18943.92
754.666	18806.3
755.004	18987.31
