Data from 350_FLMS001491_008.txt Node
Date: Thu Apr 19 15:44:42 BST 2018
User: hsy
Spectrometer: FLMS00149
Trigger mode: 0
Integration Time (sec): 1.000000E-2
Scans to average: 10
Electric dark correction enabled: true
Nonlinearity correction enabled: false
Boxcar width: 0
XAxis mode: Wavelengths
Number of Pixels in Spectrum: 2048
>>>>>Begin Spectral Data<<<<<
341.393	0.72
341.776	0.72
342.16	0.72
342.543	-69.11
342.927	-57.58
343.31	-71.37
343.693	-71.82
344.077	-74.31
344.46	-75.21
344.843	-39.05
345.226	-45.15
345.61	-52.84
345.993	1.17
346.376	4.56
346.759	-6.29
347.142	22.19
347.525	56.76
347.908	64
348.291	72.81
348.674	88.85
349.057	125.69
349.44	112.58
349.823	137.89
350.206	177.44
350.588	205.01
350.971	231.45
351.354	258.11
351.737	252.24
352.119	271
352.502	273.26
352.884	285.23
353.267	290.2
353.65	320.03
354.032	315.51
354.414	346.02
354.797	346.47
355.179	347.83
355.562	342.63
355.944	339.47
356.326	362.52
356.709	371.78
357.091	375.85
357.473	378.34
357.855	381.73
358.238	384.21
358.62	375.17
359.002	383.31
359.384	384.89
359.766	348.96
360.148	366.13
360.53	370.65
360.912	380.6
361.294	356.87
361.676	362.07
362.057	364.78
362.439	373.14
362.821	352.58
363.203	379.24
363.584	366.13
363.966	352.12
364.348	358
364.729	371.56
365.111	376.08
365.493	381.95
365.874	364.55
366.256	360.48
366.637	359.81
367.019	361.39
367.4	340.82
367.781	354.38
368.163	361.39
368.544	356.87
368.925	380.6
369.306	373.59
369.688	376.53
370.069	370.88
370.45	375.4
370.831	363.2
371.212	371.33
371.593	389.86
371.974	376.53
372.355	377.21
372.736	369.98
373.117	382.18
373.498	371.78
373.879	371.33
374.26	365.23
374.641	381.5
375.021	369.52
375.402	382.63
375.783	396.42
376.163	393.48
376.544	397.55
376.925	402.74
377.305	398.9
377.686	411.56
378.066	394.61
378.447	407.72
378.827	398
379.208	391.9
379.588	412.46
379.968	389.86
380.349	407.72
380.729	399.35
381.109	423.31
381.489	424.44
381.87	421.5
382.25	420.14
382.63	418.11
383.01	428.96
383.39	430.54
383.77	419.47
384.15	426.47
384.53	436.42
384.91	443.19
385.29	445
385.67	452.23
386.049	472.57
386.429	437.32
386.809	447.49
387.189	468.5
387.568	472.12
387.948	430.31
388.328	445.91
388.707	455.4
389.087	461.73
389.466	468.96
389.846	472.57
390.225	486.58
390.605	479.35
390.984	496.07
391.363	476.87
391.743	502.4
392.122	502.85
392.501	502.63
392.881	503.76
393.26	504.89
393.639	524.1
394.018	515.06
394.397	520.03
394.776	513.7
395.155	522.97
395.534	529.97
395.913	523.64
396.292	546.24
396.671	535.4
397.05	535.4
397.429	550.99
397.808	545.34
398.186	553.02
398.565	553.93
398.944	552.57
399.323	568.84
399.701	584.89
400.08	571.55
400.458	579.24
400.837	576.98
401.215	585.11
401.594	583.53
401.972	586.24
402.351	587.37
402.729	583.98
403.107	598.22
403.486	596.64
403.864	599.57
404.242	606.35
404.62	622.85
404.999	619.46
405.377	622.62
405.755	635.51
406.133	636.64
406.511	647.93
406.889	665.79
407.267	650.19
407.645	670.99
408.023	661.72
408.401	688.61
408.779	684.54
409.156	676.63
409.534	723.87
409.912	706.01
410.29	711.44
410.667	738.78
411.045	726.12
411.422	729.51
411.8	749.4
412.178	740.81
412.555	787.14
412.933	785.78
413.31	781.26
413.687	770.87
414.065	805.67
414.442	804.77
414.819	816.07
415.197	840.02
415.574	838.21
415.951	821.94
416.328	849.51
416.705	826.46
417.082	859
417.46	875.27
417.837	859.91
418.214	888.61
418.591	860.81
418.967	842.73
419.344	854.26
419.721	899.23
420.098	901.26
420.475	915.72
420.852	911.2
421.228	888.61
421.605	923.86
421.982	926.35
422.358	925.89
422.735	960.24
423.111	940.81
423.488	970.19
423.864	956.63
424.241	969.28
424.617	987.81
424.994	973.8
425.37	1006.34
425.746	1027.13
426.123	1009.51
426.499	1030.52
426.875	1034.82
427.251	1037.53
427.627	1075.49
428.003	1064.2
428.379	1104.65
428.756	1108.49
429.132	1101.93
429.507	1105.32
429.883	1130.63
430.259	1140.8
430.635	1177.86
431.011	1180.12
431.387	1188.94
431.763	1211.08
432.138	1216.06
432.514	1230.07
432.89	1237.75
433.265	1263.06
433.641	1277.07
434.016	1295.15
434.392	1271.2
434.767	1307.13
435.143	1346.67
435.518	1299.22
435.894	1363.62
436.269	1347.58
436.644	1374.47
437.02	1387.35
437.395	1395.26
437.77	1397.07
438.145	1438.42
438.52	1431.19
438.895	1441.81
439.271	1447.69
439.646	1478.42
440.021	1504.64
440.395	1469.83
440.77	1465.54
441.145	1487.23
441.52	1502.15
441.895	1519.32
442.27	1543.28
442.645	1533.79
443.019	1546.22
443.394	1586.67
443.769	1557.74
444.143	1563.62
444.518	1595.71
444.892	1577.4
445.267	1616.72
445.641	1592.77
446.016	1633.22
446.39	1622.82
446.764	1646.1
447.139	1624.18
447.513	1685.42
447.887	1720.22
448.262	1677.96
448.636	1684.74
449.01	1694.01
449.384	1727.45
449.758	1689.94
450.132	1719.09
450.506	1774.23
450.88	1767.45
451.254	1797.06
451.628	1810.84
452.002	1805.87
452.376	1816.94
452.75	1881.35
453.123	1852.65
453.497	1916.38
453.871	1917.73
454.244	1963.83
454.618	1955.25
454.992	2007.9
455.365	2008.8
455.739	2028.01
456.112	2067.56
456.486	2058.07
456.859	2091.74
457.232	2133.55
457.606	2170.38
457.979	2161.34
458.352	2231.4
458.725	2222.36
459.099	2245.86
459.472	2265.75
459.845	2322.47
460.218	2334.22
460.591	2330.6
460.964	2360.88
461.337	2388.23
461.71	2403.82
462.083	2473.65
462.456	2496.02
462.829	2513.65
463.201	2583.48
463.574	2509.35
463.947	2576.92
464.32	2636.58
464.692	2638.84
465.065	2669.12
465.438	2693.98
465.81	2756.13
466.183	2769.46
466.555	2807.2
466.928	2808.78
467.3	2802.45
467.672	2888.78
468.045	2930.59
468.417	2935.11
468.789	2984.82
469.161	2996.35
469.534	3051.26
469.906	3109.79
470.278	3123.58
470.65	3162.45
471.022	3197.47
471.394	3247.64
471.766	3279.96
472.138	3315.89
472.51	3383.91
472.882	3427.3
473.253	3470.46
473.625	3513.85
473.997	3538.93
474.369	3643.56
474.74	3657.35
475.112	3707.52
475.484	3789.55
475.855	3802.88
476.227	3838.13
476.598	3991.35
476.97	4026.15
477.341	4084.91
477.713	4146.15
478.084	4178.92
478.455	4252.59
478.827	4302.53
479.198	4477.44
479.569	4426.14
479.94	4580.94
480.311	4627.04
480.682	4717.66
481.053	4867.49
481.424	4874.26
481.795	4923.75
482.166	5003.07
482.537	5085.78
482.908	5180.92
483.279	5264.76
483.65	5374.14
484.021	5464.98
484.391	5523.29
484.762	5594.02
485.133	5642.61
485.503	5778.2
485.874	5925.76
486.244	5960.34
486.615	6077.4
486.985	6186.77
487.356	6257.05
487.726	6339.08
488.097	6490.04
488.467	6490.04
488.837	6616.59
489.207	6707.89
489.578	6819.52
489.948	6943.81
490.318	7020.65
490.688	7085.28
491.058	7223.13
491.428	7342.45
491.798	7351.94
492.168	7554.19
492.538	7576.57
492.908	7708.77
493.278	7819.27
493.648	7854.98
494.017	7980.17
494.387	8085.03
494.757	8154.63
495.126	8225.36
495.496	8322.54
495.866	8404.57
496.235	8540.61
496.605	8574.73
496.974	8557.33
497.344	8757.1
497.713	8820.83
498.082	8887.72
498.452	8956.87
498.821	9030.99
499.19	9083.42
499.559	9280.48
499.928	9285.9
500.298	9329.51
500.667	9477.99
501.036	9480.92
501.405	9536.51
501.774	9605.89
502.143	9717.3
502.512	9797.98
502.88	9865.32
503.249	9967.69
503.618	10075.26
503.987	10155.93
504.356	10223.5
504.724	10286.55
505.093	10334.91
505.462	10416.27
505.83	10481.12
506.199	10590.72
506.567	10759.31
506.936	10790.95
507.304	10855.12
507.672	10968.57
508.041	10963.6
508.409	11053.31
508.777	11213.08
509.145	11270.71
509.514	11381.66
509.882	11410.59
510.25	11467.99
510.618	11606.52
510.986	11621.21
511.354	11776.23
511.722	11833.4
512.09	11960.63
512.458	11950.69
512.826	12170.12
513.193	12155.43
513.561	12223
513.929	12406.95
514.297	12486.72
514.664	12695.08
515.032	12644.23
515.4	12821.17
515.767	12875.41
516.135	12989.31
516.502	12842.19
516.869	13163.76
517.237	13232.69
517.604	13101.17
517.972	13416.86
518.339	13552.68
518.706	13540.48
519.073	13631.55
519.44	13777.99
519.808	13945.66
520.175	13941.6
520.542	14074.93
520.909	14213.68
521.276	14245.32
521.643	14464.75
522.009	14566.67
522.376	14641.69
522.743	14750.84
523.11	14960.33
523.477	15069.25
523.843	15181.79
524.21	15309.02
524.577	15554.89
524.943	15542.46
525.31	15655.68
525.676	15783.36
526.043	16105.16
526.409	16084.82
526.776	16257.02
527.142	16338.37
527.508	16477.35
527.874	16539.27
528.241	16685.03
528.607	16719.83
528.973	16936.32
529.339	16940.39
529.705	17254.28
530.071	17378.34
530.437	17375.18
530.803	17573.14
531.169	17606.59
531.535	17604.33
531.901	17775.39
532.267	17801.61
532.632	18030.3
532.998	18074.82
533.364	18193.24
533.73	18249.51
534.095	18401.59
534.461	18416.73
534.826	18477.52
535.192	18642.49
535.557	18757.97
535.923	18724.07
536.288	18825.54
536.653	18856.5
537.019	18946.44
537.384	19090.39
537.749	19124.96
538.114	19054.68
538.479	19179.88
538.845	19267.33
539.21	19252.19
539.575	19356.14
539.94	19466.2
540.305	19588.68
540.67	19531.28
541.034	19674.1
541.399	19618.06
541.764	19707.32
542.129	19790.93
542.494	19816.47
542.858	19892.4
543.223	19982.12
543.587	19992.06
543.952	20042
544.316	20074.77
544.681	20160.64
545.045	20324.71
545.41	20291.71
545.774	20334.65
546.138	20368.32
546.503	20447.19
546.867	20414.19
547.231	20624.36
547.595	20652.83
547.959	20764.02
548.324	20809.44
548.688	20951.81
549.052	20988.64
549.416	20982.32
549.779	21023.22
550.143	21092.37
550.507	21140.96
550.871	21175.98
551.235	21183.89
551.599	21427.28
551.962	21408.52
552.326	21650.77
552.689	21601.06
553.053	21444.9
553.417	21738.91
553.78	21839.69
554.143	21892.8
554.507	21860.48
554.87	22022.74
555.234	22192.45
555.597	21943.65
555.96	22246.46
556.323	22448.72
556.686	22326.23
557.05	22530.75
557.413	22536.4
557.776	22463.41
558.139	22780.46
558.502	22865.2
558.865	22909.04
559.228	23115.37
559.59	23096.84
559.953	23183.16
560.316	23555.36
560.679	23434.45
561.041	23598.52
561.404	23634
561.767	23815.69
562.129	23732.53
562.492	24038.51
562.854	24073.76
563.217	24154.66
563.579	24302.45
563.941	24497.25
564.304	24572.28
564.666	24839.16
565.028	24610.69
565.39	24921.65
565.753	25118.93
566.115	25108.08
566.477	25306.5
566.839	25288.64
567.201	25778.12
567.563	25591.69
567.925	25858.8
568.287	25782.87
568.648	25936.76
569.01	26146.47
569.372	26313.7
569.734	26271.89
570.095	26465.34
570.457	26616.52
570.819	26734.93
571.18	26739.45
571.542	27026
571.903	27019.67
572.265	27167.46
572.626	27263.05
572.987	27290.4
573.349	27450.85
573.71	27605.87
574.071	27694.68
574.432	27844.28
574.794	28038.63
575.155	27873.66
575.516	27956.6
575.877	28119.08
576.238	28221.22
576.599	28270.03
576.96	28362.23
577.32	28430.93
577.681	28566.97
578.042	28626.18
578.403	28616.01
578.763	28766.74
579.124	28711.6
579.485	28948.66
579.845	28956.34
580.206	28810.36
580.566	28901.88
580.927	29007.87
581.287	29053.52
581.648	29065.49
582.008	29250.8
582.368	29174.87
582.728	29231.36
583.089	29134.42
583.449	29008.09
583.809	29154.3
584.169	29239.73
584.529	29104.36
584.889	29270.46
585.249	29172.83
585.609	29164.25
585.969	29319.72
586.329	29159.05
586.688	29349.1
587.048	29187.75
587.408	29211.25
587.768	29159.95
588.127	29252.61
588.487	29177.13
588.846	29420.51
589.206	29038.6
589.565	29153.4
589.925	29222.78
590.284	29117.02
590.643	29225.71
591.003	29287.86
591.362	29351.81
591.721	29168.09
592.08	29403.79
592.44	29374.41
592.799	29193.63
593.158	29232.49
593.517	29225.94
593.876	29317.46
594.235	29217.81
594.593	29303.9
594.952	29346.39
595.311	29194.3
595.67	29294.64
596.029	29288.31
596.387	29384.13
596.746	29516.1
597.104	29329.89
597.463	29297.35
597.822	29390.91
598.18	29284.7
598.538	29234.75
598.897	29644.69
599.255	29290.12
599.613	29670.67
599.972	29424.35
600.33	29456.22
600.688	29389.55
601.046	29405.14
601.404	29724.91
601.762	29502.77
602.12	29645.82
602.478	29547.74
602.836	29712.03
603.194	29458.48
603.552	29592.48
603.91	29490.79
604.268	29571.92
604.625	29527.18
604.983	29752.71
605.341	29483.33
605.698	29607.17
606.056	29833.61
606.413	29706.83
606.771	29883.55
607.128	29736.44
607.485	29832.03
607.843	29907.05
608.2	29907.05
608.557	30042.42
608.914	30039.93
609.272	30109.08
609.629	30159.25
609.986	30238.8
610.343	30201.96
610.7	30331.22
611.057	30413.25
611.414	30396.31
611.771	30439.92
612.127	30375.06
612.484	30467.04
612.841	30462.97
613.198	30551.33
613.554	30295.97
613.911	30667.03
614.267	30707.94
614.624	30563.76
614.98	30646.24
615.337	30772.79
615.693	30789.97
616.05	30824.99
616.406	30892.79
616.762	30738.44
617.118	30827.48
617.475	30928.49
617.831	31032.22
618.187	30989.96
618.543	31069.96
618.899	31242.38
619.255	31083.29
619.611	31142.27
619.967	31173.01
620.323	31350.18
620.678	31117.64
621.034	31170.52
621.39	31191.99
621.746	31309.5
622.101	31583.39
622.457	31221.37
622.812	31525.77
623.168	31511.53
623.523	31470.85
623.879	31403.51
624.234	31394.02
624.589	31451.19
624.945	31412.1
625.3	31528.48
625.655	31358.99
626.01	31481.7
626.365	31495.49
626.72	31429.05
627.075	31459.55
627.43	31354.47
627.785	31238.09
628.14	31340.24
628.495	31403.51
628.85	31420.23
629.205	31495.03
629.559	31320.35
629.914	31311.31
630.269	31322.83
630.623	31173.91
630.978	31135.27
631.332	31271.31
631.687	31320.8
632.041	31268.15
632.396	31345.21
632.75	31212.56
633.104	31315.38
633.459	31183.63
633.813	31023.63
634.167	31073.8
634.521	31062.5
634.875	31053.46
635.229	30968.04
635.583	30819.57
635.937	30837.88
636.291	30745.45
636.645	30641.72
636.999	30660.48
637.352	30666.13
637.706	30480.37
638.06	30686.92
638.413	30523.76
638.767	30387.94
639.121	30463.2
639.474	30363.76
639.828	30455.06
640.181	30533.02
640.534	30371.67
640.888	30260.94
641.241	30124.9
641.594	30111.12
641.947	30195.41
642.301	29953.38
642.654	30195.63
643.007	30093.04
643.36	30163.77
643.713	30010.78
644.066	30136.2
644.419	29959.48
644.771	29561.3
645.124	29220.07
645.477	29261.42
645.83	29202.89
646.182	29359.04
646.535	29214.19
646.888	29370.8
647.24	29199.95
647.593	29284.24
647.945	29222.32
648.298	29233.62
648.65	28908.21
649.002	28701.43
649.355	28618.05
649.707	28333.08
650.059	28420.54
650.411	28774.65
650.763	29053.74
651.115	29473.17
651.467	29428.65
651.819	29269.78
652.171	29293.96
652.523	29284.7
652.875	29373.51
653.227	29136.9
653.578	29327.86
653.93	29207.86
654.282	29128.77
654.633	29081.31
654.985	29067.98
655.337	29174.19
655.688	28990.47
656.039	29077.24
656.391	28928.77
656.742	29004.48
657.094	29058.49
657.445	29129.67
657.796	28967.42
658.147	28898.27
658.498	29079.5
658.849	29041.76
659.2	29013.74
659.551	28943.69
659.902	29105.27
660.253	28828.66
660.604	28961.54
660.955	28890.13
661.306	28974.65
661.656	28940.3
662.007	28880.86
662.358	28965.61
662.708	29020.75
663.059	29042.89
663.409	28842.9
663.76	29008.55
664.11	28979.85
664.461	29124.02
664.811	29077.24
665.161	28971.94
665.511	28879.51
665.862	29051.48
666.212	28978.94
666.562	29015.32
666.912	28911.82
667.262	28789.79
667.612	28924.03
667.962	28874.76
668.312	28968.32
668.662	29090.58
669.011	28989.79
669.361	28843.35
669.711	28891.94
670.06	28852.39
670.41	28814.43
670.76	28778.95
671.109	28859.85
671.459	28786.86
671.808	28793.86
672.157	29062.1
672.507	28791.38
672.856	28741.43
673.205	28864.59
673.554	28868.66
673.904	28634.77
674.253	28968.32
674.602	28658.5
674.951	28378.05
675.3	28230.03
675.649	28800.87
675.998	28575.79
676.346	28823.69
676.695	28892.84
677.044	28584.15
677.393	28576.92
677.741	28683.36
678.09	28556.35
678.438	28489.91
678.787	28562
679.135	28502.12
679.484	28363.36
679.832	28410.59
680.181	28357.94
680.529	28472.29
680.877	28232.75
681.225	28221
681.573	28451.95
681.922	28176.02
682.27	28242.24
682.618	28014.45
682.966	28076.14
683.314	28154.1
683.661	28006.54
684.009	27872.3
684.357	27855.58
684.705	27837.95
685.053	27839.54
685.4	27800.44
685.748	27641.35
686.095	27685.64
686.443	27414.91
686.79	27511.41
687.138	27585.98
687.485	27460.34
687.832	27298.99
688.18	27312.54
688.527	27200.68
688.874	27201.36
689.221	27203.17
689.568	27120.23
689.915	27046.34
690.262	26931.99
690.609	26836.62
690.956	26861.93
691.303	26794.37
691.65	26663.07
691.997	26648.38
692.344	26511.66
692.69	26427.37
693.037	26398.22
693.383	26174.04
693.73	26169.3
694.077	26069.64
694.423	26033.26
694.769	25972.24
695.116	25932.47
695.462	25860.83
695.808	25717.11
696.155	25812.7
696.501	25573.38
696.847	25551.23
697.193	25413.84
697.539	25415.65
697.885	25256.55
698.231	25139.72
698.577	25123.68
698.923	25060.17
699.269	24931.14
699.614	24760.97
699.96	24693.63
700.306	24770.92
700.651	24521.88
700.997	24537.93
701.342	24507.65
701.688	24383.81
702.033	24315.34
702.379	24349.46
702.724	24189.69
703.069	24112.85
703.415	23998.96
703.76	23947.21
704.105	23974.78
704.45	23986.98
704.795	23821.34
705.14	23687.78
705.485	23698.63
705.83	23534.79
706.175	23690.94
706.52	23518.07
706.865	23453.89
707.209	23350.39
707.554	23260.67
707.899	23307.45
708.243	23261.13
708.588	23226.55
708.932	23014.13
709.277	23076.05
709.621	22932.77
709.966	22751.76
710.31	22898.42
710.654	22818.65
710.998	22775.04
711.342	22743.85
711.687	22709.95
712.031	22655.27
712.375	22453.24
712.719	22553.8
713.063	22484.65
713.407	22524.87
713.75	22462.95
714.094	22415.27
714.438	22227.48
714.782	22228.16
715.125	22146.8
715.469	22233.36
715.812	22065.9
716.156	22043.76
716.499	22082.4
716.843	22096.18
717.186	21988.39
717.53	22121.49
717.873	21998.33
718.216	22057.32
718.559	21896.42
718.902	21704.56
719.246	21749.08
719.589	21717.66
719.932	21634.05
720.275	21733.26
720.617	21625.24
720.96	21603.99
721.303	21572.13
721.646	21686.25
721.989	21573.03
722.331	21538.46
722.674	21575.75
723.016	21504.79
723.359	21441.96
723.701	21511.57
724.044	21433.38
724.386	21329.43
724.729	21420.95
725.071	21436.77
725.413	21392.93
725.755	21295.3
726.097	21266.15
726.439	21150.45
726.782	21160.84
727.124	21243.78
727.465	21267.05
727.807	21072.26
728.149	21161.97
728.491	21100.05
728.833	21105.93
729.175	21127.85
729.516	21025.03
729.858	21020.96
730.199	21034.52
730.541	21141.41
730.882	20964.46
731.224	21078.58
731.565	20961.98
731.906	20996.33
732.248	21062.54
732.589	20861.41
732.93	20969.43
733.271	20894.63
733.612	20906.61
733.953	20917.01
734.294	20872.71
734.635	20822.09
734.976	20988.19
735.317	20844.92
735.658	20892.37
735.999	20893.05
736.339	20782.77
736.68	20959.49
737.021	20922.66
737.361	20800.63
737.702	20968.53
738.042	20774.64
738.383	20891.02
738.723	20948.64
739.063	20797.01
739.404	21019.6
739.744	20933.73
740.084	20790.91
740.424	20895.76
740.764	20921.98
741.104	20873.39
741.444	20855.77
741.784	20700.97
742.124	20823.68
742.464	20924.24
742.804	20862.77
743.143	20851.92
743.483	21025.93
743.823	20799.5
744.162	20847.86
744.502	20886.27
744.841	20776.9
745.181	20928.53
745.52	20922.88
745.86	20999.04
746.199	20919.94
746.538	21021.86
746.877	21039.94
747.216	21086.72
747.556	21021.86
747.895	21208.3
748.234	20961.53
748.573	21115.42
748.911	21023.67
749.25	21215.08
749.589	21124.68
749.928	21101.86
750.267	21214.17
750.605	21155.64
750.944	21176.21
751.283	21110.22
751.621	21327.62
751.96	21118.81
752.298	21324.45
752.636	21372.14
752.975	21244.91
753.313	21318.8
753.651	21453.72
753.989	21279.71
754.327	21401.51
754.666	21275.19
755.004	21481.74
755.342	21302.99
