Data from 383_FLMS001491_008.txt Node
Date: Thu Apr 19 15:42:44 BST 2018
User: hsy
Spectrometer: FLMS00149
Trigger mode: 0
Integration Time (sec): 1.000000E-2
Scans to average: 10
Electric dark correction enabled: true
Nonlinearity correction enabled: false
Boxcar width: 0
XAxis mode: Wavelengths
Number of Pixels in Spectrum: 2048
>>>>>Begin Spectral Data<<<<<
341.393	-10.55
341.776	-10.55
342.16	-10.55
342.543	-50.55
342.927	-66.14
343.31	-74.73
343.693	-75.86
344.077	-65.24
344.46	-53.04
344.843	-68.85
345.226	-38.57
345.61	-31.79
345.993	-20.95
346.376	-20.95
346.759	23.35
347.142	43.01
347.525	43.23
347.908	60.63
348.291	75.1
348.674	85.72
349.057	118.94
349.44	120.75
349.823	142.21
350.206	158.71
350.588	250.69
350.971	217.92
351.354	248.2
351.737	258.14
352.119	286.84
352.502	298.14
352.884	282.78
353.267	305.6
353.65	315.32
354.032	352.83
354.414	337.46
354.797	353.28
355.179	351.02
355.562	351.25
355.944	347.41
356.326	371.59
356.709	379.04
357.091	383.11
357.473	374.07
357.855	374.07
358.238	380.85
358.62	365.94
359.002	379.72
359.384	375.2
359.766	379.04
360.148	377.46
360.53	366.16
360.912	383.34
361.294	391.02
361.676	369.78
362.057	372.26
362.439	375.43
362.821	351.25
363.203	378.59
363.584	386.28
363.966	380.17
364.348	362.77
364.729	378.37
365.111	359.84
365.493	349.21
365.874	358.93
366.256	337.91
366.637	367.29
367.019	364.58
367.4	348.99
367.781	347.18
368.163	350.57
368.544	350.57
368.925	366.84
369.306	363.9
369.688	383.56
370.069	384.92
370.45	354.86
370.831	349.44
371.212	364.58
371.593	372.72
371.974	360.97
372.355	376.78
372.736	364.58
373.117	400.06
373.498	360.51
373.879	365.48
374.26	392.6
374.641	371.13
375.021	371.36
375.402	386.5
375.783	382.43
376.163	417.69
376.544	394.41
376.925	399.16
377.305	380.63
377.686	385.15
378.066	382.21
378.447	403
378.827	413.39
379.208	399.16
379.588	419.27
379.968	411.36
380.349	415.88
380.729	387.18
381.109	410.68
381.489	391.47
381.87	410.68
382.25	397.12
382.63	406.84
383.01	418.59
383.39	390.34
383.77	414.97
384.15	407.52
384.53	445.26
384.91	433.96
385.29	455.43
385.67	440.96
386.049	440.29
386.429	440.74
386.809	443
387.189	449.78
387.568	453.39
387.948	434.18
388.328	461.98
388.707	448.19
389.087	450.91
389.466	466.5
389.846	474.41
390.225	479.38
390.605	473.5
390.984	470.34
391.363	479.15
391.743	490.68
392.122	497.01
392.501	460.62
392.881	516.67
393.26	506.05
393.639	514.63
394.018	499.49
394.397	503.79
394.776	516.22
395.155	508.08
395.534	506.5
395.913	502.43
396.292	520.28
396.671	527.29
397.05	529.77
397.429	525.03
397.808	521.41
398.186	525.03
398.565	546.27
398.944	538.36
399.323	544.92
399.701	537.01
400.08	581.98
400.458	558.02
400.837	549.43
401.215	563.67
401.594	560.28
401.972	551.02
402.351	556.67
402.729	570.68
403.107	577.68
403.486	582.88
403.864	592.37
404.242	575.87
404.62	595.99
404.999	607.29
405.377	614.74
405.755	618.36
406.133	608.64
406.511	619.72
406.889	634.4
407.267	619.26
407.645	642.54
408.023	656.32
408.401	659.04
408.779	647.96
409.156	672.14
409.534	650.45
409.912	683.67
410.29	679.83
410.667	696.55
411.045	694.52
411.422	689.54
411.8	706.72
412.178	725.7
412.555	724.8
412.933	709.43
413.31	710.79
413.687	729.32
414.065	737.68
414.442	750.11
414.819	769.54
415.197	750.79
415.574	757.56
415.951	773.84
416.328	774.74
416.705	790.78
417.082	786.72
417.46	814.29
417.837	778.13
418.214	816.09
418.591	828.75
418.967	816.09
419.344	820.61
419.721	827.17
420.098	827.17
420.475	850.44
420.852	855.42
421.228	860.39
421.605	862.65
421.982	889.76
422.358	850.67
422.735	862.65
423.111	863.1
423.488	897.9
423.864	895.41
424.241	895.87
424.617	914.62
424.994	934.28
425.37	916.66
425.746	935.19
426.123	929.54
426.499	919.14
426.875	958.01
427.251	979.71
427.627	983.32
428.003	976.32
428.379	974.06
428.756	985.58
429.132	1007.95
429.507	999.37
429.883	1057.9
430.259	1051.57
430.635	1056.31
431.011	1058.35
431.387	1066.94
431.763	1109.65
432.138	1086.14
432.514	1124.56
432.89	1108.52
433.265	1136.54
433.641	1169.98
434.016	1143.54
434.392	1192.81
434.767	1177.44
435.143	1161.62
435.518	1195.29
435.894	1236.87
436.269	1231.68
436.644	1263.31
437.02	1242.3
437.395	1250.43
437.77	1284.33
438.145	1281.17
438.52	1280.04
438.895	1330.88
439.271	1299.25
439.646	1312.8
440.021	1329.98
440.395	1334.72
440.77	1310.77
441.145	1336.98
441.52	1367.72
441.895	1369.07
442.27	1377.21
442.645	1361.84
443.019	1397.55
443.394	1418.11
443.769	1400.71
444.143	1439.58
444.518	1410.88
444.892	1429.64
445.267	1443.42
445.641	1469.41
446.016	1479.35
446.39	1504.89
446.764	1493.36
447.139	1494.49
447.513	1472.35
447.887	1467.15
448.262	1489.07
448.636	1513.7
449.01	1515.51
449.384	1519.58
449.758	1565
450.132	1572.23
450.506	1602.06
450.88	1601.61
451.254	1623.3
451.628	1614.04
452.002	1642.74
452.376	1644.1
452.75	1645
453.123	1701.49
453.497	1715.73
453.871	1693.13
454.244	1741.27
454.618	1762.51
454.992	1770.19
455.365	1777.2
455.739	1806.8
456.112	1797.31
456.486	1870.53
456.859	1863.07
457.232	1937.87
457.606	1922.28
457.979	1949.85
458.352	1966.57
458.725	1976.06
459.099	2007.93
459.472	2056.29
459.845	2059.23
460.218	2078.89
460.591	2103.29
460.964	2131.54
461.337	2164.31
461.71	2192.56
462.083	2243.18
462.456	2237.53
462.829	2220.58
463.201	2260.35
463.574	2283.4
463.947	2322.5
464.32	2359.56
464.692	2381.48
465.065	2357.07
465.438	2421.48
465.81	2465.09
466.183	2463.51
466.555	2506.22
466.928	2539.44
467.3	2515.26
467.672	2577.18
468.045	2634.35
468.417	2618.98
468.789	2639.32
469.161	2739.21
469.534	2741.92
469.906	2764.29
470.278	2784.86
470.65	2834.57
471.022	2867.11
471.394	2912.31
471.766	2915.25
472.138	2987.56
472.51	3001.57
472.882	3097.16
473.253	3130.84
473.625	3145.52
473.997	3258.06
474.369	3209.48
474.74	3275.01
475.112	3335.58
475.484	3352.75
475.855	3440.66
476.227	3512.07
476.598	3598.17
476.97	3633.87
477.341	3700.99
477.713	3736.7
478.084	3802.46
478.455	3840.2
478.827	3895.79
479.198	4025.73
479.569	4036.35
479.94	4104.82
480.311	4212.84
480.682	4297.81
481.053	4403.57
481.424	4484.7
481.795	4465.94
482.166	4618.48
482.537	4637.01
482.908	4793.16
483.279	4839.27
483.65	4915.87
484.021	5054.4
484.391	5152.93
484.762	5190.22
485.133	5297.56
485.503	5363.32
485.874	5521.28
486.244	5577.55
486.615	5726.25
486.985	5722.18
487.356	5882.18
487.726	5982.51
488.097	6149.06
488.467	6181.38
488.837	6347.02
489.207	6427.25
489.578	6563.97
489.948	6700.23
490.318	6861.81
490.688	6914.47
491.058	7055.48
491.428	7166.89
491.798	7266.09
492.168	7445.52
492.538	7573.43
492.908	7699.08
493.278	7871.73
493.648	7902.69
494.017	8045.96
494.387	8221.32
494.757	8330.47
495.126	8549.9
495.496	8672.61
495.866	8830.35
496.235	8944.02
496.605	9137.23
496.974	9263.1
497.344	9398.69
497.713	9562.76
498.082	9732.24
498.452	9841.17
498.821	9997.55
499.19	10174.49
499.559	10343.53
499.928	10516.63
500.298	10670.75
500.667	10823.74
501.036	10965.88
501.405	11249.72
501.774	11274.35
502.143	11512.99
502.512	11717.28
502.88	11934.22
503.249	11983.26
503.618	12243.82
503.987	12328.56
504.356	12535.56
504.724	12760.64
505.093	12973.29
505.462	13148.43
505.83	13393.16
506.199	13528.53
506.567	13763.1
506.936	13833.61
507.304	14166.93
507.672	14261.84
508.041	14544.32
508.409	14690.08
508.777	14965.55
509.145	15223.85
509.514	15274.02
509.882	15467.46
510.25	15571.19
510.618	15842.37
510.986	16036.94
511.354	16309.25
511.722	16435.57
512.09	16725.51
512.458	16709.91
512.826	16955.56
513.193	17101.09
513.561	17320.97
513.929	17515.09
514.297	17797.57
514.664	17919.37
515.032	18082.31
515.4	18381.06
515.767	18495.4
516.135	18621.95
516.502	18627.38
516.869	18990.53
517.237	19234.82
517.604	19191.66
517.972	19588.71
518.339	19696.28
518.706	19800.23
519.073	20016.49
519.44	20030.96
519.808	20437.05
520.175	20447.44
520.542	20809.01
520.909	20849.69
521.276	21041.1
521.643	21286.06
522.009	21378.72
522.376	21657.13
522.743	21837.46
523.11	22090.56
523.477	22216.66
523.843	22303.21
524.21	22638.8
524.577	22848.51
524.943	23035.4
525.31	23130.99
525.676	23345.45
526.043	23685.32
526.409	23723.97
526.776	23948.82
527.142	24005.77
527.508	24308.13
527.874	24427.68
528.241	24635.81
528.607	24722.58
528.973	25058.17
529.339	25069.24
529.705	25362.57
530.071	25486.86
530.437	25517.82
530.803	25882.55
531.169	25948.54
531.535	26014.53
531.901	26095.66
532.267	26280.28
532.632	26508.53
532.998	26516.21
533.364	26767.95
533.73	26885.69
534.095	26954.16
534.461	27051.34
534.826	27196.87
535.192	27279.13
535.557	27453.36
535.923	27579.01
536.288	27639.8
536.653	27713.92
537.019	27732
537.384	27899.22
537.749	27932.67
538.114	28016.96
538.479	27951.88
538.845	28205.43
539.21	28193.68
539.575	28333.56
539.94	28456.27
540.305	28448.36
540.67	28369.27
541.034	28492.43
541.399	28637.28
541.764	28695.81
542.129	28892.19
542.494	28910.72
542.858	28931.74
543.223	28929.25
543.587	29015.8
543.952	29044.28
544.316	29091.51
544.681	29173.99
545.045	29367.89
545.41	29290.37
545.774	29314.33
546.138	29466.87
546.503	29585.28
546.867	29522.91
547.231	29696.69
547.595	29678.84
547.959	29902.79
548.324	29965.38
548.688	29851.26
549.052	30149.56
549.416	29921.77
549.779	30087.87
550.143	30175.1
550.507	30333.96
550.871	30415.32
551.235	30273.4
551.599	30658.7
551.962	30613.28
552.326	30589.32
552.689	30634.52
553.053	30572.15
553.417	30677
553.78	30979.14
554.143	30901.18
554.507	30999.48
554.87	30967.84
555.234	31344.78
555.597	31166.93
555.96	31329.87
556.323	31333.94
556.686	31448.28
557.05	31664.1
557.413	31727.15
557.776	31668.39
558.139	31990.64
558.502	32067.7
558.865	32019.12
559.228	32386.11
559.59	32204.42
559.953	32239.45
560.316	32708.14
560.679	32501.36
561.041	32841.02
561.404	33023.61
561.767	33140.89
562.129	32983.38
562.492	33284.17
562.854	33352.19
563.217	33410.27
563.579	33509.25
563.941	33675.34
564.304	33772.06
564.666	34140.64
565.028	34075.11
565.39	34115.56
565.753	34392.61
566.115	34328.66
566.477	34496.79
566.839	34615.43
567.201	34921.86
567.563	34840.74
567.925	35165.7
568.287	35185.13
568.648	35296.54
569.01	35422.64
569.372	35732.24
569.734	35578.12
570.095	35838.45
570.457	36100.36
570.819	36002.74
571.18	36046.13
571.542	36268.72
571.903	36273.69
572.265	36419.9
572.626	36510.52
572.987	36622.84
573.349	36739.22
573.71	36763.85
574.071	36955.26
574.432	37210.39
574.794	37391.4
575.155	37275.02
575.516	37281.12
575.877	37425.08
576.238	37250.16
576.599	37598.18
576.96	37622.58
577.32	37707.55
577.681	37739.42
578.042	37762.92
578.403	37826.42
578.763	37966.98
579.124	37788.46
579.485	38142.8
579.845	38192.51
580.206	38017.83
580.566	38066.64
580.927	38031.61
581.287	38309.57
581.648	38115.68
582.008	38232.29
582.368	38220.99
582.728	38271.15
583.089	38164.94
583.449	38303.7
583.809	38146.41
584.169	38124.49
584.529	38136.02
584.889	38321.1
585.249	38122.23
585.609	38039.3
585.969	38301.44
586.329	38102.35
586.688	38152.74
587.048	38179.41
587.408	38203.13
587.768	38220.76
588.127	38188.9
588.487	38088.11
588.846	38355.9
589.206	37923.14
589.565	38017.6
589.925	38205.39
590.284	38214.89
590.643	38134.89
591.003	38106.41
591.362	38228.44
591.721	38200.42
592.08	38098.05
592.44	38144.38
592.799	38191.16
593.158	38136.69
593.517	37894.44
593.876	38167.2
594.235	38079.3
594.593	38135.79
594.952	38098.73
595.311	38020.99
595.67	37924.95
596.029	38209.91
596.387	38114.32
596.746	38314.77
597.104	37970.37
597.463	37902.58
597.822	38222.12
598.18	38017.6
598.538	38127.88
598.897	38207.2
599.255	37979.41
599.613	38343.24
599.972	38030.26
600.33	38252.85
600.688	38074.1
601.046	38278.39
601.404	38475.67
601.762	38376.69
602.12	38464.82
602.478	38428.21
602.836	38548.21
603.194	38287.65
603.552	38455.56
603.91	38378.04
604.268	38545.5
604.625	38553.18
604.983	38631.15
605.341	38433.86
605.698	38773.97
606.056	38956.79
606.413	38522.45
606.771	38966.96
607.128	38832.5
607.485	38853.74
607.843	38796.34
608.2	38969.67
608.557	38982.55
608.914	39091.25
609.272	39199.27
609.629	39325.14
609.986	39389.77
610.343	39261.64
610.7	39515.42
611.057	39438.36
611.414	39372.59
611.771	39566.49
612.127	39708.86
612.484	39756.54
612.841	39742.98
613.198	39551.35
613.554	39438.13
613.911	39878.34
614.267	39835.63
614.624	39888.06
614.98	40003.76
615.337	40212.12
615.693	40147.26
616.05	40194.72
616.406	40142.07
616.762	40164.89
617.118	40194.95
617.475	40115.85
617.831	40254.83
618.187	40333.25
618.543	40494.6
618.899	40566.24
619.255	40687.81
619.611	40730.07
619.967	40796.74
620.323	40874.48
620.678	40635.39
621.034	40644.88
621.39	40618.21
621.746	40635.84
622.101	41115.6
622.457	40709.51
622.812	41055.71
623.168	40955.15
623.523	41126.67
623.879	41100.46
624.234	40873.35
624.589	41059.1
624.945	41044.42
625.3	41105.2
625.655	41123.28
626.01	41154.47
626.365	41121.02
626.72	41017.98
627.075	41067.92
627.43	41160.34
627.785	41096.62
628.14	41054.13
628.495	41046.67
628.85	41099.33
629.205	40901.37
629.559	41182.49
629.914	41071.99
630.269	41141.36
630.623	40750.41
630.978	40756.74
631.332	40924.42
631.687	41025.21
632.041	40832.22
632.396	40790.41
632.75	40732.78
633.104	40711.09
633.459	40582.73
633.813	40567.14
634.167	40606.23
634.521	40587.7
634.875	40618.66
635.229	40537.99
635.583	40196.3
635.937	40223.19
636.291	40280.14
636.645	40307.03
636.999	40003.31
637.352	40141.84
637.706	39996.31
638.06	40175.96
638.413	39956.31
638.767	39974.61
639.121	39954.5
639.474	39850.1
639.828	39878.12
640.181	39744.11
640.534	39868.63
640.888	39652.14
641.241	39425.02
641.594	39602.65
641.947	39615.07
642.301	39426.15
642.654	39451.01
643.007	39406.72
643.36	39467.28
643.713	39347.51
644.066	39527.17
644.419	39315.87
644.771	38761.99
645.124	38514.09
645.477	38509.34
645.83	38449
646.182	38456.46
646.535	38394.77
646.888	38352.73
647.24	38162.46
647.593	38357.93
647.945	38227.31
648.298	38157.03
648.65	37988.9
649.002	37818.96
649.355	37691.73
649.707	37371.52
650.059	37420.1
650.411	37985.06
650.763	38275
651.115	38828.2
651.467	38689.9
651.819	38747.07
652.171	38601.32
652.523	38666.62
652.875	38551.83
653.227	38440.64
653.578	38745.72
653.93	38549.11
654.282	38245.84
654.633	38378.95
654.985	38430.7
655.337	38423.92
655.688	38382.34
656.039	38501.43
656.391	38196.58
656.742	38315
657.094	38205.17
657.445	38444.03
657.796	38401.32
658.147	38422.79
658.498	38322.45
658.849	38362.9
659.2	38264.38
659.551	38310.48
659.902	38564.71
660.253	38306.41
660.604	38459.4
660.955	38208.33
661.306	38475.22
661.656	38247.88
662.007	38249.23
662.358	38412.17
662.708	38505.95
663.059	38440.87
663.409	38144.6
663.76	38451.49
664.11	38571.49
664.461	38475.22
664.811	38507.98
665.161	38539.62
665.511	38498.27
665.862	38436.57
666.212	38405.61
666.562	38467.99
666.912	38397.25
667.262	38356.12
667.612	38411.72
667.962	38373.52
668.312	38397.25
668.662	38451.94
669.011	38284.26
669.361	38444.03
669.711	38357.93
670.06	38186.19
670.41	38276.8
670.76	38387.54
671.109	38324.71
671.459	38206.98
671.808	38309.8
672.157	38363.81
672.507	38061.67
672.856	38095.79
673.205	38138.95
673.554	38170.14
673.904	38099.41
674.253	38411.94
674.602	37972.18
674.951	37537.61
675.3	37378.97
675.649	38004.5
675.998	38062.57
676.346	38077.94
676.695	38142.8
677.044	37900.99
677.393	38076.58
677.741	37864.61
678.09	37773.77
678.438	37793.88
678.787	37866.19
679.135	37855.8
679.484	37672.98
679.832	37719.3
680.181	37563.83
680.529	37608.57
680.877	37375.36
681.225	37470.5
681.573	37681.11
681.922	37451.52
682.27	37350.27
682.618	37315.47
682.966	37302.14
683.314	37358.64
683.661	37112.77
684.009	37020.57
684.357	37013.56
684.705	36844.75
685.053	36910.06
685.4	36743.51
685.748	36713.23
686.095	36730.86
686.443	36519.79
686.79	36426.23
687.138	36604.76
687.485	36420.13
687.832	36425.55
688.18	36179.46
688.527	36219.91
688.874	36259.91
689.221	36141.49
689.568	35938.11
689.915	35748.51
690.262	35895.4
690.609	35727.49
690.956	35551.23
691.303	35479.82
691.65	35338.58
691.997	35383.1
692.344	35092.71
692.69	35054.52
693.037	35113.27
693.383	34739.27
693.73	34838.93
694.077	34590.12
694.423	34550.35
694.769	34537.24
695.116	34404.59
695.462	34269.45
695.808	34119.17
696.155	34099.29
696.501	33723.48
696.847	33862.91
697.193	33609.13
697.539	33590.6
697.885	33313.54
698.231	33269.48
698.577	33418.4
698.923	33194.23
699.269	33013.44
699.614	32930.5
699.96	32742.26
700.306	32746.78
700.651	32529.61
700.997	32403.96
701.342	32218.66
701.688	32367.13
702.033	32168.94
702.379	32112.22
702.724	32115.84
703.069	32039.91
703.415	31687.6
703.76	31709.52
704.105	31647.83
704.45	31607.15
704.795	31316.31
705.14	31287.16
705.485	31302.75
705.83	31039.25
706.175	31241.06
706.52	31076.99
706.865	31013.49
707.209	30821.41
707.554	30831.58
707.899	30673.84
708.243	30596.1
708.588	30584.13
708.932	30418.71
709.277	30370.8
709.621	30265.72
709.966	30095.55
710.31	30155.89
710.654	29853.3
710.998	29987.53
711.342	29944.82
711.687	29674.77
712.031	29717.03
712.375	29518.16
712.719	29619.4
713.063	29498.96
713.407	29609.91
713.75	29377.15
714.094	29313.65
714.438	29188.68
714.782	29229.13
715.125	29101.9
715.469	29411.27
715.812	29159.98
716.156	29040.66
716.499	28985.52
716.843	29029.82
717.186	28816.49
717.53	29024.62
717.873	28993.66
718.216	28868.46
718.559	28757.51
718.902	28519.32
719.246	28706.43
719.589	28478.87
719.932	28401.81
720.275	28501.92
720.617	28590.51
720.96	28437.97
721.303	28532.88
721.646	28471.86
721.989	28218.31
722.331	28388.48
722.674	28423.73
723.016	28268.25
723.359	28004.98
723.701	28284.98
724.044	28171.76
724.386	28154.58
724.729	28172.21
725.071	28105.09
725.413	28086.79
725.755	28057.86
726.097	27956.17
726.439	27893.12
726.782	27861.03
727.124	28017.86
727.465	27760.02
727.807	27853.8
728.149	27896.96
728.491	27817.87
728.833	27844.76
729.175	27800.92
729.516	27740.58
729.858	27781.49
730.199	27783.29
730.541	27733.58
730.882	27737.65
731.224	27830.07
731.565	27567.26
731.906	27713.92
732.248	27719.12
732.589	27475.51
732.93	27522.28
733.271	27667.37
733.612	27523.87
733.953	27682.51
734.294	27590.76
734.635	27462.85
734.976	27710.53
735.317	27529.52
735.658	27626.01
735.999	27532.23
736.339	27631.21
736.68	27701.94
737.021	27733.35
737.361	27535.39
737.702	27830.53
738.042	27564.54
738.383	27709.85
738.723	27691.55
739.063	27627.14
739.404	27668.04
739.744	27699.23
740.084	27567.93
740.424	27781.26
740.764	27794.59
741.104	27931.77
741.444	27816.29
741.784	27655.39
742.124	27902.84
742.464	27816.51
742.804	27837.98
743.143	27783.97
743.483	27867.81
743.823	27785.78
744.162	27811.09
744.502	27966.57
744.841	28008.15
745.181	28115.94
745.52	28004.76
745.86	28110.29
746.199	28170.63
746.538	28217.18
746.877	28199.1
747.216	28251.31
747.556	28351.64
747.895	28491.98
748.234	28403.62
748.573	28517.96
748.911	28501.92
749.25	28587.57
749.589	28574.91
749.928	28775.36
750.267	28769.26
750.605	28711.86
750.944	28913.21
751.283	28824.62
751.621	28952.76
751.96	28947.56
752.298	29046.31
752.636	29054.22
752.975	28985.98
753.313	29090.61
753.651	29312.07
753.989	29101.9
754.327	29178.96
754.666	29153.65
755.004	29348.9
