Data from 383_FLMS001491_006.txt Node
Date: Thu Apr 19 15:42:39 BST 2018
User: hsy
Spectrometer: FLMS00149
Trigger mode: 0
Integration Time (sec): 1.000000E-2
Scans to average: 10
Electric dark correction enabled: true
Nonlinearity correction enabled: false
Boxcar width: 0
XAxis mode: Wavelengths
Number of Pixels in Spectrum: 2048
>>>>>Begin Spectral Data<<<<<
341.393	-7.47
341.776	-7.47
342.16	-7.47
342.543	-36.85
342.927	-70.29
343.31	-86.11
343.693	-60.8
344.077	-85.21
344.46	-51.09
344.843	-70.52
345.226	-33.23
345.61	-20.58
345.993	-9.96
346.376	6.31
346.759	19.65
347.142	13.54
347.525	46.76
347.908	45.18
348.291	94.22
348.674	79.98
349.057	111.85
349.44	125.18
349.823	156.14
350.206	163.6
350.588	239.08
350.971	252.63
351.354	263.26
351.737	278.4
352.119	256.7
352.502	316.36
352.884	312.97
353.267	321.56
353.65	335.34
354.032	354.1
354.414	327.66
354.797	358.17
355.179	351.62
355.562	374.21
355.944	377.6
356.326	373.08
356.709	398.39
357.091	384.83
357.473	375.34
357.855	375.8
358.238	378.06
358.62	382.57
359.002	385.51
359.384	379.86
359.766	386.19
360.148	406.3
360.53	359.3
360.912	400.2
361.294	376.25
361.676	376.25
362.057	380.54
362.439	376.02
362.821	365.85
363.203	357.72
363.584	388.45
363.966	355.23
364.348	362.91
364.729	372.63
365.111	365.85
365.493	371.05
365.874	376.02
366.256	369.69
366.637	372.41
367.019	356.13
367.4	365.85
367.781	365.63
368.163	372.86
368.544	361.11
368.925	378.51
369.306	364.27
369.688	360.88
370.069	372.63
370.45	364.5
370.831	375.34
371.212	362.91
371.593	382.12
371.974	348.23
372.355	361.33
372.736	370.82
373.117	412.18
373.498	379.86
373.879	373.76
374.26	355.46
374.641	371.28
375.021	375.57
375.402	386.87
375.783	388
376.163	396.81
376.544	394.1
376.925	393.42
377.305	375.8
377.686	381.44
378.066	396.13
378.447	418.96
378.827	416.02
379.208	395.91
379.588	415.57
379.968	401.33
380.349	402.69
380.729	400.65
381.109	411.73
381.489	429.58
381.87	418.96
382.25	422.35
382.63	429.58
383.01	449.24
383.39	409.92
383.77	425.96
384.15	447.43
384.53	442.46
384.91	451.5
385.29	441.1
385.67	444.95
386.049	450.14
386.429	455.57
386.809	443.14
387.189	455.79
387.568	458.96
387.948	463.93
388.328	433.19
388.707	441.1
389.087	469.13
389.466	474.55
389.846	468.9
390.225	463.93
390.605	467.54
390.984	464.15
391.363	465.51
391.743	504.61
392.122	489.46
392.501	479.07
392.881	463.25
393.26	504.15
393.639	497.15
394.018	517.71
394.397	506.64
394.776	505.74
395.155	517.94
395.534	503.25
395.913	505.51
396.292	499.86
396.671	518.84
397.05	538.5
397.429	533.08
397.808	544.83
398.186	522.23
398.565	537.15
398.944	535.79
399.323	529.46
399.701	528.56
400.08	556.81
400.458	558.16
400.837	552.29
401.215	557.03
401.594	561.1
401.972	568.11
402.351	572.4
402.729	596.35
403.107	606.98
403.486	590.03
403.864	550.25
404.242	591.38
404.62	603.36
404.999	601.33
405.377	613.3
405.755	586.86
406.133	608.11
406.511	612.85
406.889	613.3
407.267	648.1
407.645	636.35
408.023	636.81
408.401	646.97
408.779	635.68
409.156	651.04
409.534	672.74
409.912	670.93
410.29	687.88
410.667	703.7
411.045	693.75
411.422	685.17
411.8	708.67
412.178	715
412.555	717.93
412.933	733.75
413.31	735.79
413.687	736.92
414.065	727.88
414.442	740.76
414.819	759.29
415.197	740.98
415.574	760.42
415.951	775.11
416.328	781.89
416.705	782.11
417.082	776.69
417.46	787.99
417.837	792.73
418.214	789.57
418.591	794.32
418.967	817.37
419.344	825.5
419.721	821.66
420.098	827.53
420.475	817.59
420.852	827.76
421.228	847.2
421.605	851.04
421.982	829.34
422.358	860.98
422.735	877.7
423.111	872.05
423.488	873.64
423.864	903.69
424.241	902.11
424.617	903.69
424.994	907.98
425.37	924.93
425.746	903.24
426.123	945.72
426.499	938.49
426.875	967.64
427.251	955.21
427.627	958.38
428.003	982.33
428.379	995.44
428.756	1027.53
429.132	987.76
429.507	1033.41
429.883	1024.59
430.259	1032.05
430.635	1049.22
431.011	1065.27
431.387	1077.25
431.763	1094.19
432.138	1101.2
432.514	1096.23
432.89	1111.6
433.265	1151.82
433.641	1152.72
434.016	1142.55
434.392	1187.98
434.767	1207.64
435.143	1161.76
435.518	1231.59
435.894	1203.12
436.269	1224.59
436.644	1232.04
437.02	1250.57
437.395	1255.09
437.77	1267.75
438.145	1281.99
438.52	1277.24
438.895	1300.29
439.271	1301.19
439.646	1297.13
440.021	1310.46
440.395	1357.92
440.77	1308.88
441.145	1339.84
441.52	1364.02
441.895	1348.2
442.27	1370.57
442.645	1348.2
443.019	1400.85
443.394	1395.43
443.769	1414.86
444.143	1397.01
444.518	1409.21
444.892	1458.03
445.267	1422.77
445.641	1446.95
446.016	1448.99
446.39	1477.69
446.764	1460.74
447.139	1488.31
447.513	1481.75
447.887	1513.62
448.262	1502.55
448.636	1494.86
449.01	1536.67
449.384	1542.54
449.758	1544.58
450.132	1576.44
450.506	1564.24
450.88	1583.67
451.254	1586.16
451.628	1625.71
452.002	1624.58
452.376	1630
452.75	1669.77
453.123	1677.46
453.497	1667.74
453.871	1689.21
454.244	1727.4
454.618	1750.22
454.992	1768.3
455.365	1799.71
455.739	1816.44
456.112	1824.57
456.486	1851.01
456.859	1881.97
457.232	1901.86
457.606	1926.94
457.979	1904.12
458.352	1999.48
458.725	1964.68
459.099	2013.27
459.472	2023.21
459.845	2055.07
460.218	2081.97
460.591	2074.51
460.964	2117.67
461.337	2157.22
461.71	2233.37
462.083	2206.03
462.456	2210.32
462.829	2219.81
463.201	2258.91
463.574	2273.82
463.947	2289.87
464.32	2358.12
464.692	2355.4
465.065	2385.46
465.438	2428.4
465.81	2448.74
466.183	2426.14
466.555	2496.19
466.928	2531.67
467.3	2547.49
467.672	2553.37
468.045	2629.07
468.417	2633.59
468.789	2670.42
469.161	2672.23
469.534	2679.01
469.906	2777.09
470.278	2820.93
470.65	2821.83
471.022	2885.79
471.394	2897.54
471.766	2910.42
472.138	2967.59
472.51	3000.81
472.882	3065.44
473.253	3058.21
473.625	3176.63
473.997	3207.36
474.369	3255.04
474.74	3284.87
475.112	3353.8
475.484	3393.57
475.855	3423.4
476.227	3491.19
476.598	3591.08
476.97	3602.6
477.341	3676.5
477.713	3720.79
478.084	3763.05
478.455	3854.35
478.827	3963.72
479.198	4002.37
479.569	4033.55
479.94	4177.5
480.311	4221.34
480.682	4283.49
481.053	4404.39
481.424	4485.52
481.795	4501.56
482.166	4620.43
482.537	4663.14
482.908	4796.92
483.279	4873.98
483.65	4963.7
484.021	5061.32
484.391	5153.75
484.762	5178.15
485.133	5281.88
485.503	5359.39
485.874	5523
486.244	5547.41
486.615	5725.26
486.985	5792.15
487.356	5940.85
487.726	5965.25
488.097	6142.2
488.467	6207.96
488.837	6365.47
489.207	6466.26
489.578	6658.57
489.948	6758.45
490.318	6848.17
490.688	6894.72
491.058	7070.31
491.428	7191.66
491.798	7323.18
492.168	7559.11
492.538	7636.85
492.908	7830.51
493.278	7960.91
493.648	8043.62
494.017	8155.25
494.387	8329.03
494.757	8449.26
495.126	8580.78
495.496	8778.29
495.866	8893.31
496.235	9054.44
496.605	9215.56
496.974	9327.88
497.344	9584.82
497.713	9646.29
498.082	9835.43
498.452	9982.55
498.821	10204.24
499.19	10318.81
499.559	10520.84
499.928	10670.89
500.298	10827.5
500.667	11002.18
501.036	11092.35
501.405	11328.05
501.774	11418.44
502.143	11712.45
502.512	11837.64
502.88	12074.92
503.249	12179.78
503.618	12421.35
503.987	12612.76
504.356	12802.81
504.724	12929.14
505.093	13033.54
505.462	13306.08
505.83	13520.08
506.199	13751.04
506.567	14104.47
506.936	14084.36
507.304	14351.47
507.672	14542.88
508.041	14638.92
508.409	14944
508.777	15179.7
509.145	15400.03
509.514	15474.61
509.882	15774.94
510.25	15956.18
510.618	16160.24
510.986	16189.62
511.354	16395.94
511.722	16669.15
512.09	16981.69
512.458	17061.46
512.826	17199.31
513.193	17389.81
513.561	17522.01
513.929	17739.86
514.297	17983.02
514.664	18139.85
515.032	18329.22
515.4	18596.79
515.767	18683.34
516.135	18850.11
516.502	18906.61
516.869	19304.79
517.237	19347.27
517.604	19316.99
517.972	19745.46
518.339	19942.29
518.706	20068.16
519.073	20241.04
519.44	20317.64
519.808	20537.3
520.175	20656.84
520.542	20983.61
520.909	21132.54
521.276	21269.03
521.643	21506.31
522.009	21727.32
522.376	21828.34
522.743	21948.79
523.11	22328.44
523.477	22497.47
523.843	22714.64
524.21	22907.63
524.577	23156.67
524.943	23222.43
525.31	23293.38
525.676	23646.82
526.043	23893.14
526.409	23963.42
526.776	24282.29
527.142	24469.62
527.508	24611.99
527.874	24768.6
528.241	24852.21
528.607	24955.04
528.973	25356.61
529.339	25284.52
529.705	25569.71
530.071	25823.94
530.437	25919.08
530.803	26147.55
531.169	26157.49
531.535	26342.57
531.901	26384.6
532.267	26596.57
532.632	26860.07
532.998	26840.64
533.364	27024.13
533.73	27147.07
534.095	27337.12
534.461	27356.33
534.826	27494.86
535.192	27581.86
535.557	27860.95
535.923	27702.31
536.288	27930.32
536.653	27931.91
537.019	27874.06
537.384	28026.14
537.749	28201.73
538.114	28252.35
538.479	28263.65
538.845	28439.69
539.21	28284.89
539.575	28562.4
539.94	28594.26
540.305	28867.7
540.67	28682.17
541.034	28876.97
541.399	28861.6
541.764	28981.37
542.129	29176.85
542.494	29116.06
542.858	29263.62
543.223	29115.38
543.587	29366.67
543.952	29200.57
544.316	29376.39
544.681	29374.58
545.045	29602.37
545.41	29745.19
545.774	29613.67
546.138	29717.62
546.503	29886.43
546.867	29866.09
547.231	29977.5
547.595	30048.91
547.959	30147.44
548.324	30078.52
548.688	30237.83
549.052	30428.34
549.416	30246.65
549.779	30358.06
550.143	30435.12
550.507	30580.88
550.871	30680.99
551.235	30593.08
551.599	30954.43
551.962	30933.18
552.326	30956.23
552.689	31037.59
553.053	30932.96
553.417	30968.66
553.78	31322.1
554.143	31227.64
554.507	31430.35
554.87	31530.68
555.234	31737.91
555.597	31465.6
555.96	31620.62
556.323	31729.1
556.686	31751.47
557.05	32009.31
557.413	32051.57
557.776	32181.74
558.139	32422.18
558.502	32322.98
558.865	32408.85
559.228	32619.02
559.59	32610.43
559.953	32890.87
560.316	33155.05
560.679	33215.84
561.041	33284.31
561.404	33473.68
561.767	33685.65
562.129	33493.79
562.492	33760.68
562.854	33816.72
563.217	33829.15
563.579	34045.19
563.941	34169.48
564.304	34252.42
564.666	34517.27
565.028	34430.72
565.39	34589.13
565.753	34912.97
566.115	34946.64
566.477	35098.5
566.839	35201.55
567.201	35534.64
567.563	35380.75
567.925	35663
568.287	35620.74
568.648	35761.98
569.01	35984.35
569.372	36244.91
569.734	36196.32
570.095	36356.32
570.457	36637.21
570.819	36580.72
571.18	36640.38
571.542	36883.76
571.903	36872.46
572.265	36944.78
572.626	37050.54
572.987	37103.64
573.349	37211.21
573.71	37315.39
574.071	37433.8
574.432	37650.52
574.794	37803.96
575.155	37847.13
575.516	37861.82
575.877	37942.49
576.238	38073.79
576.599	38139.77
576.96	38206.44
577.32	38069.49
577.681	38238.53
578.042	38477.17
578.403	38250.73
578.763	38435.81
579.124	38509.93
579.485	38706.54
579.845	38757.16
580.206	38473.32
580.566	38668.8
580.927	38593.1
581.287	38831.73
581.648	38629.48
582.008	38921.67
582.368	38869.02
582.728	38874.9
583.089	38865.18
583.449	38778.85
583.809	38815.46
584.169	38781.57
584.529	38606.88
584.889	39041.67
585.249	38795.58
585.609	38531.18
585.969	39015.91
586.329	38613.66
586.688	38926.65
587.048	38898.17
587.408	38711.96
587.768	38717.16
588.127	38726.65
588.487	38667.67
588.846	39049.35
589.206	38523.27
589.565	38633.09
589.925	38844.16
590.284	38506.32
590.643	38629.03
591.003	38766.42
591.362	38731.85
591.721	38623.83
592.08	38624.96
592.44	38825.41
592.799	38763.49
593.158	38793.09
593.517	38627.9
593.876	38806.65
594.235	38531.63
594.593	38724.39
594.952	38807.78
595.311	38657.27
595.67	38721.91
596.029	38861.11
596.387	38916.02
596.746	38914.67
597.104	38647.11
597.463	38661.34
597.822	38953.99
598.18	38691.62
598.538	38721.68
598.897	38905.63
599.255	38674.68
599.613	39166.19
599.972	38847.33
600.33	38880.77
600.688	38812.07
601.046	39027.66
601.404	39271.72
601.762	39000.77
602.12	39123.25
602.478	39226.75
602.836	39176.58
603.194	38874.44
603.552	38971.39
603.91	39074.66
604.268	39173.42
604.625	39161.67
604.983	39319.4
605.341	39115.57
605.698	39346.3
606.056	39534.99
606.413	39273.3
606.771	39621.09
607.128	39368.67
607.485	39379.52
607.843	39455.22
608.2	39488.21
608.557	39629
608.914	39591.26
609.272	39643.69
609.629	39939.05
609.986	39945.83
610.343	39850.46
610.7	40253.84
611.057	40003.23
611.414	39875.55
611.771	40156.9
612.127	40283.9
612.484	40271.02
612.841	40342.2
613.198	40236.67
613.554	40249.55
613.911	40544
614.267	40569.31
614.624	40443.67
614.98	40693.15
615.337	40832.81
615.693	40727.05
616.05	40873.26
616.406	40995.52
616.762	40736.99
617.118	40913.71
617.475	40859.48
617.831	41111
618.187	41224.89
618.543	41127.27
618.899	41339.01
619.255	41362.29
619.611	41291.78
619.967	41340.82
620.323	41529.29
620.678	41362.06
621.034	41437.77
621.39	41381.72
621.746	41473.02
622.101	41956.4
622.457	41539.46
622.812	41765.22
623.168	41677.99
623.523	41701.94
623.879	41915.04
624.234	41581.27
624.589	41759.79
624.945	41820.58
625.3	41849.28
625.655	41772.22
626.01	41724.31
626.365	41802.95
626.72	41751.88
627.075	41609.74
627.43	41584.88
627.785	41750.75
628.14	41653.81
628.495	41696.29
628.85	41713.47
629.205	41584.66
629.559	41735.16
629.914	41572.45
630.269	41652.22
630.623	41508.72
630.978	41395.96
631.332	41534.49
631.687	41488.84
632.041	41380.59
632.396	41447.03
632.75	41335.85
633.104	41432.12
633.459	41151.22
633.813	41328.62
634.167	41214.95
634.521	41313.25
634.875	41146.25
635.229	41020.6
635.583	40854.28
635.937	40827.16
636.291	40863.77
636.645	40765.69
636.999	40617.22
637.352	40742.42
637.706	40629.43
638.06	40850.21
638.413	40643.89
638.767	40455.19
639.121	40423.56
639.474	40402.09
639.828	40417
640.181	40275.31
640.534	40486.83
640.888	40360.96
641.241	40006.84
641.594	40144.47
641.947	40253.62
642.301	40085.94
642.654	40108.54
643.007	39934.3
643.36	40057.92
643.713	39991.7
644.066	40214.52
644.419	39808.2
644.771	39451.83
645.124	39163.48
645.477	38977.72
645.83	38974.55
646.182	38916.93
646.535	38872.41
646.888	38993.31
647.24	38876.7
647.593	39014.33
647.945	38911.96
648.298	38802.36
648.65	38591.97
649.002	38343.84
649.355	38117.63
649.707	38128.02
650.059	38230.85
650.411	38712.41
650.763	38908.12
651.115	39361.21
651.467	39312.17
651.819	39256.81
652.171	39243.02
652.523	39113.76
652.875	39105.17
653.227	38997.15
653.578	39358.95
653.93	39169.8
654.282	39189.92
654.633	38989.92
654.985	38996.93
655.337	38961.22
655.688	39092.29
656.039	39171.16
656.391	38794.22
656.742	38895.23
657.094	38978.4
657.445	38926.65
657.796	38907.44
658.147	38799.87
658.498	38935.46
658.849	38994.67
659.2	38700.44
659.551	38827.67
659.902	39016.14
660.253	38835.12
660.604	38896.36
660.955	38831.06
661.306	39073.08
661.656	38962.58
662.007	38942.92
662.358	38969.13
662.708	38965.51
663.059	38922.8
663.409	38683.04
663.76	38970.03
664.11	38997.6
664.461	39051.16
664.811	38937.04
665.161	39018.62
665.511	38952.63
665.862	38994.67
666.212	39027.89
666.562	38977.49
666.912	38973.88
667.262	38763.03
667.612	38848.46
667.962	38888
668.312	38930.04
668.662	39056.81
669.011	38996.25
669.361	39019.75
669.711	38924.84
670.06	38858.17
670.41	38659.08
670.76	38803.26
671.109	38968
671.459	38776.37
671.808	38767.1
672.157	38823.6
672.507	38653.43
672.856	38626.54
673.205	38662.02
673.554	38829.93
673.904	38659.99
674.253	39053.42
674.602	38835.57
674.951	38203.28
675.3	37987.01
675.649	38602.36
675.998	38591.74
676.346	38792.64
676.695	38812.75
677.044	38466.55
677.393	38541.8
677.741	38532.53
678.09	38357.4
678.438	38298.64
678.787	38418.41
679.135	38452.08
679.484	38144.97
679.832	38201.69
680.181	38307.23
680.529	38277.4
680.877	38140.23
681.225	38038.99
681.573	38345.64
681.922	38109.72
682.27	38001.92
682.618	38001.92
682.966	37766.9
683.314	37881.93
683.661	37858.65
684.009	37750.63
684.357	37581.14
684.705	37621.6
685.053	37524.87
685.4	37338.21
685.748	37202.85
686.095	37316.97
686.443	37013.02
686.79	37041.5
687.138	37034.94
687.485	36936.19
687.832	36758.12
688.18	36771.45
688.527	36504.79
688.874	36626.14
689.221	36600.61
689.568	36236.1
689.915	36244
690.262	36383.89
690.609	36279.03
690.956	36157
691.303	36089.43
691.65	35815.54
691.997	35808.54
692.344	35742.1
692.69	35520.63
693.037	35549.11
693.383	35301.43
693.73	35348.21
694.077	35137.82
694.423	35052.17
694.769	35036.35
695.116	34921.1
695.462	34610.6
695.808	34568.12
696.155	34642.01
696.501	34395.47
696.847	34446.09
697.193	34127.68
697.539	34130.39
697.885	33907.12
698.231	33793.45
698.577	33818.08
698.923	33856.95
699.269	33516.17
699.614	33480.69
699.96	33154.59
700.306	33170.87
700.651	33087.48
700.997	32926.58
701.342	32892
701.688	32974.94
702.033	32726.58
702.379	32716.87
702.724	32458.12
703.069	32649.52
703.415	32263.54
703.76	32232.13
704.105	32055.19
704.45	32030.33
704.795	31912.82
705.14	31667.18
705.485	31794.18
705.83	31588.53
706.175	31729.77
706.52	31601.87
706.865	31563.68
707.209	31349.9
707.554	31389.44
707.899	31260.18
708.243	31090.69
708.588	30977.93
708.932	30867.42
709.277	31019.28
709.621	30756.47
709.966	30502.91
710.31	30650.25
710.654	30391.73
710.998	30311.05
711.342	30330.49
711.687	30193.09
712.031	30206.2
712.375	30050.04
712.719	29935.7
713.063	30030.61
713.407	30081.68
713.75	29967.79
714.094	29852.53
714.438	29713.1
714.782	29819.99
715.125	29662.93
715.469	29757.17
715.812	29534.35
716.156	29482.37
716.499	29476.27
716.843	29538.64
717.186	29295.94
717.53	29433.56
717.873	29432.21
718.216	29321.7
718.559	29084.64
718.902	28978.88
719.246	29166.45
719.589	28979.11
719.932	28899.34
720.275	28810.75
720.617	28870.87
720.96	28847.14
721.303	28973.24
721.646	28886.91
721.989	28721.72
722.331	28898.21
722.674	28702.28
723.016	28637.2
723.359	28512.23
723.701	28607.37
724.044	28558.11
724.386	28347.04
724.729	28408.5
725.071	28482.63
725.413	28579.35
725.755	28362.18
726.097	28421.84
726.439	28288.06
726.782	28272.91
727.124	28406.24
727.465	28428.62
727.807	28101.39
728.149	28356.08
728.491	28231.79
728.833	28219.13
729.175	28069.53
729.516	28129.64
729.858	28105.91
730.199	28288.28
730.541	28213.03
730.882	28143.88
731.224	28164.67
731.565	28061.62
731.906	28043.77
732.248	28165.57
732.589	27891.23
732.93	28039.47
733.271	27959.25
733.612	27993.15
733.953	28113.82
734.294	28047.38
734.635	27901.4
734.976	28091.9
735.317	27863.89
735.658	28040.83
735.999	27833.15
736.339	28062.75
736.68	28040.38
737.021	28031.34
737.361	27905.01
737.702	28095.07
738.042	28088.96
738.383	28049.42
738.723	28116.53
739.063	28084.67
739.404	28145.91
739.744	28076.99
740.084	27995.18
740.424	28122.86
740.764	28066.37
741.104	28255.29
741.444	28113.37
741.784	27949.53
742.124	28239.24
742.464	28179.36
742.804	28281.73
743.143	28173.03
743.483	28298.68
743.823	28128.51
744.162	28268.62
744.502	28299.58
744.841	28078.34
745.181	28287.6
745.52	28409.86
745.86	28446.47
746.199	28421.16
746.538	28380.93
746.877	28734.37
747.216	28577.99
747.556	28589.97
747.895	28688.5
748.234	28799.45
748.573	28754.71
748.911	28683.53
749.25	28843.75
749.589	28741.6
749.928	28881.03
750.267	28999
750.605	28785.44
750.944	29010.3
751.283	29010.75
751.621	29135.72
751.96	29081.71
752.298	29183.4
752.636	29176.62
752.975	29215.94
753.313	29244.19
753.651	29551.98
753.989	29360.12
754.327	29418.42
754.666	29315.83
755.004	29524.41
755.342	29556.95
