Data from 383_FLMS001491_004.txt Node
Date: Thu Apr 19 15:42:34 BST 2018
User: hsy
Spectrometer: FLMS00149
Trigger mode: 0
Integration Time (sec): 1.000000E-2
Scans to average: 10
Electric dark correction enabled: true
Nonlinearity correction enabled: false
Boxcar width: 0
XAxis mode: Wavelengths
Number of Pixels in Spectrum: 2048
>>>>>Begin Spectral Data<<<<<
341.393	3.98
341.776	3.98
342.16	3.98
342.543	-49.12
342.927	-54.55
343.31	-67.2
343.693	-66.07
344.077	-62
344.46	-62.46
344.843	-62.68
345.226	-49.12
345.61	-33.08
345.993	-12.74
346.376	-28.11
346.759	24.1
347.142	35.17
347.525	42.85
347.908	54.38
348.291	85.79
348.674	93.02
349.057	108.16
349.44	127.82
349.823	133.92
350.206	164.66
350.588	227.93
350.971	241.04
351.354	240.81
351.737	266.12
352.119	292.11
352.502	299.34
352.884	276.29
353.267	317.87
353.65	312.9
354.032	326.69
354.414	363.97
354.797	344.99
355.179	355.39
355.562	353.8
355.944	367.36
356.326	356.97
356.709	367.82
357.091	362.84
357.473	365.56
357.855	362.39
358.238	379.79
358.62	375.5
359.002	381.15
359.384	384.09
359.766	389.28
360.148	377.98
360.53	392.67
360.912	373.92
361.294	352.67
361.676	360.13
362.057	354.71
362.439	362.62
362.821	361.04
363.203	373.69
363.584	361.26
363.966	378.89
364.348	364.43
364.729	374.82
365.111	367.36
365.493	357.42
365.874	359.23
366.256	367.82
366.637	343.18
367.019	358.78
367.4	360.81
367.781	377.08
368.163	362.17
368.544	363.3
368.925	356.06
369.306	378.66
369.688	365.56
370.069	374.59
370.45	370.3
370.831	357.42
371.212	362.84
371.593	370.98
371.974	362.39
372.355	373.46
372.736	397.42
373.117	357.42
373.498	377.08
373.879	361.26
374.26	364.43
374.641	364.65
375.021	387.02
375.402	375.5
375.783	396.06
376.163	408.04
376.544	387.93
376.925	373.92
377.305	390.19
377.686	401.49
378.066	393.13
378.447	389.96
378.827	397.42
379.208	401.26
379.588	413.46
379.968	419.11
380.349	392.67
380.729	385.22
381.109	412.79
381.489	422.95
381.87	423.41
382.25	407.59
382.63	392.9
383.01	420.47
383.39	417.98
383.77	423.18
384.15	423.63
384.53	424.54
384.91	434.93
385.29	440.13
385.67	439.9
386.049	461.37
386.429	436.74
386.809	449.39
387.189	463.18
387.568	458.66
387.948	436.06
388.328	458.66
388.707	451.88
389.087	429.06
389.466	468.15
389.846	472.67
390.225	466.12
390.605	463.41
390.984	476.51
391.363	467.02
391.743	494.37
392.122	477.19
392.501	479.45
392.881	493.24
393.26	513.35
393.639	490.07
394.018	493.01
394.397	497.76
394.776	493.24
395.155	508.38
395.534	487.59
395.913	516.29
396.292	508.15
396.671	512.9
397.05	517.87
397.429	515.38
397.808	526
398.186	534.14
398.565	533.23
398.944	551.99
399.323	541.14
399.701	514.7
400.08	541.6
400.458	546.57
400.837	560.13
401.215	542.5
401.594	563.06
401.972	566
402.351	548.38
402.729	561.93
403.107	560.35
403.486	578.88
403.864	588.6
404.242	592.44
404.62	592.22
404.999	591.54
405.377	573.69
405.755	609.16
406.133	609.16
406.511	604.19
406.889	614.81
407.267	625.66
407.645	616.17
408.023	620.46
408.401	629.96
408.779	636.73
409.156	669.05
409.534	656.17
409.912	644.64
410.29	648.49
410.667	668.82
411.045	664.98
411.422	678.99
411.8	696.62
412.178	701.82
412.555	685.09
412.933	697.52
413.31	706.56
413.687	728.26
414.065	717.86
414.442	733.46
414.819	755.38
415.197	731.42
415.574	752.21
415.951	763.51
416.328	774.81
416.705	764.41
417.082	757.18
417.46	796.5
417.837	773.68
418.214	818.2
418.591	796.5
418.967	792.21
419.344	806.22
419.721	800.57
420.098	836.73
420.475	815.49
420.852	823.17
421.228	823.4
421.605	824.98
421.982	860.23
422.358	844.64
422.735	849.38
423.111	853.23
423.488	877.18
423.864	881.02
424.241	897.52
424.617	878.08
424.994	891.19
425.37	901.13
425.746	904.75
426.123	931.64
426.499	937.29
426.875	943.17
427.251	967.12
427.627	963.28
428.003	958.53
428.379	970.96
428.756	970.96
429.132	1011.87
429.507	998.53
429.883	1018.65
430.259	1022.26
430.635	1044.86
431.011	1018.65
431.387	1065.42
431.763	1077.4
432.138	1051.19
432.514	1117.63
432.89	1086.44
433.265	1116.5
433.641	1151.52
434.016	1106.78
434.392	1153.11
434.767	1161.01
435.143	1151.52
435.518	1181.58
435.894	1190.62
436.269	1207.57
436.644	1210.05
437.02	1218.87
437.395	1226.55
437.77	1242.82
438.145	1264.74
438.52	1239.2
438.895	1282.82
439.271	1267.23
439.646	1284.63
440.021	1314.68
440.395	1299.77
440.77	1311.29
441.145	1357.62
441.52	1323.04
441.895	1341.35
442.27	1343.61
442.645	1364.85
443.019	1352.65
443.394	1357.17
443.769	1358.98
444.143	1359.2
444.518	1397.39
444.892	1397.84
445.267	1375.92
445.641	1420.89
446.016	1425.19
446.39	1439.2
446.764	1447.56
447.139	1432.42
447.513	1474
447.887	1469.48
448.262	1449.14
448.636	1482.36
449.01	1467
449.384	1528.01
449.758	1534.56
450.132	1510.16
450.506	1575.92
450.88	1541.8
451.254	1563.26
451.628	1587.22
452.002	1579.53
452.376	1609.14
452.75	1625.64
453.123	1625.18
453.497	1664.05
453.871	1686.65
454.244	1718.97
454.618	1721.45
454.992	1744.95
455.365	1723.26
455.739	1799.19
456.112	1788.57
456.486	1804.16
456.859	1801.68
457.232	1860.88
457.606	1880.77
457.979	1908.34
458.352	1982.46
458.725	1923.03
459.099	1951.95
459.472	1972.52
459.845	2033.31
460.218	2040.77
460.591	2014.55
460.964	2071.73
461.337	2118.73
461.71	2135.23
462.083	2157.6
462.456	2164.6
462.829	2157.6
463.201	2199.63
463.574	2203.47
463.947	2231.27
464.32	2318.72
464.692	2323.47
465.065	2325.5
465.438	2335.22
465.81	2377.03
466.183	2410.7
466.555	2422
466.928	2465.61
467.3	2491.83
467.672	2500.19
468.045	2544.03
468.417	2583.58
468.789	2605.04
469.161	2612.73
469.534	2660.41
469.906	2683.69
470.278	2725.27
470.65	2710.13
471.022	2814.53
471.394	2857.24
471.766	2870.35
472.138	2934.08
472.51	2950.12
472.882	2989.44
473.253	3043.68
473.625	3072.6
473.997	3145.82
474.369	3181.98
474.74	3224.69
475.112	3249.55
475.484	3311.69
475.855	3356.66
476.227	3382.65
476.598	3474.17
476.97	3509.88
477.341	3572.25
477.713	3702.42
478.084	3703.77
478.455	3803.21
478.827	3803.66
479.198	3938.57
479.569	3948.74
479.94	4068.28
480.311	4107.15
480.682	4214.27
481.053	4273.48
481.424	4378.33
481.795	4433.25
482.166	4538.1
482.537	4585.56
482.908	4682.5
483.279	4750.75
483.65	4844.53
484.021	4986.9
484.391	5034.13
484.762	5091.53
485.133	5177.63
485.503	5303.96
485.874	5427.57
486.244	5477.29
486.615	5605.19
486.985	5668.47
487.356	5792.98
487.726	5892.64
488.097	6031.17
488.467	6069.36
488.837	6282.91
489.207	6356.36
489.578	6515
489.948	6604.71
490.318	6756.12
490.688	6766.97
491.058	6967.64
491.428	7114.98
491.798	7199.73
492.168	7378.03
492.538	7487.18
492.908	7619.38
493.278	7813.5
493.648	7924.23
494.017	8087.61
494.387	8232.02
494.757	8342.07
495.126	8480.6
495.496	8619.12
495.866	8725.11
496.235	8933.69
496.605	9114.48
496.974	9259.56
497.344	9397.41
497.713	9525.99
498.082	9677.4
498.452	9840.33
498.821	10010.73
499.19	10161.46
499.559	10361.68
499.928	10577.49
500.298	10681.22
500.667	10936.35
501.036	11030.36
501.405	11259.51
501.774	11333.85
502.143	11589.22
502.512	11704.92
502.88	11936.55
503.249	12113.27
503.618	12379.02
503.987	12431.9
504.356	12647.94
504.724	12920.25
505.093	13025.79
505.462	13160.7
505.83	13390.07
506.199	13638.65
506.567	13884.75
506.936	14021.47
507.304	14318.63
507.672	14543.04
508.041	14650.38
508.409	14931.05
508.777	15208.78
509.145	15239.29
509.514	15522.9
509.882	15686.51
510.25	15764.25
510.618	16037.23
510.986	16133.95
511.354	16373.5
511.722	16623.88
512.09	16864.1
512.458	16882.18
512.826	17242.63
513.193	17425.9
513.561	17622.73
513.929	17770.97
514.297	17949.27
514.664	18139.1
515.032	18251.19
515.4	18542.93
515.767	18637.39
516.135	18812.75
516.502	18796.26
516.869	19260.43
517.237	19431.72
517.604	19412.51
517.972	19819.06
518.339	19954.87
518.706	20128.65
519.073	20151.7
519.44	20372.71
519.808	20574.29
520.175	20727.28
520.542	21016.99
520.909	21161.39
521.276	21306.93
521.643	21480.25
522.009	21623.3
522.376	21915.27
522.743	22025.32
523.11	22354.36
523.477	22632.77
523.843	22810.84
524.21	22974
524.577	23101.45
524.943	23313.43
525.31	23393.42
525.676	23682.68
526.043	23933.3
526.409	24170.35
526.776	24385.94
527.142	24427.75
527.508	24647.18
527.874	24870.67
528.241	25017.34
528.607	25065.24
528.973	25464.1
529.339	25341.85
529.705	25725.79
530.071	25827.48
530.437	26040.81
530.803	26165.55
531.169	26309.05
531.535	26375.94
531.901	26520.35
532.267	26685.77
532.632	26790.17
532.998	26937.51
533.364	27184.74
533.73	27181.12
534.095	27460.21
534.461	27494.33
534.826	27685.06
535.192	27797.15
535.557	28015.9
535.923	27902.68
536.288	28062.68
536.653	28113.98
537.019	28173.19
537.384	28228.78
537.749	28369.56
538.114	28460.64
538.479	28391.71
538.845	28510.8
539.21	28507.41
539.575	28586.51
539.94	28754.41
540.305	28886.61
540.67	29051.13
541.034	29109.66
541.399	29199.6
541.764	29144.46
542.129	29195.76
542.494	29389.88
542.858	29375.87
543.223	29266.72
543.587	29489.76
543.952	29521.17
544.316	29640.94
544.681	29591.45
545.045	29784.22
545.41	29955.96
545.774	29839.81
546.138	29852.24
546.503	29975.4
546.867	30035.96
547.231	30228.5
547.595	30286.58
547.959	30260.36
548.324	30275.73
548.688	30318.21
549.052	30414.03
549.416	30486.57
549.779	30406.57
550.143	30472.11
550.507	30691.09
550.871	30908.93
551.235	30728.15
551.599	30961.81
551.962	31005.43
552.326	30980.8
552.689	31119.55
553.053	30954.13
553.417	31106.44
553.78	31580.78
554.143	31514.34
554.507	31371.75
554.87	31663.72
555.234	31936.02
555.597	31758.85
555.96	31856.93
556.323	32002.92
556.686	31853.54
557.05	32223.7
557.413	32125.85
557.776	32185.51
558.139	32413.3
558.502	32443.13
558.865	32444.03
559.228	32727.87
559.59	32880.41
559.953	32770.35
560.316	33179.16
560.679	33072.49
561.041	33281.07
561.404	33494.63
561.767	33697.79
562.129	33591.12
562.492	33918.57
562.854	33980.72
563.217	34028.4
563.579	34098.23
563.941	34246.02
564.304	34284.66
564.666	34677.65
565.028	34680.81
565.39	34780.92
565.753	34969.62
566.115	34967.81
566.477	35109.5
566.839	35236.95
567.201	35628.81
567.563	35510.17
567.925	35825.87
568.287	35845.53
568.648	35792.87
569.01	36054.56
569.372	36444.61
569.734	36210.71
570.095	36468.11
570.457	36727.54
570.819	36582
571.18	36820.87
571.542	37019.28
571.903	36907.87
572.265	37016.8
572.626	37153.74
572.987	37195.32
573.349	37408.2
573.71	37448.42
574.071	37653.16
574.432	37860.16
574.794	37978.35
575.155	37916.88
575.516	37964.34
575.877	38152.13
576.238	38169.08
576.599	38168.18
576.96	38299.93
577.32	38325.46
577.681	38239.59
578.042	38553.48
578.403	38415.18
578.763	38334.95
579.124	38613.82
579.485	38696.07
579.845	38761.83
580.206	38710.08
580.566	38741.27
580.927	38707.6
581.287	38910.98
581.648	38789.86
582.008	39020.36
582.368	38968.83
582.728	38872.79
583.089	38907.59
583.449	38818.56
583.809	38925.22
584.169	39020.36
584.529	38735.62
584.889	39027.14
585.249	38743.3
585.609	38804.32
585.969	39093.12
586.329	38675.73
586.688	38940.36
587.048	38924.32
587.408	38810.87
587.768	38818.1
588.127	38959.79
588.487	38787.14
588.846	39010.41
589.206	38677.09
589.565	38654.49
589.925	38915.05
590.284	38840.93
590.643	38786.01
591.003	38809.06
591.362	38899.01
591.721	38824.21
592.08	38755.28
592.44	38884.09
592.799	38843.41
593.158	38804.77
593.517	38778.56
593.876	38881.15
594.235	38660.37
594.593	38732.46
594.952	38757.09
595.311	38644.77
595.67	38748.05
596.029	38838.89
596.387	38918.44
596.746	39006.57
597.104	38674.83
597.463	38666.24
597.822	38859.91
598.18	38729.97
598.538	38755.51
598.897	38999.79
599.255	38725.45
599.613	39109.62
599.972	38848.61
600.33	38948.95
600.688	38893.58
601.046	38811.78
601.404	39223.06
601.762	39145.33
602.12	39330.18
602.478	39195.27
602.836	39318.43
603.194	39078.44
603.552	39237.53
603.91	39146
604.268	39249.73
604.625	39298.32
604.983	39401.37
605.341	39178.09
605.698	39467.13
606.056	39694.69
606.413	39292.67
606.771	39614.92
607.128	39523.85
607.485	39576.5
607.843	39419.22
608.2	39658.31
608.557	39827.57
608.914	39787.12
609.272	39977.4
609.629	40078.86
609.986	40105.08
610.343	40005.87
610.7	40253.77
611.057	40103.72
611.414	40051.52
611.771	40114.79
612.127	40356.37
612.484	40454.67
612.841	40578.28
613.198	40393.2
613.554	40403.15
613.911	40575.57
614.267	40625.97
614.624	40517.27
614.98	40653.76
615.337	41105.73
615.693	40958.39
616.05	40962.23
616.406	41076.58
616.762	41009.46
617.118	40929.46
617.475	40897.82
617.831	41291.26
618.187	41265.72
618.543	41334.42
618.899	41540.52
619.255	41423.01
619.611	41311.15
619.967	41513.85
620.323	41677.46
620.678	41394.31
621.034	41245.16
621.39	41422.1
621.746	41359.28
622.101	41894.86
622.457	41533.96
622.812	41695.09
623.168	41734.19
623.523	41747.07
623.879	41767.63
624.234	41637.46
624.589	41727.63
624.945	41633.4
625.3	41788.87
625.655	41842.66
626.01	41803.56
626.365	41832.94
626.72	41703.9
627.075	41749.33
627.43	41606.73
627.785	41794.97
628.14	41680.63
628.495	41753.85
628.85	41830.91
629.205	41662.55
629.559	41879.27
629.914	41597.69
630.269	41648.76
630.623	41410.8
630.978	41416
631.332	41687.63
631.687	41575.09
632.041	41446.51
632.396	41441.54
632.75	41327.19
633.104	41392.27
633.459	41180.98
633.813	41206.29
634.167	41193.18
634.521	41320.86
634.875	41205.16
635.229	41194.54
635.583	40942.34
635.937	41123.35
636.291	40881.78
636.645	40941.44
636.999	40792.51
637.352	40913.87
637.706	40679.98
638.06	40889.91
638.413	40682.01
638.767	40594.1
639.121	40549.81
639.474	40394.11
639.828	40491.28
640.181	40439.3
640.534	40578.96
640.888	40327.89
641.241	40093.55
641.594	40249.93
641.947	40305.52
642.301	40095.36
642.654	40173.1
643.007	39980.78
643.36	40122.93
643.713	39949.6
644.066	40272.75
644.419	39947.34
644.771	39509.38
645.124	39139.23
645.477	39110.07
645.83	39053.58
646.182	38922.73
646.535	38901.94
646.888	38965.44
647.24	38962.05
647.593	39222.16
647.945	38986.23
648.298	38862.17
648.65	38548.73
649.002	38455.4
649.355	38298.57
649.707	38177.22
650.059	38091.12
650.411	38771.78
650.763	39052.67
651.115	39471.42
651.467	39303.97
651.819	39569.95
652.171	39274.14
652.523	39049.28
652.875	39183.97
653.227	39042.28
653.578	39339.67
653.93	39178.55
654.282	38997.08
654.633	39017.19
654.985	39206.57
655.337	39087.48
655.688	39000.02
656.039	39278.43
656.391	38819.23
656.742	38864.66
657.094	38985.1
657.445	39050.19
657.796	38964.31
658.147	39021.26
658.498	38951.66
658.849	39190.75
659.2	38908.04
659.551	38959.12
659.902	39182.39
660.253	38960.92
660.604	39111.2
660.955	38940.81
661.306	39107.81
661.656	39051.54
662.007	39028.49
662.358	39096.51
662.708	39033.47
663.059	38946.69
663.409	38911.89
663.76	39083.18
664.11	39195.49
664.461	39319.33
664.811	39268.49
665.161	39053.35
665.511	39102.84
665.862	39200.24
666.212	39278.43
666.562	39368.37
666.912	39179.68
667.262	39128.15
667.612	39202.73
667.962	39179.45
668.312	39032.79
668.662	39175.16
669.011	39072.79
669.361	39096.29
669.711	39122.5
670.06	39013.58
670.41	39071.43
670.76	39004.54
671.109	39128.15
671.459	39125.67
671.808	38954.15
672.157	39106.46
672.507	39035.73
672.856	38905.33
673.205	38930.87
673.554	38968.83
673.904	38948.5
674.253	39225.78
674.602	38898.1
674.951	38481.39
675.3	38295.63
675.649	38978.55
675.998	38858.55
676.346	38915.5
676.695	38898.78
677.044	38547.83
677.393	38706.02
677.741	38752.79
678.09	38662.4
678.438	38500.15
678.787	38759.35
679.135	38677.32
679.484	38244.56
679.832	38445.46
680.181	38481.16
680.529	38385.8
680.877	38139.7
681.225	38233.03
681.573	38560.03
681.922	38262.64
682.27	38068.74
682.618	38108.52
682.966	37945.58
683.314	38070.33
683.661	37922.31
684.009	37810.67
684.357	37759.15
684.705	37621.75
685.053	37763.22
685.4	37578.59
685.748	37560.28
686.095	37496.56
686.443	37204.59
686.79	37187.19
687.138	37284.58
687.485	37309.89
687.832	36928.66
688.18	37124.59
688.527	36910.81
688.874	36737.03
689.221	36806.86
689.568	36722.11
689.915	36558.73
690.262	36414.78
690.609	36348.56
690.956	36231.05
691.303	36193.31
691.65	36049.81
691.997	35883.04
692.344	35749.03
692.69	35656.83
693.037	35662.93
693.383	35382.49
693.73	35627.91
694.077	35135.04
694.423	35298.2
694.769	35123.06
695.116	35143.4
695.462	34833.8
695.808	34879.9
696.155	34705.9
696.501	34369.63
696.847	34588.38
697.193	34293.93
697.539	34433.13
697.885	34068.85
698.231	34187.26
698.577	33902.3
698.923	33846.71
699.269	33497.79
699.614	33587.73
699.96	33345.48
700.306	33439.71
700.651	33268.19
700.997	33084.7
701.342	32990.69
701.688	32896.23
702.033	32739.17
702.379	32843.35
702.724	32663.24
703.069	32646.97
703.415	32322.23
703.76	32204.27
704.105	32329.46
704.45	32131.5
704.795	32018.28
705.14	31963.59
705.485	31958.62
705.83	31604.51
706.175	31837.5
706.52	31579.42
706.865	31492.65
707.209	31445.87
707.554	31237.96
707.899	31370.62
708.243	31085.2
708.588	31114.58
708.932	30823.29
709.277	30895.37
709.621	30803.85
709.966	30686.57
710.31	30676.85
710.654	30419.91
710.998	30542.84
711.342	30509.17
711.687	30405.67
712.031	30219.23
712.375	30271.89
712.719	30221.72
713.063	30115.06
713.407	30179.69
713.75	30058.33
714.094	30060.14
714.438	29842.07
714.782	29981.73
715.125	29805.91
715.469	29862.18
715.812	29688.63
716.156	29610.89
716.499	29528.18
716.843	29647.95
717.186	29437.56
717.53	29499.03
717.873	29532.02
718.216	29470.1
718.559	29374.51
718.902	29132.26
719.246	29156.44
719.589	29064.91
719.932	28986.72
720.275	29196.89
720.617	29098.13
720.96	28901.75
721.303	28908.31
721.646	29123.9
721.989	28912.6
722.331	28869.89
722.674	28815.2
723.016	28796.67
723.359	28739.72
723.701	28791.25
724.044	28686.62
724.386	28572.27
724.729	28668.31
725.071	28784.02
725.413	28535.44
725.755	28580.41
726.097	28595.1
726.439	28418.38
726.782	28370.69
727.124	28628.77
727.465	28383.8
727.807	28454.53
728.149	28447.75
728.491	28358.94
728.833	28374.99
729.175	28281.21
729.516	28312.84
729.858	28339.96
730.199	28415.89
730.541	28337.93
730.882	28371.6
731.224	28353.52
731.565	28224.94
731.906	28281.43
732.248	28252.73
732.589	28130.93
732.93	28050.93
733.271	28203.69
733.612	28175.45
733.953	28242.79
734.294	28219.74
734.635	28087.09
734.976	28313.97
735.317	28113.75
735.658	28083.47
735.999	28124.83
736.339	28079.63
736.68	28253.41
737.021	28091.38
737.361	28160.3
737.702	28342.22
738.042	28186.07
738.383	28266.29
738.723	28361.2
739.063	28056.13
739.404	28251.15
739.744	28320.53
740.084	28281.21
740.424	28338.15
740.764	28364.14
741.104	28440.07
741.444	28335.22
741.784	28243.92
742.124	28380.86
742.464	28381.32
742.804	28416.57
743.143	28494.08
743.483	28477.58
743.823	28447.3
744.162	28547.41
744.502	28619.28
744.841	28527.3
745.181	28767.29
745.52	28647.52
745.86	28618.6
746.199	28716.45
746.538	28718.93
746.877	28810.68
747.216	28739.5
747.556	28980.85
747.895	29105.36
748.234	29021.75
748.573	29028.53
748.911	29026.27
749.25	29162.09
749.589	28982.66
749.928	29325.25
750.267	29332.93
750.605	29248.64
750.944	29356.43
751.283	29442.76
751.621	29544
751.96	29428.52
752.298	29388.52
752.636	29599.36
752.975	29709.64
753.313	29597.33
753.651	29816.31
753.989	29763.2
754.327	29831.9
754.666	29642.07
755.004	29803.2
755.342	29910.99
