Data from 383_FLMS001491_007.txt Node
Date: Thu Apr 19 15:42:42 BST 2018
User: hsy
Spectrometer: FLMS00149
Trigger mode: 0
Integration Time (sec): 1.000000E-2
Scans to average: 10
Electric dark correction enabled: true
Nonlinearity correction enabled: false
Boxcar width: 0
XAxis mode: Wavelengths
Number of Pixels in Spectrum: 2048
>>>>>Begin Spectral Data<<<<<
341.393	-22.13
341.776	-22.13
342.16	-22.13
342.543	-49.93
342.927	-62.58
343.31	-47.44
343.693	-74.56
344.077	-66.65
344.46	-67.1
344.843	-57.39
345.226	-46.09
345.61	-23.94
345.993	-28.69
346.376	12.67
346.759	16.51
347.142	16.96
347.525	27.81
347.908	46.34
348.291	88.6
348.674	79.79
349.057	123.17
349.44	107.36
349.823	140.58
350.206	158.65
350.588	217.86
350.971	256.28
351.354	262.15
351.737	281.59
352.119	300.12
352.502	289.5
352.884	291.08
353.267	309.38
353.65	330.85
354.032	334.02
354.414	337.63
354.797	350.51
355.179	347.12
355.562	369.04
355.944	385.99
356.326	355.94
356.709	342.15
357.091	378.54
357.473	356.84
357.855	364.3
358.238	384.18
358.62	376.5
359.002	372.89
359.384	362.26
359.766	387.12
360.148	373.11
360.53	384.41
360.912	389.61
361.294	372.21
361.676	390.51
362.057	366.56
362.439	378.54
362.821	395.48
363.203	379.21
363.584	380.8
363.966	356.61
364.348	344.41
364.729	372.89
365.111	376.05
365.493	370.63
365.874	350.51
366.256	385.77
366.637	356.61
367.019	372.89
367.4	364.52
367.781	380.12
368.163	357.52
368.544	360.68
368.925	385.77
369.306	371.53
369.688	364.98
370.069	361.59
370.45	358.65
370.831	364.98
371.212	372.21
371.593	372.21
371.974	366.78
372.355	370.85
372.736	370.4
373.117	388.25
373.498	386.67
373.879	374.02
374.26	349.38
374.641	369.27
375.021	359.55
375.402	360.68
375.783	393.45
376.163	406.56
376.544	369.95
376.925	368.82
377.305	409.95
377.686	400.68
378.066	390.51
378.447	402.26
378.827	414.92
379.208	401.13
379.588	378.76
379.968	411.98
380.349	411.53
380.729	407.91
381.109	407.46
381.489	404.98
381.87	410.62
382.25	422.38
382.63	425.09
383.01	410.4
383.39	433.68
383.77	420.57
384.15	404.07
384.53	440
384.91	441.58
385.29	427.12
385.67	437.06
386.049	416.05
386.429	446.33
386.809	456.73
387.189	476.39
387.568	462.83
387.948	454.92
388.328	470.51
388.707	468.93
389.087	469.61
389.466	463.05
389.846	454.24
390.225	482.49
390.605	476.61
390.984	476.84
391.363	503.05
391.743	477.97
392.122	497.85
392.501	475.26
392.881	503.73
393.26	480
393.639	498.31
394.018	492.2
394.397	495.37
394.776	513.45
395.155	509.38
395.534	527.46
395.913	524.75
396.292	535.37
396.671	521.81
397.05	552.32
397.429	534.69
397.808	526.1
398.186	519.77
398.565	541.92
398.944	531.3
399.323	529.94
399.701	556.84
400.08	560.68
400.458	566.78
400.837	550.06
401.215	554.35
401.594	545.08
401.972	547.57
402.351	572.65
402.729	564.29
403.107	567.23
403.486	592.31
403.864	554.8
404.242	600.45
404.62	588.47
404.999	580.79
405.377	592.31
405.755	630.51
406.133	634.12
406.511	592.31
406.889	611.75
407.267	641.81
407.645	663.5
408.023	647
408.401	638.42
408.779	646.78
409.156	672.76
409.534	660.11
409.912	683.16
410.29	675.25
410.667	684.74
411.045	693.78
411.422	713.67
411.8	677.06
412.178	719.77
412.555	730.39
412.933	710.96
413.31	708.24
413.687	736.94
414.065	729.26
414.442	745.53
414.819	757.28
415.197	746.66
415.574	761.8
415.951	778.3
416.328	747.79
416.705	769.26
417.082	766.32
417.46	794.34
417.837	803.38
418.214	769.26
418.591	812.65
418.967	789.15
419.344	804.06
419.721	831.4
420.098	816.49
420.475	832.99
420.852	830.05
421.228	835.92
421.605	851.97
421.982	856.04
422.358	860.1
422.735	853.78
423.111	858.52
423.488	856.94
423.864	881.12
424.241	891.74
424.617	900.78
424.994	887.22
425.37	908.01
425.746	926.32
426.123	917.5
426.499	936.03
426.875	952.76
427.251	957.73
427.627	956.6
428.003	997.05
428.379	958.63
428.756	993.21
429.132	1022.59
429.507	1011.29
429.883	1020.78
430.259	1030.95
430.635	1071.62
431.011	1050.61
431.387	1075.69
431.763	1099.42
432.138	1086.99
432.514	1085.64
432.89	1102.58
433.265	1111.4
433.641	1157.27
434.016	1163.83
434.392	1172.64
434.767	1160.44
435.143	1173.32
435.518	1190.27
435.894	1204.05
436.269	1222.35
436.644	1213.77
437.02	1235.46
437.395	1232.52
437.77	1256.03
438.145	1266.65
438.52	1280.43
438.895	1289.02
439.271	1270.72
439.646	1318.62
440.021	1309.81
440.395	1309.36
440.77	1318.17
441.145	1335.35
441.52	1358.85
441.895	1353.65
442.27	1368.11
442.645	1357.27
443.019	1370.6
443.394	1408.56
443.769	1409.02
444.143	1397.04
444.518	1409.24
444.892	1415.34
445.267	1439.07
445.641	1436.81
446.016	1435.46
446.39	1433.42
446.764	1465.51
447.139	1450.15
447.513	1459.64
447.887	1499.64
448.262	1491.27
448.636	1513.19
449.01	1539.63
449.384	1520.88
449.758	1542.57
450.132	1572.4
450.506	1554.78
450.88	1572.4
451.254	1605.85
451.628	1602.68
452.002	1614.89
452.376	1634.77
452.75	1668.67
453.123	1691.04
453.497	1685.62
453.871	1718.61
454.244	1726.97
454.618	1750.48
454.992	1793.41
455.365	1761.32
455.739	1823.47
456.112	1805.62
456.486	1878.16
456.859	1843.13
457.232	1866.18
457.606	1893.75
457.979	1938.27
458.352	1919.96
458.725	1974.88
459.099	1999.28
459.472	2008.77
459.845	2042.22
460.218	2049.45
460.591	2096.46
460.964	2113.63
461.337	2129.22
461.71	2169
462.083	2233.18
462.456	2192.05
462.829	2204.7
463.201	2277.92
463.574	2292.16
463.947	2285.15
464.32	2306.62
464.692	2324.92
465.065	2372.38
465.438	2388.88
465.81	2423.91
466.183	2446.05
466.555	2518.59
466.928	2487.18
467.3	2522.21
467.672	2525.6
468.045	2608.08
468.417	2632.94
468.789	2628.87
469.161	2641.07
469.534	2699.15
469.906	2753.84
470.278	2777.34
470.65	2794.74
471.022	2842.2
471.394	2899.6
471.766	2905.25
472.138	2937.11
472.51	3012.36
472.882	3070.67
473.253	3072.25
473.625	3156.77
473.997	3204.22
474.369	3187.5
474.74	3207.39
475.112	3305.92
475.484	3345.91
475.855	3451.67
476.227	3429.98
476.598	3509.75
476.97	3550.66
477.341	3636.75
477.713	3716.07
478.084	3739.12
478.455	3849.86
478.827	3829.07
479.198	3983.19
479.569	3979.57
479.94	4116.52
480.311	4189.51
480.682	4258.43
481.053	4323.29
481.424	4426.34
481.795	4454.13
482.166	4558.54
482.537	4650.06
482.908	4711.98
483.279	4813.67
483.65	4883.05
484.021	5036.27
484.391	5052.54
484.762	5189.93
485.133	5205.53
485.503	5275.81
485.874	5432.64
486.244	5483.03
486.615	5673.09
486.985	5687.32
487.356	5831.95
487.726	5920.54
488.097	6060.65
488.467	6141.32
488.837	6331.37
489.207	6367.3
489.578	6510.35
489.948	6701.98
490.318	6762.77
490.688	6763.45
491.058	7003.67
491.428	7113.5
491.798	7199.82
492.168	7396.43
492.538	7505.35
492.908	7629.87
493.278	7744.44
493.648	7834.61
494.017	8053.81
494.387	8170.42
494.757	8347.14
495.126	8355.95
495.496	8526.12
495.866	8736.96
496.235	8850.18
496.605	8981.02
496.974	9146.21
497.344	9271.63
497.713	9508.46
498.082	9557.95
498.452	9811.51
498.821	9882.01
499.19	9983.03
499.559	10198.84
499.928	10352.74
500.298	10554.09
500.667	10758.83
501.036	10868.88
501.405	11038.59
501.774	11103.9
502.143	11402.88
502.512	11545.47
502.88	11722.87
503.249	11899.36
503.618	12105.23
503.987	12240.6
504.356	12535.73
504.724	12631.55
505.093	12798.32
505.462	12976.85
505.83	13173.68
506.199	13391.98
506.567	13561.69
506.936	13671.97
507.304	14049.81
507.672	14193.77
508.041	14281.67
508.409	14572.29
508.777	14760.53
509.145	14955.33
509.514	15148.32
509.882	15404.81
510.25	15508.76
510.618	15736.1
510.986	15755.98
511.354	16053.38
511.722	16293.37
512.09	16432.12
512.458	16571.56
512.826	16833.02
513.193	16927.7
513.561	17190.75
513.929	17354.13
514.297	17663.73
514.664	17798.19
515.032	17974.23
515.4	18223.26
515.767	18235.47
516.135	18371.28
516.502	18419.19
516.869	18836.81
517.237	19133.97
517.604	19017.37
517.972	19416.45
518.339	19531.7
518.706	19637.92
519.073	19799.49
519.44	19902.99
519.808	20256.43
520.175	20244.68
520.542	20672.92
520.909	20792.91
521.276	20848.73
521.643	21210.98
522.009	21317.65
522.376	21483.74
522.743	21625.43
523.11	21876.73
523.477	22156.95
523.843	22291.86
524.21	22582.47
524.577	22695.01
524.943	22811.17
525.31	22937.26
525.676	23217.48
526.043	23421.77
526.409	23571.6
526.776	23841.42
527.142	24036.9
527.508	24092.49
527.874	24345.14
528.241	24493.61
528.607	24555.75
528.973	24837.1
529.339	24854.05
529.705	25211.1
530.071	25346.47
530.437	25548.04
530.803	25689.06
531.169	25755.04
531.535	25870.97
531.901	26023.28
532.267	26162.49
532.632	26247.46
532.998	26547.79
533.364	26611.97
533.73	26771.51
534.095	26942.81
534.461	26915.46
534.826	27129.7
535.192	27188.23
535.557	27357.49
535.923	27386.41
536.288	27533.3
536.653	27504.6
537.019	27585.28
537.384	27799.96
537.749	27852.62
538.114	28034.76
538.479	27926.96
538.845	28023.68
539.21	28068.2
539.575	28115.43
539.94	28317.01
540.305	28408.76
540.67	28393.62
541.034	28534.86
541.399	28610.34
541.764	28645.59
542.129	28672.93
542.494	28940.72
542.858	28874.74
543.223	28800.84
543.587	29107.72
543.952	29037.22
544.316	29107.95
544.681	29106.59
545.045	29259.13
545.41	29282.18
545.774	29318.79
546.138	29421.61
546.503	29461.16
546.867	29524.66
547.231	29839.91
547.595	29742.73
547.959	29819.12
548.324	29956.29
548.688	29894.82
549.052	30038.77
549.416	29918.55
549.779	30050.75
550.143	30096.85
550.507	30281.48
550.871	30274.7
551.235	30311.31
551.599	30486.44
551.962	30476.5
552.326	30671.75
552.689	30695.7
553.053	30549.95
553.417	30725.53
553.78	31017.5
554.143	31074.9
554.507	31188.12
554.87	31100.21
555.234	31439.64
555.597	31178.18
555.96	31432.86
556.323	31634.44
556.686	31578.84
557.05	31775.22
557.413	31795.79
557.776	31828.1
558.139	32131.6
558.502	32138.6
558.865	32151.03
559.228	32356.23
559.59	32447.52
559.953	32532.94
560.316	32783.33
560.679	32743.33
561.041	32965.02
561.404	33074.62
561.767	33299.7
562.129	33234.85
562.492	33495.18
562.854	33442.98
563.217	33550.09
563.579	33665.8
563.941	33954.15
564.304	34072.56
564.666	34331.31
565.028	34357.08
565.39	34361.37
565.753	34627.35
566.115	34628.71
566.477	34751.19
566.839	34904.86
567.201	35189.82
567.563	35049.04
567.925	35407.22
568.287	35328.58
568.648	35436.82
569.01	35689.7
569.372	36084.49
569.734	35863.25
570.095	36234.32
570.457	36392.73
570.819	36252.39
571.18	36408.1
571.542	36695.55
571.903	36513.63
572.265	36660.52
572.626	36894.41
572.987	36835.66
573.349	37077.23
573.71	37157.23
574.071	37260.73
574.432	37504.11
574.794	37648.06
575.155	37519.93
575.516	37545.92
575.877	37643.32
576.238	37701.4
576.599	37858.68
576.96	37881.73
577.32	38125.11
577.681	38079.92
578.042	38194.49
578.403	38014.61
578.763	38099.13
579.124	38138.67
579.485	38416.41
579.845	38455.73
580.206	38302.28
580.566	38443.07
580.927	38319.46
581.287	38555.16
581.648	38309.06
582.008	38676.51
582.368	38541.37
582.728	38575.05
583.089	38540.47
583.449	38448.27
583.809	38618.21
584.169	38542.28
584.529	38378.89
584.889	38748.37
585.249	38504.76
585.609	38373.69
585.969	38644.2
586.329	38307.71
586.688	38595.61
587.048	38535.05
587.408	38504.54
587.768	38449.85
588.127	38502.28
588.487	38486.01
588.846	38566.23
589.206	38343.41
589.565	38238.1
589.925	38487.36
590.284	38373.24
590.643	38347.03
591.003	38379.34
591.362	38609.85
591.721	38417.54
592.08	38367.59
592.44	38586.12
592.799	38468.83
593.158	38424.99
593.517	38417.54
593.876	38535.05
594.235	38418.66
594.593	38511.77
594.952	38615.5
595.311	38390.42
595.67	38505.22
596.029	38623.18
596.387	38542.5
596.746	38728.49
597.104	38344.77
597.463	38486.23
597.822	38848.71
598.18	38535.27
598.538	38449.4
598.897	38750.41
599.255	38389.97
599.613	38828.15
599.972	38645.55
600.33	38651.65
600.688	38557.19
601.046	38591.77
601.404	38907.69
601.762	38819.78
602.12	39033.79
602.478	38991.08
602.836	38994.02
603.194	38769.16
603.552	39030.4
603.91	38899.1
604.268	39034.47
604.625	38909.05
604.983	39027.91
605.341	39021.81
605.698	39352.88
606.056	39383.84
606.413	39112.21
606.771	39335.48
607.128	39289.83
607.485	39262.03
607.843	39307.23
608.2	39459.54
608.557	39587.67
608.914	39510.16
609.272	39667.22
609.629	39814.79
609.986	39763.26
610.343	39702.47
610.7	40079.86
611.057	39936.14
611.414	39925.97
611.771	40029.47
612.127	40128.9
612.484	40123.25
612.841	40297.94
613.198	40002.35
613.554	40066.98
613.911	40313.08
614.267	40482.34
614.624	40389.46
614.98	40540.19
615.337	40648.44
615.693	40646.63
616.05	40586.97
616.406	40751.03
616.762	40619.29
617.118	40730.69
617.475	40723.46
617.831	40892.72
618.187	40848.43
618.543	40857.7
618.899	41028.09
619.255	41107.18
619.611	41048.88
619.967	41306.5
620.323	41411.81
620.678	41119.61
621.034	41260.62
621.39	41115.32
621.746	41058.82
622.101	41525.48
622.457	41174.07
622.812	41295.2
623.168	41444.35
623.523	41317.12
623.879	41588.98
624.234	41313.5
624.589	41537.9
624.945	41445.03
625.3	41534.06
625.655	41585.59
626.01	41544.68
626.365	41600.05
626.72	41568.64
627.075	41382.43
627.43	41508.75
627.785	41389.43
628.14	41587.85
628.495	41419.49
628.85	41503.56
629.205	41448.64
629.559	41559.6
629.914	41302.2
630.269	41401.64
630.623	41236.22
630.978	41111.25
631.332	41400.51
631.687	41391.24
632.041	41255.43
632.396	41231.47
632.75	41260.4
633.104	41318.48
633.459	41032.16
633.813	41005.49
634.167	40943.34
634.521	40991.93
634.875	40961.87
635.229	40776.12
635.583	40655.22
635.937	40659.28
636.291	40518.27
636.645	40610.47
636.999	40372.51
637.352	40572.73
637.706	40269.69
638.06	40602.56
638.413	40376.81
638.767	40333.87
639.121	40351.95
639.474	40196.25
639.828	40172.74
640.181	40213.87
640.534	40345.62
640.888	40078.06
641.241	39726.2
641.594	39925.97
641.947	40025.85
642.301	39943.14
642.654	39756.26
643.007	39754.22
643.36	39857.27
643.713	39688.01
644.066	39823.15
644.419	39649.37
644.771	39193.11
645.124	38897.97
645.477	38882.83
645.83	38669.96
646.182	38752.89
646.535	38557.87
646.888	38740.24
647.24	38542.73
647.593	38891.19
647.945	38536.85
648.298	38576.63
648.65	38402.62
649.002	38110.88
649.355	38017.55
649.707	37872.01
650.059	37860.04
650.411	38509.74
650.763	38652.78
651.115	39264.74
651.467	39051.87
651.819	39152.43
652.171	39097.52
652.523	38941.14
652.875	39064.07
653.227	38897.3
653.578	39070.63
653.93	38989.5
654.282	38718.32
654.633	38784.98
654.985	38793.34
655.337	38923.74
655.688	38728.26
656.039	38953.79
656.391	38618.43
656.742	38737.53
657.094	38681.71
657.445	38815.94
657.796	38810.07
658.147	38674.03
658.498	38862.27
658.849	38837.19
659.2	38645.78
659.551	38664.31
659.902	38976.39
660.253	38787.02
660.604	38813.46
660.955	38679
661.306	38831.54
661.656	38671.31
662.007	38799.67
662.358	38844.87
662.708	38810.07
663.059	38915.15
663.409	38654.82
663.76	38769.39
664.11	38809.84
664.461	38822.95
664.811	38843.06
665.161	38887.81
665.511	38740.69
665.862	38739.11
666.212	38857.75
666.562	38716.51
666.912	38847.81
667.262	38648.26
667.612	38537.53
667.962	38827.92
668.312	38700.69
668.662	39069.5
669.011	38734.81
669.361	38727.58
669.711	38735.94
670.06	38687.81
670.41	38666.79
670.76	38568.49
671.109	38750.63
671.459	38796.51
671.808	38506.8
672.157	38813.68
672.507	38492.79
672.856	38617.76
673.205	38501.37
673.554	38646.46
673.904	38466.8
674.253	38802.61
674.602	38524.65
674.951	38169.41
675.3	37805.8
675.649	38454.37
675.998	38463.41
676.346	38334.15
676.695	38489.17
677.044	38261.15
677.393	38205.34
677.741	38389.29
678.09	38154.94
678.438	38104.77
678.787	38123.08
679.135	38095.96
679.484	38050.99
679.832	38038.79
680.181	37912.92
680.529	37938.45
680.877	37803.54
681.225	37768.74
681.573	37995.63
681.922	37629.76
682.27	37675.41
682.618	37686.03
682.966	37594.96
683.314	37622.53
683.661	37567.39
684.009	37386.83
684.357	37182.54
684.705	37042.2
685.053	37262.99
685.4	36992.71
685.748	37087.17
686.095	36881.3
686.443	36640.63
686.79	36716.79
687.138	36817.35
687.485	36709.56
687.832	36366.29
688.18	36381.2
688.527	36252.62
688.874	36266.86
689.221	36294.65
689.568	36197.48
689.915	36047.88
690.262	36080.65
690.609	35992.51
690.956	35762.01
691.303	35814.67
691.65	35587.78
691.997	35539.42
692.344	35481.79
692.69	35301.46
693.037	35301.46
693.383	35014.23
693.73	35078.87
694.077	34746.45
694.423	34867.8
694.769	34682.94
695.116	34621.02
695.462	34431.2
695.808	34291.77
696.155	34402.05
696.501	34075.73
696.847	34159.12
697.193	33935.62
697.539	33926.35
697.885	33634.38
698.231	33725.23
698.577	33544.44
698.923	33581.05
699.269	33418.8
699.614	33261.06
699.96	33094.29
700.306	33021.97
700.651	32955.53
700.997	32744.92
701.342	32788.76
701.688	32633.51
702.033	32539.95
702.379	32567.97
702.724	32291.59
703.069	32405.26
703.415	32077.81
703.76	32049.34
704.105	32026.29
704.45	32021.77
704.795	31866.97
705.14	31610.48
705.485	31744.04
705.83	31454.1
706.175	31587.66
706.52	31404.61
706.865	31269.47
707.209	31147.44
707.554	31137.05
707.899	31136.6
708.243	30828.81
708.588	30837.4
708.932	30641.69
709.277	30771.63
709.621	30617.51
709.966	30434.02
710.31	30291.2
710.654	30271.99
710.998	30305.21
711.342	30324.41
711.687	30232.89
712.031	30095.27
712.375	30048.49
712.719	29833.58
713.063	29746.12
713.407	30022.28
713.75	29909.74
714.094	29757.2
714.438	29648.5
714.782	29627.03
715.125	29398.79
715.469	29650.99
715.812	29374.38
716.156	29373.93
716.499	29320.15
716.843	29475.4
717.186	29185.24
717.53	29303.2
717.873	29366.25
718.216	29148.63
718.559	29095.52
718.902	28948.41
719.246	28939.82
719.589	28898.24
719.932	28773.95
720.275	28736.43
720.617	28694.4
720.96	28546.38
721.303	28860.72
721.646	28636.1
721.989	28483.11
722.331	28704.8
722.674	28402.21
723.016	28545.7
723.359	28512.48
723.701	28436.1
724.044	28482.2
724.386	28341.87
724.729	28476.55
725.071	28361.3
725.413	28285.82
725.755	28302.77
726.097	28282.21
726.439	28194.08
726.782	28024.36
727.124	28192.27
727.465	28129.22
727.807	28088.99
728.149	28084.93
728.491	28031.37
728.833	28046.96
729.175	28040.63
729.516	27888.77
729.858	27934.42
730.199	28032.72
730.541	28031.82
730.882	28005.61
731.224	28006.74
731.565	27865.5
731.906	27891.26
732.248	27953.63
732.589	27781.43
732.93	27792.05
733.271	27923.35
733.612	27879.28
733.953	27992.27
734.294	27841.32
734.635	27735.56
734.976	28022.33
735.317	27864.37
735.658	27852.39
735.999	27804.48
736.339	27851.26
736.68	27836.8
737.021	27843.35
737.361	27872.5
737.702	28031.37
738.042	27976.23
738.383	27963.12
738.723	28125.38
739.063	27855.33
739.404	28106.17
739.744	27996.11
740.084	27850.81
740.424	27958.6
740.764	27910.92
741.104	28135.77
741.444	27980.52
741.784	27901.2
742.124	28078.6
742.464	28022.33
742.804	28009.9
743.143	28045.38
743.483	28175.32
743.823	28129.22
744.162	28089.67
744.502	28210.12
744.841	28088.99
745.181	28373.05
745.52	28278.37
745.86	28306.16
746.199	28423
746.538	28392.49
746.877	28497.8
747.216	28566.27
747.556	28581.18
747.895	28623.89
748.234	28638.36
748.573	28502.77
748.911	28546.61
749.25	28695.3
749.589	28554.29
749.928	28750.44
750.267	28843.1
750.605	28891.46
750.944	28967.84
751.283	29007.39
751.621	29102.3
751.96	28960.38
752.298	29093.26
752.636	29228.4
752.975	29090.1
753.313	29174.39
753.651	29271.56
753.989	29315.85
754.327	29364.44
754.666	29138.46
755.004	29452.35
