Data from 383_FLMS001491_002.txt Node
Date: Thu Apr 19 15:42:28 BST 2018
User: hsy
Spectrometer: FLMS00149
Trigger mode: 0
Integration Time (sec): 1.000000E-2
Scans to average: 10
Electric dark correction enabled: true
Nonlinearity correction enabled: false
Boxcar width: 0
XAxis mode: Wavelengths
Number of Pixels in Spectrum: 2048
>>>>>Begin Spectral Data<<<<<
341.393	-16.31
341.776	-16.31
342.16	-16.31
342.543	-45.46
342.927	-69.87
343.31	-81.62
343.693	-83.88
344.077	-66.71
344.46	-55.63
344.843	-59.93
345.226	-25.8
345.61	-49.76
345.993	-10.89
346.376	-1.62
346.759	26.4
347.142	9.45
347.525	46.74
347.908	60.07
348.291	73.63
348.674	108.88
349.057	110.69
349.44	117.24
349.823	125.83
350.206	178.94
350.588	231.36
350.971	263.45
351.354	245.83
351.737	255.77
352.119	273.17
352.502	303.9
352.884	321.76
353.267	311.59
353.65	341.64
354.032	335.99
354.414	315.88
354.797	331.25
355.179	338.03
355.562	352.72
355.944	392.94
356.326	401.75
356.709	359.04
357.091	390
357.473	378.48
357.855	377.8
358.238	379.61
358.62	385.26
359.002	386.39
359.384	380.06
359.766	386.16
360.148	374.86
360.53	391.81
360.912	367.86
361.294	378.03
361.676	370.34
362.057	373.73
362.439	398.59
362.821	378.25
363.203	348.65
363.584	376.9
363.966	359.72
364.348	378.7
364.729	381.64
365.111	368.54
365.493	348.42
365.874	387.74
366.256	372.38
366.637	369.89
367.019	376.67
367.4	388.42
367.781	352.26
368.163	355.88
368.544	364.69
368.925	378.03
369.306	382.77
369.688	360.4
370.069	348.88
370.45	369.44
370.831	375.09
371.212	388.2
371.593	379.16
371.974	384.81
372.355	370.8
372.736	380.96
373.117	373.73
373.498	362.89
373.879	369.44
374.26	380.51
374.641	376.44
375.021	368.31
375.402	386.84
375.783	394.52
376.163	423.22
376.544	406.5
376.925	398.59
377.305	399.27
377.686	378.25
378.066	420.74
378.447	417.57
378.827	421.19
379.208	426.61
379.588	433.17
379.968	426.61
380.349	423.9
380.729	416.67
381.109	416.9
381.489	412.15
381.87	428.42
382.25	433.84
382.63	420.51
383.01	426.84
383.39	415.31
383.77	421.87
384.15	437.23
384.53	446.5
384.91	474.97
385.29	445.82
385.67	463.9
386.049	462.77
386.429	468.42
386.809	446.5
387.189	445.37
387.568	464.35
387.948	458.25
388.328	483.33
388.707	464.35
389.087	482.2
389.466	466.84
389.846	481.98
390.225	500.51
390.605	482.2
390.984	481.3
391.363	493.05
391.743	505.48
392.122	492.83
392.501	503.22
392.881	513.16
393.26	521.07
393.639	529.89
394.018	498.48
394.397	516.78
394.776	522.2
395.155	531.47
395.534	532.82
395.913	535.31
396.292	538.93
396.671	574.63
397.05	538.02
397.429	557.46
397.808	526.5
398.186	546.61
398.565	550.45
398.944	538.47
399.323	578.02
399.701	573.05
400.08	575.76
400.458	575.76
400.837	582.54
401.215	588.19
401.594	600.17
401.972	576.44
402.351	587.96
402.729	593.84
403.107	609.89
403.486	599.04
403.864	610.56
404.242	594.52
404.62	632.71
404.999	610.56
405.377	646.95
405.755	638.81
406.133	645.82
406.511	618.02
406.889	651.24
407.267	644.91
407.645	679.71
408.023	676.32
408.401	705.02
408.779	698.47
409.156	693.05
409.534	713.16
409.912	711.13
410.29	712.71
410.667	740.73
411.045	743.21
411.422	751.8
411.8	725.81
412.178	740.5
412.555	751.8
412.933	759.26
413.31	751.8
413.687	780.28
414.065	798.13
414.442	799.71
414.819	795.19
415.197	795.87
415.574	820.05
415.951	808.98
416.328	819.37
416.705	851.23
417.082	817.11
417.46	854.4
417.837	843.1
418.214	837.22
418.591	841.52
418.967	865.7
419.344	883.78
419.721	879.93
420.098	886.49
420.475	905.92
420.852	894.62
421.228	891.91
421.605	890.1
421.982	915.41
422.358	926.71
422.735	945.7
423.111	932.59
423.488	940.27
423.864	950.67
424.241	954.96
424.617	965.58
424.994	981.4
425.37	969.2
425.746	987.95
426.123	1003.1
426.499	1010.55
426.875	1021.85
427.251	1042.87
427.627	1030.21
428.003	1058.23
428.379	1057.33
428.756	1087.61
429.132	1088.74
429.507	1090.32
429.883	1107.5
430.259	1123.77
430.635	1129.65
431.011	1133.26
431.387	1166.25
431.763	1169.87
432.138	1166.25
432.514	1219.36
432.89	1225.91
433.265	1234.05
433.641	1240.6
434.016	1220.26
434.392	1281.05
434.767	1280.38
435.143	1305.91
435.518	1325.35
435.894	1303.43
436.269	1336.87
436.644	1363.31
437.02	1364.22
437.395	1344.56
437.77	1373.71
438.145	1382.29
438.52	1404.67
438.895	1387.27
439.271	1403.99
439.646	1425.23
440.021	1464.55
440.395	1447.38
440.77	1456.19
441.145	1461.39
441.52	1476.75
441.895	1460.94
442.27	1467.94
442.645	1511.1
443.019	1532.8
443.394	1545.68
443.769	1522.4
444.143	1539.13
444.518	1547.04
444.892	1515.62
445.267	1575.51
445.641	1586.13
446.016	1580.71
446.39	1589.75
446.764	1630.88
447.139	1619.58
447.513	1614.6
447.887	1617.54
448.262	1658.45
448.636	1694.15
449.01	1670.42
449.384	1680.14
449.758	1690.08
450.132	1711.55
450.506	1707.48
450.88	1754.26
451.254	1750.65
451.628	1761.49
452.002	1802.62
452.376	1801.27
452.75	1838.33
453.123	1838.33
453.497	1860.7
453.871	1872.45
454.244	1935.95
454.618	1923.07
454.992	1933.24
455.365	1948.61
455.739	2000.58
456.112	2017.08
456.486	2060.69
456.859	2088.26
457.232	2099.56
457.606	2098.21
457.979	2144.76
458.352	2169.17
458.725	2193.35
459.099	2160.13
459.472	2269.28
459.845	2264.3
460.218	2279.45
460.591	2330.07
460.964	2335.49
461.337	2342.72
461.71	2385.88
462.083	2438.31
462.456	2450.74
462.829	2486.9
463.201	2552.21
463.574	2521.25
463.947	2535.94
464.32	2609.61
464.692	2617.52
465.065	2668.14
465.438	2691.86
465.81	2712.43
466.183	2739.55
466.555	2812.31
466.928	2817.96
467.3	2792.43
467.672	2864.97
468.045	2923.95
468.417	2911.75
468.789	2926.43
469.161	2953.55
469.534	3033.78
469.906	3089.59
470.278	3081.91
470.65	3166.2
471.022	3206.65
471.394	3239.42
471.766	3295.01
472.138	3298.4
472.51	3396.25
472.882	3390.83
473.253	3509.92
473.625	3541.33
473.997	3557.15
474.369	3588.34
474.74	3637.38
475.112	3708.79
475.484	3778.16
475.855	3836.24
476.227	3899.06
476.598	4003.24
476.97	3997.82
477.341	4141.32
477.713	4190.81
478.084	4196.23
478.455	4368.43
478.827	4339.05
479.198	4465.6
479.569	4467.18
479.94	4615.2
480.311	4672.6
480.682	4796.89
481.053	4939.26
481.424	5029.66
481.795	5074.85
482.166	5185.13
482.537	5266.71
482.908	5345.35
483.279	5418.57
483.65	5595.06
484.021	5714.84
484.391	5749.18
484.762	5803.87
485.133	5907.6
485.503	5986.92
485.874	6131.55
486.244	6235.5
486.615	6435.04
486.985	6508.94
487.356	6602.04
487.726	6729.72
488.097	6836.61
488.467	6955.48
488.837	7101.69
489.207	7226.66
489.578	7388.92
489.948	7524.51
490.318	7626.65
490.688	7691.51
491.058	7965.4
491.428	8057.15
491.798	8187.76
492.168	8410.58
492.538	8494.2
492.908	8649
493.278	8862.55
493.648	8879.95
494.017	9112.26
494.387	9258.47
494.757	9394.51
495.126	9541.18
495.496	9615.3
495.866	9767.16
496.235	10054.16
496.605	10187.03
496.974	10333.47
497.344	10535.05
497.713	10694.59
498.082	10837.19
498.452	11058.42
498.821	11182.49
499.19	11293.67
499.559	11502.03
499.928	11705.19
500.298	11810.49
500.667	12095.68
501.036	12196.25
501.405	12460.87
501.774	12589.46
502.143	12762.79
502.512	12990.58
502.88	13207.29
503.249	13270.34
503.618	13573.39
503.987	13668.75
504.356	13925.24
504.724	14111.45
505.093	14230.77
505.462	14541.72
505.83	14635.73
506.199	14860.58
506.567	15221.48
506.936	15303.96
507.304	15621.92
507.672	15740.11
508.041	15980.55
508.409	16171.28
508.777	16456.47
509.145	16596.13
509.514	16646.53
509.882	16953.18
510.25	17172.39
510.618	17391.36
510.986	17571.25
511.354	17785.03
511.722	18075.87
512.09	18382.53
512.458	18387.04
512.826	18652.57
513.193	18826.58
513.561	19053.24
513.929	19209.62
514.297	19446.23
514.664	19765.99
515.032	19872.43
515.4	20079.43
515.767	20229.48
516.135	20455.69
516.502	20420.21
516.869	20834.44
517.237	21056.81
517.604	20899.75
517.972	21506.51
518.339	21510.13
518.706	21731.14
519.073	21764.36
519.44	21982.66
519.808	22225.81
520.175	22447.05
520.542	22650.44
520.909	22835.29
521.276	23122.06
521.643	23292.23
522.009	23417.65
522.376	23586.46
522.743	23863.06
523.11	24208.13
523.477	24372.88
523.843	24541.23
524.21	24829.59
524.577	24947.78
524.943	25227.77
525.31	25367.2
525.676	25729.22
526.043	25733.74
526.409	26054.19
526.776	26285.82
527.142	26305.71
527.508	26593.16
527.874	26813.26
528.241	26999.93
528.607	27254.38
528.973	27436.07
529.339	27437.43
529.705	27807.81
530.071	27978.43
530.437	28164.19
530.803	28291.87
531.169	28486.67
531.535	28505.65
531.901	28646.89
532.267	28714
532.632	29028.57
532.998	29132.07
533.364	29325.74
533.73	29340.88
534.095	29791.26
534.461	29743.13
534.826	29882.56
535.192	29961.2
535.557	30113.52
535.923	30150.8
536.288	30400.74
536.653	30475.31
537.019	30358.26
537.384	30523.22
537.749	30645.93
538.114	30714.4
538.479	30755.08
538.845	30777.68
539.21	30795.98
539.575	31125.92
539.94	31122.76
540.305	31235.07
540.67	31079.14
541.034	31363.65
541.399	31477.1
541.764	31475.51
542.129	31570.2
542.494	31657.43
542.858	31869.85
543.223	31731.33
543.587	31965.22
543.952	31956.63
544.316	32085.44
544.681	32122.95
545.045	32262.39
545.41	32378.09
545.774	32331.76
546.138	32343.29
546.503	32412.89
546.867	32412.66
547.231	32699.21
547.595	32655.82
547.959	32707.8
548.324	32844.74
548.688	32836.61
549.052	33033.89
549.416	32988.47
549.779	33013.1
550.143	33205.64
550.507	33216.94
550.871	33294
551.235	33225.75
551.599	33596.14
551.962	33602.46
552.326	33625.74
552.689	33771.95
553.053	33637.04
553.417	33712.52
553.78	34178.72
554.143	34113.18
554.507	34183.69
554.87	34233.41
555.234	34522.89
555.597	34397.25
555.96	34556.56
556.323	34552.04
556.686	34606.28
557.05	34947.29
557.413	34786.16
557.776	34969.89
558.139	35167.17
558.502	35231.57
558.865	35275.87
559.228	35495.07
559.59	35575.29
559.953	35712.01
560.316	36041.27
560.679	35970.76
561.041	36154.04
561.404	36246.91
561.767	36491.43
562.129	36456.4
562.492	36757.41
562.854	36904.98
563.217	36834.7
563.579	36962.6
563.941	37156.27
564.304	37372.99
564.666	37642.36
565.028	37462.02
565.39	37732.07
565.753	37873.76
566.115	37956.47
566.477	38156.69
566.839	38304.71
567.201	38603.69
567.563	38466.74
567.925	38853.4
568.287	38938.14
568.648	38867.41
569.01	39185.14
569.372	39504.23
569.734	39353.73
570.095	39617.22
570.457	39859.25
570.819	39835.52
571.18	39900.15
571.542	40202.06
571.903	40263.98
572.265	40202.06
572.626	40285.68
572.987	40567.03
573.349	40591.43
573.71	40669.85
574.071	40814.48
574.432	40983.74
574.794	41257.63
575.155	41142.6
575.516	41130.4
575.877	41332.88
576.238	41310.28
576.599	41399.1
576.96	41472.99
577.32	41614.23
577.681	41564.29
578.042	41868.91
578.403	41797.28
578.763	41870.27
579.124	41980.55
579.485	41983.03
579.845	42099.87
580.206	41992.3
580.566	41951.17
580.927	41952.3
581.287	42111.39
581.648	41996.37
582.008	42286.3
582.368	42155.01
582.728	42227.1
583.089	42196.14
583.449	42074.33
583.809	42231.16
584.169	42409.46
584.529	41989.81
584.889	42387.32
585.249	42057.61
585.609	42021.45
585.969	42191.16
586.329	42051.06
586.688	42105.29
587.048	42111.17
587.408	41973.77
587.768	42063.71
588.127	42131.51
588.487	42056.25
588.846	42293.08
589.206	41945.07
589.565	42053.77
589.925	42170.83
590.284	41998.4
590.643	41965.41
591.003	42081.11
591.362	42220.77
591.721	42055.57
592.08	42062.81
592.44	42189.36
592.799	42145.74
593.158	42072.07
593.517	42002.24
593.876	42173.99
594.235	41983.49
594.593	42146.19
594.952	42051.51
595.311	42065.52
595.67	42135.12
596.029	42244.95
596.387	42364.49
596.746	42411.95
597.104	42031.85
597.463	42092.41
597.822	42317.49
598.18	42091.28
598.538	42086.99
598.897	42284.95
599.255	41981.9
599.613	42570.14
599.972	42284.5
600.33	42438.16
600.688	42293.99
601.046	42466.19
601.404	42690.59
601.762	42406.98
602.12	42606.97
602.478	42510.03
602.836	42697.82
603.194	42426.86
603.552	42579.18
603.91	42456.92
604.268	42684.49
604.625	42586.41
604.983	42812.39
605.341	42561.32
605.698	42789.57
606.056	43152.72
606.413	42863.24
606.771	43147.07
607.128	43066.62
607.485	43018.71
607.843	42933.29
608.2	43174.42
608.557	43166.05
608.914	43184.13
609.272	43416.67
609.629	43543.45
609.986	43542.32
610.343	43407.18
610.7	43730.79
611.057	43641.75
611.414	43463.45
611.771	43613.95
612.127	43799.71
612.484	43837.22
612.841	43902.98
613.198	43818.92
613.554	43718.13
613.911	44092.13
614.267	44155.41
614.624	43939.37
614.98	44152.47
615.337	44399.92
615.693	44362.41
616.05	44344.55
616.406	44537.77
616.762	44281.51
617.118	44422.97
617.475	44440.6
617.831	44556.98
618.187	44543.19
618.543	44649.63
618.899	45048.49
619.255	44862.96
619.611	44856.63
619.967	44850.3
620.323	44977.08
620.678	44856.18
621.034	44924.43
621.39	44902.28
621.746	44824.09
622.101	45219.11
622.457	44990.41
622.812	45114.7
623.168	45198.09
623.523	45136.17
623.879	45286.68
624.234	45054.82
624.589	45151.09
624.945	45241.25
625.3	45332.32
625.655	45213.68
626.01	45444.41
626.365	45189.73
626.72	45206.45
627.075	45116.06
627.43	45153.35
627.785	45139.56
628.14	45107.47
628.495	45119.45
628.85	45148.38
629.205	45151.31
629.559	45227.92
629.914	45085.1
630.269	45131.65
630.623	44831.55
630.978	44622.51
631.332	44963.75
631.687	44981.83
632.041	44772.79
632.396	44994.25
632.75	44792
633.104	44760.59
633.459	44686.24
633.813	44698.9
634.167	44697.54
634.521	44810.76
634.875	44657.31
635.229	44496.87
635.583	44318.11
635.937	44277.89
636.291	44326.25
636.645	44431.33
636.999	44198.34
637.352	44295.97
637.706	43831.35
638.06	44168.29
638.413	43956.99
638.767	43978.46
639.121	44019.59
639.474	43753.38
639.828	43814.4
640.181	43733.05
640.534	43885.13
640.888	43560.62
641.241	43526.04
641.594	43424.13
641.947	43661.63
642.301	43465.03
642.654	43549.77
643.007	43427.74
643.36	43487.85
643.713	43403.56
644.066	43637.23
644.419	43188.88
644.771	42851.49
645.124	42423.93
645.477	42512.74
645.83	42343.7
646.182	42317.71
646.535	42225.74
646.888	42337.6
647.24	42143.48
647.593	42382.35
647.945	42233.2
648.298	42031.39
648.65	41973.09
649.002	41707.11
649.355	41604.51
649.707	41433.9
650.059	41468.47
650.411	41963.37
650.763	42357.71
651.115	42866.63
651.467	42588.22
651.819	42681.77
652.171	42642.45
652.523	42456.24
652.875	42437.71
653.227	42378.73
653.578	42766.74
653.93	42454.21
654.282	42276.59
654.633	42311.61
654.985	42359.97
655.337	42309.81
655.688	42310.48
656.039	42574.43
656.391	42074.78
656.742	42320.88
657.094	42236.14
657.445	42344.38
657.796	42291.95
658.147	42148.23
658.498	42226.87
658.849	42387.54
659.2	42080.66
659.551	41999.08
659.902	42274.33
660.253	41908.23
660.604	42273.42
660.955	42004.28
661.306	42323.14
661.656	42133.54
662.007	42159.08
662.358	42085.4
662.708	42279.98
663.059	42203.59
663.409	42063.48
663.76	42263.71
664.11	42208.79
664.461	42222.35
664.811	42168.79
665.161	42173.31
665.511	42190.71
665.862	42264.16
666.212	42270.71
666.562	42392.52
666.912	42382.12
667.262	42088.57
667.612	42124.5
667.962	42373.08
668.312	42216.02
668.662	42519.97
669.011	42336.7
669.361	42317.04
669.711	42192.29
670.06	42173.09
670.41	42238.62
670.76	42147.55
671.109	42322.46
671.459	42071.85
671.808	42126.31
672.157	42180.09
672.507	41797.95
672.856	41925.18
673.205	42032.52
673.554	41982.81
673.904	41932.87
674.253	42229.81
674.602	41960.66
674.951	41426.44
675.3	41302.6
675.649	41880.21
675.998	41758.18
676.346	42004.5
676.695	41932.87
677.044	41703.27
677.393	41686.32
677.741	41762.25
678.09	41688.8
678.438	41609.94
678.787	41725.87
679.135	41608.58
679.484	41448.13
679.832	41531.29
680.181	41412.43
680.529	41463.05
680.877	41206.11
681.225	41208.59
681.573	41553.44
681.922	41185.32
682.27	41073.91
682.618	41321.81
682.966	41042.95
683.314	41060.8
683.661	41055.83
684.009	40911.65
684.357	40748.26
684.705	40606.8
685.053	40744.42
685.4	40530.42
685.748	40419.46
686.095	40372.46
686.443	40175.17
686.79	40229.86
687.138	40341.27
687.485	40192.35
687.832	40090.43
688.18	40135.17
688.527	39947.38
688.874	39888.85
689.221	39743.77
689.568	39463.55
689.915	39528.18
690.262	39497.68
690.609	39433.27
690.956	39179.72
691.303	39235.54
691.65	39167.74
691.997	38977.01
692.344	38823.34
692.69	38796.9
693.037	38780.63
693.383	38278.73
693.73	38486.4
694.077	38255.45
694.423	38182.46
694.769	38038.51
695.116	38014.1
695.462	37880.54
695.808	37556.26
696.155	37728.01
696.501	37298.64
696.847	37455.92
697.193	37212.09
697.539	37179.77
697.885	36879.89
698.231	36871.98
698.577	36842.15
698.923	36764.87
699.269	36394.48
699.614	36408.04
699.96	36180.93
700.306	36274.26
700.651	36030.65
700.997	35972.57
701.342	35834.72
701.688	35745.68
702.033	35542.75
702.379	35453.26
702.724	35334.85
703.069	35321.29
703.415	34919.94
703.76	35029.77
704.105	34907.97
704.45	34714.75
704.795	34731.7
705.14	34574.19
705.485	34508.43
705.83	34327.64
706.175	34308.89
706.52	34271.15
706.865	34083.13
707.209	33907.77
707.554	33988.89
707.899	33795.45
708.243	33693.76
708.588	33735.34
708.932	33694.44
709.277	33515.91
709.621	33419.42
709.966	33320.89
710.31	33263.94
710.654	33034.34
710.998	33205.64
711.342	33091.74
711.687	32955.93
712.031	32906.44
712.375	32640
712.719	32557.75
713.063	32670.74
713.407	32737.85
713.75	32580.12
714.094	32515.49
714.438	32339.67
714.782	32346.23
715.125	32135.61
715.469	32390.07
715.812	32074.59
716.156	32048.61
716.499	32095.38
716.843	32143.75
717.186	31883.64
717.53	32148.72
717.873	32107.59
718.216	31895.39
718.559	31793.25
718.902	31517.1
719.246	31633.93
719.589	31543.31
719.932	31329.3
720.275	31552.8
720.617	31514.61
720.96	31420.6
721.303	31406.59
721.646	31345.12
721.989	31396.87
722.331	31270.55
722.674	31289.98
723.016	31275.07
723.359	31151
723.701	31163.43
724.044	31142.87
724.386	30991.91
724.729	31200.72
725.071	31146.03
725.413	31065.58
725.755	30984.68
726.097	30795.98
726.439	30731.35
726.782	30816.32
727.124	30890.67
727.465	30830.79
727.807	30746.72
728.149	30801.86
728.491	30688.64
728.833	30931.57
729.175	30743.33
729.516	30573.62
729.858	30526.84
730.199	30727.06
730.541	30501.75
730.882	30405.94
731.224	30573.84
731.565	30438.48
731.906	30480.29
732.248	30501.3
732.589	30365.49
732.93	30416.11
733.271	30508.31
733.612	30386.96
733.953	30593.96
734.294	30415.43
734.635	30486.39
734.976	30534.52
735.317	30346.05
735.658	30321.42
735.999	30278.03
736.339	30364.13
736.68	30483.22
737.021	30431.25
737.361	30391.02
737.702	30510.57
738.042	30335.21
738.383	30435.32
738.723	30399.38
739.063	30334.3
739.404	30557.8
739.744	30482.32
740.084	30368.88
740.424	30572.94
740.764	30459.72
741.104	30655.87
741.444	30567.74
741.784	30422.21
742.124	30693.16
742.464	30626.5
742.804	30518.93
743.143	30615.88
743.483	30706.04
743.823	30560.28
744.162	30567.97
744.502	30551.7
744.841	30593.96
745.181	30855.19
745.52	30809.09
745.86	30831.92
746.199	30836.89
746.538	30797.57
746.877	30962.53
747.216	30938.35
747.556	31008.41
747.895	31042.31
748.234	31085.02
748.573	31029.88
748.911	31106.48
749.25	31132.92
749.589	31049.99
749.928	31323.65
750.267	31285.69
750.605	31391.9
750.944	31315.52
751.283	31427.83
751.621	31588.05
751.96	31473.48
752.298	31541.28
752.636	31657.88
752.975	31712.12
753.313	31623.53
753.651	32061.49
753.989	31786.24
754.327	31941.94
754.666	31669.63
