Data from 485_FLMS001491_005.txt Node
Date: Thu Apr 19 16:32:16 BST 2018
User: hsy
Spectrometer: FLMS00149
Trigger mode: 0
Integration Time (sec): 1.000000E-2
Scans to average: 10
Electric dark correction enabled: true
Nonlinearity correction enabled: false
Boxcar width: 0
XAxis mode: Wavelengths
Number of Pixels in Spectrum: 2048
>>>>>Begin Spectral Data<<<<<
341.393	-26.71
341.776	-26.71
342.16	-26.71
342.543	-73.71
342.927	-64.9
343.31	-66.71
343.693	-73.49
344.077	-55.63
344.46	-90.66
344.843	-43.21
345.226	-47.5
345.61	-28.29
345.993	1.09
346.376	-15.86
346.759	16.68
347.142	13.52
347.525	31.14
347.908	61.65
348.291	82.67
348.674	99.39
349.057	115.21
349.44	120.41
349.823	138.94
350.206	188.88
350.588	236.11
350.971	254.64
351.354	257.13
351.737	283.79
352.119	296
352.502	302.32
352.884	316.11
353.267	312.94
353.65	327.86
354.032	335.54
354.414	354.07
354.797	359.95
355.179	386.84
355.562	394.52
355.944	390.68
356.326	408.99
356.709	387.52
357.091	395.2
357.473	394.07
357.855	403.56
358.238	387.74
358.62	387.07
359.002	376.22
359.384	402.43
359.766	404.24
360.148	400.4
360.53	390.91
360.912	390.23
361.294	371.47
361.676	385.03
362.057	396.33
362.439	394.3
362.821	377.57
363.203	378.03
363.584	389.1
363.966	398.59
364.348	376.22
364.729	405.14
365.111	402.21
365.493	398.37
365.874	392.94
366.256	399.95
366.637	395.43
367.019	377.8
367.4	378.25
367.781	400.4
368.163	402.43
368.544	385.48
368.925	382.32
369.306	372.6
369.688	371.7
370.069	388.87
370.45	397.69
370.831	387.74
371.212	381.42
371.593	378.7
371.974	383.22
372.355	381.42
372.736	399.72
373.117	390
373.498	383.9
373.879	386.16
374.26	391.59
374.641	394.3
375.021	411.7
375.402	397.24
375.783	411.02
376.163	410.12
376.544	413.96
376.925	410.57
377.305	423.22
377.686	425.03
378.066	435.2
378.447	421.19
378.827	414.41
379.208	447.86
379.588	422.09
379.968	432.71
380.349	449.89
380.729	444.47
381.109	457.8
381.489	430
381.87	442.88
382.25	441.75
382.63	437.91
383.01	463.9
383.39	443.79
383.77	444.69
384.15	457.12
384.53	462.32
384.91	446.73
385.29	455.31
385.67	473.84
386.049	477.23
386.429	472.26
386.809	484.01
387.189	473.62
387.568	491.47
387.948	479.27
388.328	482.2
388.707	494.86
389.087	517.01
389.466	509.32
389.846	496.89
390.225	496.22
390.605	488.08
390.984	489.89
391.363	536.89
391.743	509.77
392.122	517.68
392.501	524.46
392.881	525.37
393.26	545.48
393.639	549.77
394.018	522.88
394.397	521.07
394.776	534.18
395.155	557.68
395.534	548.87
395.913	538.7
396.292	536.44
396.671	560.62
397.05	549.1
397.429	582.54
397.808	576.89
398.186	550.9
398.565	566.5
398.944	566.5
399.323	588.42
399.701	579.6
400.08	595.87
400.458	590.68
400.837	582.09
401.215	591.58
401.594	634.07
401.972	607.63
402.351	617.79
402.729	590.45
403.107	611.92
403.486	641.07
403.864	641.75
404.242	643.33
404.62	656.44
404.999	651.01
405.377	641.52
405.755	651.47
406.133	648.75
406.511	651.01
406.889	681.97
407.267	684.01
407.645	690.33
408.023	697.11
408.401	724.68
408.779	684.46
409.156	724.46
409.534	710.45
409.912	734.18
410.29	722.2
410.667	737.79
411.045	754.74
411.422	739.37
411.8	764.68
412.178	763.78
412.555	785.93
412.933	779.82
413.31	780.5
413.687	798.81
414.065	795.19
414.442	803.33
414.819	822.31
415.197	830.67
415.574	844.91
415.951	840.39
416.328	864.57
416.705	843.55
417.082	853.95
417.46	869.99
417.837	863.21
418.214	882.87
418.591	873.83
418.967	885.81
419.344	908.41
419.721	892.36
420.098	915.19
420.475	927.16
420.852	928.97
421.228	933.27
421.605	937.56
421.982	941.85
422.358	965.13
422.735	961.29
423.111	961.97
423.488	967.16
423.864	975.98
424.241	985.92
424.617	975.07
424.994	1005.81
425.37	1034.28
425.746	1019.37
426.123	1023.21
426.499	1022.53
426.875	1056.65
427.251	1066.37
427.627	1081.96
428.003	1087.16
428.379	1097.1
428.756	1109.98
429.132	1136.42
429.507	1127.84
429.883	1153.15
430.259	1140.27
430.635	1169.64
431.011	1160.15
431.387	1175.52
431.763	1217.55
432.138	1238.8
432.514	1255.74
432.89	1226.14
433.265	1290.09
433.641	1278.79
434.016	1295.52
434.392	1287.16
434.767	1324.44
435.143	1336.42
435.518	1319.7
435.894	1339.58
436.269	1391.11
436.644	1388.62
437.02	1406.25
437.395	1388.17
437.77	1407.6
438.145	1424.55
438.52	1434.95
438.895	1461.16
439.271	1460.26
439.646	1468.17
440.021	1491.67
440.395	1513.36
440.77	1466.59
441.145	1522.86
441.52	1518.11
441.895	1537.77
442.27	1555.62
442.645	1512.23
443.019	1563.53
443.394	1578.22
443.769	1587.49
444.143	1571.44
444.518	1606.02
444.892	1603.98
445.267	1601.27
445.641	1632.01
446.016	1626.36
446.39	1645.56
446.764	1631.1
447.139	1657.77
447.513	1676.52
447.887	1675.39
448.262	1660.93
448.636	1674.94
449.01	1715.62
449.384	1723.53
449.758	1718.33
450.132	1758.56
450.506	1783.41
450.88	1764.66
451.254	1789.97
451.628	1817.99
452.002	1805.11
452.376	1824.99
452.75	1864.77
453.123	1878.78
453.497	1900.25
453.871	1901.83
454.244	1947.48
454.618	1978.44
454.992	1974.82
455.365	2023.41
455.739	2020.24
456.112	2039.45
456.486	2086.91
456.859	2097.98
457.232	2107.25
457.606	2148.15
457.979	2179.11
458.352	2204.42
458.725	2214.14
459.099	2251.2
459.472	2262.95
459.845	2289.61
460.218	2309.95
460.591	2357.41
460.964	2342.95
461.337	2363.96
461.71	2432.89
462.083	2443.51
462.456	2469.27
462.829	2455.71
463.201	2504.3
463.574	2505.88
463.947	2567.12
464.32	2598.08
464.692	2601.47
465.065	2610.74
465.438	2640.11
465.81	2654.35
466.183	2700
466.555	2725.08
466.928	2754.01
467.3	2751.52
467.672	2776.83
468.045	2876.49
468.417	2868.36
468.789	2872.42
469.161	2922.59
469.534	2950.39
469.906	3023.83
470.278	3060.67
470.65	3048.24
471.022	3112.19
471.394	3146.99
471.766	3194.68
472.138	3222.02
472.51	3321
472.882	3336.37
473.253	3376.59
473.625	3422.92
473.997	3509.24
474.369	3522.12
474.74	3542.24
475.112	3617.49
475.484	3648.9
475.855	3733.19
476.227	3749.69
476.598	3847.99
476.97	3876.92
477.341	3965.73
477.713	4040.53
478.084	4043.47
478.455	4150.81
478.827	4185.61
479.198	4290.92
479.569	4302.9
479.94	4369.79
480.311	4451.59
480.682	4533.85
481.053	4642.55
481.424	4748.08
481.795	4752.83
482.166	4865.37
482.537	4903.11
482.908	5004.35
483.279	5105.81
483.65	5215.64
484.021	5279.37
484.391	5296.99
484.762	5367.95
485.133	5447.27
485.503	5562.07
485.874	5668.74
486.244	5672.58
486.615	5814.04
486.985	5919.12
487.356	5974.94
487.726	6074.83
488.097	6214.03
488.467	6321.15
488.837	6420.81
489.207	6452.22
489.578	6523.4
489.948	6666.9
490.318	6768.82
490.688	6806.78
491.058	6927.69
491.428	7032.32
491.798	7079.09
492.168	7237.28
492.538	7304.4
492.908	7419.65
493.278	7469.59
493.648	7565.41
494.017	7682.02
494.387	7764.73
494.757	7785.97
495.126	7902.35
495.496	7943.93
495.866	8037.49
496.235	8141.21
496.605	8231.38
496.974	8277.25
497.344	8357.93
497.713	8449
498.082	8542.11
498.452	8555.21
498.821	8615.1
499.19	8670.69
499.559	8798.6
499.928	8876.11
500.298	8906.16
500.667	8968.08
501.036	8976.9
501.405	9152.94
501.774	9082.66
502.143	9269.77
502.512	9252.37
502.88	9356.32
503.249	9365.14
503.618	9498.01
503.987	9524.23
504.356	9580.27
504.724	9648.74
505.093	9684.22
505.462	9709.08
505.83	9823.43
506.199	9915.86
506.567	10057.55
506.936	10024.55
507.304	10134.38
507.672	10204.89
508.041	10207.15
508.409	10355.17
508.777	10313.58
509.145	10483.52
509.514	10445.56
509.882	10574.14
510.25	10596.97
510.618	10695.95
510.986	10722.84
511.354	10840.58
511.722	10922.16
512.09	11012.1
512.458	10955.38
512.826	11118.31
513.193	11123.05
513.561	11292.09
513.929	11284.18
514.297	11376.38
514.664	11428.13
515.032	11529.37
515.4	11583.38
515.767	11641.01
516.135	11732.3
516.502	11782.7
516.869	11926.88
517.237	11971.62
517.604	11886.88
517.972	12175.46
518.339	12205.06
518.706	12249.35
519.073	12358.28
519.44	12396.24
519.808	12528.89
520.175	12588.78
520.542	12773.63
520.909	12893.86
521.276	12827.64
521.643	13039.84
522.009	13164.13
522.376	13233.51
522.743	13257.24
523.11	13468.08
523.477	13631.46
523.843	13661.29
524.21	13885.02
524.577	14018.8
524.943	14032.13
525.31	14136.08
525.676	14287.94
526.043	14406.13
526.409	14515.73
526.776	14563.87
527.142	14628.27
527.508	14810.64
527.874	14962.73
528.241	15002.73
528.607	15250.86
528.973	15307.58
529.339	15284.98
529.705	15477.29
530.071	15650.39
530.437	15788.7
530.803	15847
531.169	16012.64
531.535	15939.43
531.901	16009.71
532.267	16157.27
532.632	16439.98
532.998	16335.8
533.364	16508.9
533.73	16564.95
534.095	16737.6
534.461	16821.44
534.826	16959.51
535.192	17008.78
535.557	17115.89
535.923	17190.47
536.288	17209
536.653	17382.78
537.019	17291.03
537.384	17361.31
537.749	17513.85
538.114	17541.19
538.479	17639.72
538.845	17614.64
539.21	17733.28
539.575	17858.47
539.94	17978.92
540.305	18037.68
540.67	18055.98
541.034	18146.37
541.399	18136.66
541.764	18298.69
542.129	18396.54
542.494	18482.18
542.858	18544.78
543.223	18606.25
543.587	18673.82
543.952	18578.23
544.316	18787.94
544.681	18771.89
545.045	18948.61
545.41	18963.75
545.774	18914.49
546.138	19056.18
546.503	19084.88
546.867	19121.49
547.231	19266.12
547.595	19390.41
547.959	19352.44
548.324	19460.24
548.688	19475.83
549.052	19566.9
549.416	19548.14
549.779	19643.06
550.143	19709.72
550.507	19799.21
550.871	19917.17
551.235	19848.7
551.599	20122.14
551.962	20208.92
552.326	20205.75
552.689	20247.79
553.053	20237.62
553.417	20359.87
553.78	20505.63
554.143	20487.33
554.507	20673.54
554.87	20753.54
555.234	20912.4
555.597	20917.15
555.96	20838.96
556.323	21095
556.686	21118.27
557.05	21260.87
557.413	21392.84
557.776	21486.17
558.139	21578.83
558.502	21605.27
558.865	21642.78
559.228	21960.96
559.59	22045.03
559.953	22036.44
560.316	22339.48
560.679	22191.24
561.041	22440.95
561.404	22618.35
561.767	22753.26
562.129	22687.72
562.492	22951.44
562.854	23032.12
563.217	23025.34
563.579	23208.61
563.941	23432.79
564.304	23508.72
564.666	23758.65
565.028	23743.06
565.39	23849.95
565.753	24151.86
566.115	24006.11
566.477	24245.42
566.839	24471.18
567.201	24595.02
567.563	24677.5
567.925	24883.15
568.287	24973.76
568.648	25070.48
569.01	25280.42
569.372	25476.12
569.734	25520.19
570.095	25733.29
570.457	25905.49
570.819	25973.29
571.18	26134.19
571.542	26211.47
571.903	26325.59
572.265	26559.26
572.626	26765.13
572.987	26770.33
573.349	27049.87
573.71	27157.89
574.071	27292.12
574.432	27545.22
574.794	27665.22
575.155	27639.68
575.516	27717.87
575.877	27925.55
576.238	28013.01
576.599	28373.9
576.96	28417.52
577.32	28379.32
577.681	28574.8
578.042	28819.31
578.403	28806.21
578.763	28754.46
579.124	29107.21
579.485	29388.34
579.845	29473.53
580.206	29494.32
580.566	29488.67
580.927	29733.19
581.287	29825.16
581.648	29923.01
582.008	30261.31
582.368	30306.28
582.728	30620.62
583.089	30612.26
583.449	30829.2
583.809	30985.58
584.169	31183.54
584.529	31254.28
584.889	31729.29
585.249	31784.88
585.609	31867.14
585.969	32270.07
586.329	32356.62
586.688	32910.73
587.048	33101.69
587.408	33441.56
587.768	33674.78
588.127	33966.07
588.487	34190.92
588.846	34844.24
589.206	34913.62
589.565	35287.39
589.925	35786.14
590.284	36197.88
590.643	36504.76
591.003	37020
591.362	37574.79
591.721	37916.7
592.08	38288.44
592.44	38926.39
592.799	39239.6
593.158	39640.95
593.517	40074.16
593.876	40703.07
594.235	41078.43
594.593	41539.43
594.952	42109.36
595.311	42476.58
595.67	43078.6
596.029	43802.2
596.387	44187.04
596.746	44754.49
597.104	44970.07
597.463	45435.37
597.822	46304.05
598.18	46572.74
598.538	46932.96
598.897	47658.14
599.255	47755.99
599.613	48688.62
599.972	48821.72
600.33	49280.92
600.688	49644.98
601.046	50150.5
601.404	50697.38
601.762	50930.82
602.12	51502.33
602.478	51761.99
602.836	52096.21
603.194	52182.54
603.552	52707.72
603.91	52888.96
604.268	53312.45
604.625	53482.17
604.983	53953.12
605.341	53978.88
605.698	54530.05
606.056	54943.37
606.413	55068.79
606.771	55431.95
607.128	55581.1
607.485	55851.6
607.843	56049.56
608.2	56400.96
608.557	56615.19
608.914	56790.1
609.272	57033.71
609.629	57357.32
609.986	57605
610.343	57716.41
610.7	58066.68
611.057	58152.33
611.414	58221.25
611.771	58563.16
612.127	58755.7
612.484	58935.81
612.841	59086.77
613.198	59151.85
613.554	59240.43
613.911	59655.11
614.267	59718.16
614.624	59797.71
614.98	59985.95
615.337	60233.63
615.693	60333.74
616.05	60456
616.406	60688.53
616.762	60693.5
617.118	60864.57
617.475	60938.24
617.831	61096.88
618.187	61253.94
618.543	61324.45
618.899	61494.16
619.255	61593.14
619.611	61607.38
619.967	61872
620.323	61990.42
620.678	62046.69
621.034	61982.06
621.39	62063.64
621.746	62159.68
622.101	62491.2
622.457	62319.9
622.812	62474.47
623.168	62561.48
623.523	62576.17
623.879	62698.2
624.234	62589.95
624.589	62803.5
624.945	62782.71
625.3	62881.47
625.655	62960.11
626.01	62988.58
626.365	63008.02
626.72	62986.1
627.075	63012.54
627.43	63107.68
627.785	63129.82
628.14	63136.6
628.495	63191.29
628.85	63289.14
629.205	63290.72
629.559	63351.29
629.914	63264.73
630.269	63309.25
630.623	63244.4
630.978	63227.22
631.332	63461.79
631.687	63408.69
632.041	63419.98
632.396	63403.71
632.75	63430.15
633.104	63433.77
633.459	63341.57
633.813	63396.71
634.167	63407.1
634.521	63463.6
634.875	63425.63
635.229	63438.74
635.583	63314.23
635.937	63357.39
636.291	63316.48
636.645	63359.2
636.999	63278.52
637.352	63385.18
637.706	63271.29
638.06	63342.7
638.413	63240.78
638.767	63227.45
639.121	63281.23
639.474	63210.95
639.828	63175.7
640.181	63191.29
640.534	63254.57
640.888	63067.9
641.241	63077.17
641.594	63098.41
641.947	63192.65
642.301	63058.86
642.654	63090.28
643.007	63047.79
643.36	63113.33
643.713	63015.25
644.066	63206.88
644.419	62951.52
644.771	62812.77
645.124	62546.79
645.477	62516.73
645.83	62396.74
646.182	62442.16
646.535	62417.98
646.888	62469.5
647.24	62346.57
647.593	62507.24
647.945	62315.83
648.298	62294.82
648.65	62204.88
649.002	62090.08
649.355	62053.02
649.707	62017.99
650.059	61986.58
650.411	62341.14
650.763	62395.15
651.115	62787.91
651.467	62636.73
651.819	62654.36
652.171	62601.02
652.523	62544.08
652.875	62558.76
653.227	62483.51
653.578	62616.16
653.93	62559.22
654.282	62413.68
654.633	62388.15
654.985	62464.3
655.337	62480.12
655.688	62332.56
656.039	62448.94
656.391	62203.29
656.742	62282.16
657.094	62280.58
657.445	62322.39
657.796	62290.07
658.147	62202.62
658.498	62302.95
658.849	62266.12
659.2	62214.59
659.551	62213.46
659.902	62317.87
660.253	62133.69
660.604	62225.67
660.955	62128.27
661.306	62242.84
661.656	62114.26
662.007	62139.79
662.358	62180.47
662.708	62116.06
663.059	62063.18
663.409	61976.86
663.76	62121.49
664.11	62157.42
664.461	62135.27
664.811	62161.94
665.161	62110.87
665.511	62070.19
665.862	62048.5
666.212	62046.46
666.562	62097.99
666.912	62041.72
667.262	61961.94
667.612	62036.74
667.962	62054.6
668.312	61903.64
668.662	62079.23
669.011	62083.3
669.361	62057.08
669.711	61978.89
670.06	61951.1
670.41	61961.04
670.76	61930.98
671.109	62005.56
671.459	61971.89
671.808	61908.84
672.157	61973.47
672.507	61819.35
672.856	61846.69
673.205	61855.73
673.554	61921.27
673.904	61855.96
674.253	62022.73
674.602	61923.98
674.951	61560.6
675.3	61469.53
675.649	61902.06
675.998	61869.29
676.346	61847.6
676.695	61924.66
677.044	61747.03
677.393	61846.24
677.741	61911.55
678.09	61825.68
678.438	61766.7
678.787	61868.16
679.135	61756.3
679.484	61641.5
679.832	61740.48
680.181	61633.14
680.529	61716.3
680.877	61589.3
681.225	61668.39
681.573	61751.55
681.922	61592.46
682.27	61562.41
682.618	61490.77
682.966	61440.83
683.314	61548.17
683.661	61526.7
684.009	61408.51
684.357	61330.1
684.705	61253.49
685.053	61325.12
685.4	61220.27
685.748	61184.11
686.095	61192.25
686.443	61102.76
686.79	61068.18
687.138	61113.15
687.485	61074.06
687.832	60975.08
688.18	61010.33
688.527	60916.32
688.874	60908.86
689.221	60904.8
689.568	60794.97
689.915	60702.99
690.262	60795.42
690.609	60691.24
690.956	60532.15
691.303	60612.15
691.65	60488.31
691.997	60490.57
692.344	60392.49
692.69	60361.76
693.037	60458.25
693.383	60192.73
693.73	60265.27
694.077	60145.49
694.423	60163.35
694.769	60077.25
695.116	60036.8
695.462	59943.01
695.808	59933.75
696.155	59933.97
696.501	59705.96
696.847	59756.13
697.193	59555.91
697.539	59685.17
697.885	59494.21
698.231	59469.58
698.577	59498.28
698.923	59466.42
699.269	59229.81
699.614	59191.85
699.96	59051.74
700.306	59095.13
700.651	59061.91
700.997	59005.64
701.342	58922.7
701.688	58851.97
702.033	58753.44
702.379	58783.27
702.724	58675.48
703.069	58703.5
703.415	58427.8
703.76	58398.42
704.105	58401.13
704.45	58405.43
704.795	58226.68
705.14	58152.78
705.485	58174.7
705.83	58017.19
706.175	58130.41
706.52	58007.47
706.865	57898.1
707.209	57876.63
707.554	57799.57
707.899	57812.45
708.243	57701.04
708.588	57655.16
708.932	57521.61
709.277	57650.42
709.621	57462.63
709.966	57360.71
710.31	57339.92
710.654	57192.58
710.998	57164.1
711.342	57253.37
711.687	57109.19
712.031	57043.43
712.375	56942.87
712.719	56950.32
713.063	56862.64
713.407	57046.59
713.75	56791.68
714.094	56777.45
714.438	56646.15
714.782	56691.35
715.125	56539.26
715.469	56703.1
715.812	56424.69
716.156	56402.99
716.499	56432.37
716.843	56444.8
717.186	56229.21
717.53	56416.78
717.873	56333.17
718.216	56247.07
718.559	56222.89
718.902	55991.25
719.246	55979.95
719.589	55961.2
719.932	55802.56
720.275	55810.92
720.617	55823.35
720.96	55794.2
721.303	55803.91
721.646	55777.93
721.989	55624.03
722.331	55721.2
722.674	55543.13
723.016	55542.23
723.359	55505.16
723.701	55471.04
724.044	55380.87
724.386	55278.5
724.729	55335
725.071	55375.22
725.413	55344.27
725.755	55249.58
726.097	55230.37
726.439	54997.83
726.782	55012.97
727.124	55245.74
727.465	55090.49
727.807	54956.03
728.149	54978.17
728.491	54866.76
728.833	54956.7
729.175	54783.15
729.516	54770.49
729.858	54753.09
730.199	54762.81
730.541	54703.38
730.882	54575.92
731.224	54550.39
731.565	54493.21
731.906	54547.68
732.248	54567.34
732.589	54346.55
732.93	54310.39
733.271	54337.74
733.612	54291.86
733.953	54375.48
734.294	54213.67
734.635	54156.05
734.976	54210.28
735.317	54165.09
735.658	54094.13
735.999	53990.63
736.339	53880.57
736.68	54028.37
737.021	53935.94
737.361	53859.78
737.702	54091.42
738.042	53867.47
738.383	53846.45
738.723	53892.55
739.063	53696.4
739.404	53773.91
739.744	53761.71
740.084	53723.29
740.424	53663.86
740.764	53667.93
741.104	53672.44
741.444	53478.55
741.784	53439
742.124	53543.41
742.464	53500.92
742.804	53368.05
743.143	53284.21
743.483	53323.08
743.823	53167.83
744.162	53134.83
744.502	53269.29
744.841	53039.69
745.181	53221.61
745.52	52993.82
745.86	53079.69
746.199	52951.11
746.538	52930.54
746.877	52948.62
747.216	52914.72
747.556	52757.44
747.895	52851
748.234	52757.89
748.573	52733.94
748.911	52530.33
749.25	52530.55
749.589	52429.77
749.928	52500.72
750.267	52534.85
750.605	52404
750.944	52410.78
751.283	52255.98
751.621	52270.22
751.96	52036.33
752.298	52096.67
752.636	52114.07
752.975	52040.62
753.313	51779.39
753.651	52128.3
753.989	51763.34
754.327	51827.07
754.666	51551.6
755.004	51725.83
755.342	51639.05
755.679	51633.63
756.017	51312.73
