Data from 485_FLMS001491_002.txt Node
Date: Thu Apr 19 16:32:09 BST 2018
User: hsy
Spectrometer: FLMS00149
Trigger mode: 0
Integration Time (sec): 1.000000E-2
Scans to average: 10
Electric dark correction enabled: true
Nonlinearity correction enabled: false
Boxcar width: 0
XAxis mode: Wavelengths
Number of Pixels in Spectrum: 2048
>>>>>Begin Spectral Data<<<<<
341.393	-6.21
341.776	-6.21
342.16	-6.21
342.543	-64.07
342.927	-70.39
343.31	-77.4
343.693	-74.46
344.077	-70.85
344.46	-64.97
344.843	-45.76
345.226	-46.89
345.61	-18.87
345.993	-13.22
346.376	7.8
346.759	-1.02
347.142	20.45
347.525	41.92
347.908	61.58
348.291	63.39
348.674	95.03
349.057	123.27
349.44	131.18
349.823	138.41
350.206	193.33
350.588	212.31
350.971	258.41
351.354	274.46
351.737	311.52
352.119	285.98
352.502	314.91
352.884	328.69
353.267	340.44
353.65	341.12
354.032	351.97
354.414	370.95
354.797	366.88
355.179	365.3
355.562	387.45
355.944	381.12
356.326	394.23
356.709	394
357.091	379.31
357.473	387
357.855	392.19
358.238	396.71
358.62	413.44
359.002	410.5
359.384	411.4
359.766	390.61
360.148	393.77
360.53	397.16
360.912	419.09
361.294	388.13
361.676	406.88
362.057	406.66
362.439	408.69
362.821	391.97
363.203	376.83
363.584	389.26
363.966	401.91
364.348	378.41
364.729	399.88
365.111	387.9
365.493	392.65
365.874	386.77
366.256	373.66
366.637	389.26
367.019	396.49
367.4	401.46
367.781	389.26
368.163	393.77
368.544	371.4
368.925	409.14
369.306	399.88
369.688	398.29
370.069	394.23
370.45	402.36
370.831	399.65
371.212	393.55
371.593	402.14
371.974	390.39
372.355	385.87
372.736	419.09
373.117	406.88
373.498	396.71
373.879	385.64
374.26	404.85
374.641	378.86
375.021	383.83
375.402	435.81
375.783	433.1
376.163	448.24
376.544	447.78
376.925	431.29
377.305	427.9
377.686	417.28
378.066	435.36
378.447	426.54
378.827	441.68
379.208	416.15
379.588	433.1
379.968	431.74
380.349	445.75
380.729	466.77
381.109	466.54
381.489	462.47
381.87	449.14
382.25	459.54
382.63	453.89
383.01	476.94
383.39	458.18
383.77	459.31
384.15	459.99
384.53	485.52
384.91	474.22
385.29	499.31
385.67	495.24
386.049	485.98
386.429	495.69
386.809	489.82
387.189	505.18
387.568	514.45
387.948	517.61
388.328	479.42
388.707	501.79
389.087	533.88
389.466	517.84
389.846	488.91
390.225	522.81
390.605	504.96
390.984	528.23
391.363	532.53
391.743	533.21
392.122	521
392.501	538.4
392.881	553.77
393.26	547.22
393.639	554.9
394.018	568.23
394.397	548.12
394.776	572.98
395.155	548.57
395.534	566.88
395.913	561.91
396.292	587.22
396.671	578.4
397.05	578.4
397.429	586.54
397.808	574.34
398.186	597.16
398.565	587.67
398.944	596.26
399.323	607.33
399.701	624.73
400.08	594.45
400.458	606.88
400.837	632.64
401.215	635.58
401.594	639.42
401.972	627.89
402.351	638.06
402.729	642.13
403.107	646.2
403.486	641.9
403.864	679.42
404.242	655.01
404.62	683.94
404.999	678.51
405.377	677.16
405.755	686.2
406.133	708.12
406.511	696.59
406.889	701.56
407.267	708.79
407.645	715.12
408.023	719.87
408.401	738.85
408.779	737.49
409.156	741.79
409.534	731.62
409.912	735.69
410.29	768
410.667	760.32
411.045	809.81
411.422	772.07
411.8	807.78
412.178	794.67
412.555	789.24
412.933	821.56
413.31	822.46
413.687	823.37
414.065	863.59
414.442	863.82
414.819	876.25
415.197	869.47
415.574	882.35
415.951	888.45
416.328	880.54
416.705	905.85
417.082	894.1
417.46	924.83
417.837	927.32
418.214	933.2
418.591	941.33
418.967	929.35
419.344	943.14
419.721	940.88
420.098	974.78
420.475	971.39
420.852	972.97
421.228	981.33
421.605	1002.12
421.982	998.5
422.358	993.31
422.735	1016.13
423.111	1035.79
423.488	1036.7
423.864	1032.18
424.241	1059.75
424.617	1068.56
424.994	1039.86
425.37	1064.04
425.746	1073.31
426.123	1073.53
426.499	1110.14
426.875	1104.72
427.251	1109.24
427.627	1146.98
428.003	1153.3
428.379	1186.07
428.756	1150.82
429.132	1182.23
429.507	1177.94
429.883	1219.74
430.259	1235.79
430.635	1252.06
431.011	1254.54
431.387	1276.46
431.763	1310.14
432.138	1316.24
432.514	1301.1
432.89	1334.32
433.265	1339.06
433.641	1372.28
434.016	1374.99
434.392	1389.91
434.767	1429.45
435.143	1424.71
435.518	1415.89
435.894	1437.82
436.269	1483.01
436.644	1496.34
437.02	1485.72
437.395	1487.76
437.77	1514.42
438.145	1549.9
438.52	1570.69
438.895	1540.19
439.271	1564.14
439.646	1598.94
440.021	1575.66
440.395	1610.47
440.77	1581.99
441.145	1639.84
441.52	1647.08
441.895	1644.36
442.27	1673.52
442.645	1646.62
443.019	1661.99
443.394	1690.69
443.769	1696.79
444.143	1666.96
444.518	1707.86
444.892	1711.93
445.267	1725.94
445.641	1758.26
446.016	1755.77
446.39	1768.88
446.764	1754.64
447.139	1768.88
447.513	1783.12
447.887	1791.25
448.262	1775.89
448.636	1798.94
449.01	1821.99
449.384	1818.14
449.758	1848.43
450.132	1897.69
450.506	1902.44
450.88	1906.28
451.254	1919.38
451.628	1905.37
452.002	1974.52
452.376	1977.69
452.75	2000.74
453.123	2014.98
453.497	2042.09
453.871	2014.98
454.244	2118.25
454.618	2111.02
454.992	2139.94
455.365	2157.12
455.739	2215.2
456.112	2195.99
456.486	2234.63
456.859	2232.6
457.232	2301.75
457.606	2324.12
457.979	2318.7
458.352	2365.25
458.725	2372.93
459.099	2411.12
459.472	2444.57
459.845	2485.02
460.218	2526.83
460.591	2494.74
460.964	2526.37
461.337	2609.76
461.71	2642.76
462.083	2660.38
462.456	2675.3
462.829	2676.65
463.201	2735.41
463.574	2695.86
463.947	2756.65
464.32	2766.82
464.692	2828.06
465.065	2835.29
465.438	2898.79
465.81	2913.26
466.183	2953.71
466.555	2987.61
466.928	3016.76
467.3	3008.85
467.672	3072.57
468.045	3171.78
468.417	3146.47
468.789	3119.35
469.161	3204.1
469.534	3255.62
469.906	3310.31
470.278	3313.47
470.65	3336.3
471.022	3371.1
471.394	3426.24
471.766	3491.55
472.138	3564.99
472.51	3572
472.882	3624.42
473.253	3674.37
473.625	3742.16
473.997	3783.06
474.369	3787.81
474.74	3882.5
475.112	3971.31
475.484	4049.5
475.855	4031.87
476.227	4124.52
476.598	4178.08
476.97	4192.09
477.341	4299.66
477.713	4363.84
478.084	4429.38
478.455	4508.24
478.827	4575.36
479.198	4712.76
479.569	4727.67
479.94	4836.6
480.311	4859.42
480.682	5004.73
481.053	5056.48
481.424	5213.76
481.795	5193.2
482.166	5376.92
482.537	5384.15
482.908	5500.08
483.279	5547.09
483.65	5691.04
484.021	5796.57
484.391	5873.18
484.762	5938.94
485.133	5978.26
485.503	6114.75
485.874	6241.53
486.244	6314.75
486.615	6411.7
486.985	6552.03
487.356	6617.11
487.726	6690.56
488.097	6818.69
488.467	6881.29
488.837	6993.6
489.207	7148.4
489.578	7225.91
489.948	7299.13
490.318	7463.19
490.688	7498.9
491.058	7658.89
491.428	7796.07
491.798	7751.1
492.168	7937.76
492.538	8079
492.908	8092.56
493.278	8256.85
493.648	8306.79
494.017	8431.98
494.387	8532.77
494.757	8562.37
495.126	8733.22
495.496	8746.78
495.866	8858.41
496.235	8945.64
496.605	9051.17
496.974	9173.66
497.344	9177.72
497.713	9259.08
498.082	9370.49
498.452	9441.22
498.821	9569.8
499.19	9589.24
499.559	9666.75
499.928	9803.47
500.298	9751.04
500.667	9888.44
501.036	9923.02
501.405	10007.31
501.774	10037.59
502.143	10155.55
502.512	10225.38
502.88	10344.25
503.249	10403
503.618	10459.5
503.987	10444.81
504.356	10619.27
504.724	10632.6
505.093	10643.9
505.462	10785.37
505.83	10808.19
506.199	10866.27
506.567	11050.9
506.936	11026.72
507.304	11123.21
507.672	11193.72
508.041	11313.94
508.409	11375.41
508.777	11461.05
509.145	11589.86
509.514	11569.75
509.882	11689.98
510.25	11663.08
510.618	11861.04
510.986	11765.23
511.354	11932
511.722	12030.76
512.09	12233.46
512.458	12110.98
512.826	12270.3
513.193	12299.45
513.561	12381.71
513.929	12499.67
514.297	12546.9
514.664	12639.33
515.032	12717.97
515.4	12793.45
515.767	12854.24
516.135	12937.63
516.502	12902.15
516.869	13195.7
517.237	13155.47
517.604	13209.94
517.972	13404.96
518.339	13534.9
518.706	13519.31
519.073	13633.65
519.44	13728.79
519.808	13922.91
520.175	13890.6
520.542	14031.61
520.909	14180.31
521.276	14212.85
521.643	14404.48
522.009	14403.8
522.376	14595.89
522.743	14719.5
523.11	15004.24
523.477	14932.6
523.843	15041.98
524.21	15284.91
524.577	15367.84
524.943	15430.22
525.31	15559.7
525.676	15772.13
526.043	15863.42
526.409	15952.69
526.776	16141.16
527.142	16289.63
527.508	16314.49
527.874	16530.53
528.241	16540.24
528.607	16643.52
528.973	16903.17
529.339	16967.12
529.705	17179.1
530.071	17252.99
530.437	17351.97
530.803	17534.34
531.169	17592.42
531.535	17692.08
531.901	17773.66
532.267	17868.34
532.632	18099.3
532.998	18142.23
533.364	18175.23
533.73	18306.07
534.095	18493.19
534.461	18537.93
534.826	18657.7
535.192	18604.14
535.557	18905.83
535.923	18829.45
536.288	18974.08
536.653	19108.09
537.019	19119.16
537.384	19242.09
537.749	19261.75
538.114	19341.75
538.479	19427.85
538.845	19583.1
539.21	19572.25
539.575	19780.84
539.94	19694.96
540.305	19904.67
540.67	19887.73
541.034	19974.28
541.399	20087.95
541.764	20099.47
542.129	20152.35
542.494	20245.46
542.858	20404.32
543.223	20279.81
543.587	20479.35
543.952	20562.96
544.316	20589.4
544.681	20547.37
545.045	20742.39
545.41	20896.51
545.774	20941.71
546.138	20897.19
546.503	20942.61
546.867	21118.88
547.231	21180.8
547.595	21157.75
547.959	21323.85
548.324	21394.8
548.688	21350.96
549.052	21525.2
549.416	21479.77
549.779	21635.25
550.143	21654.01
550.507	21748.24
550.871	21857.17
551.235	21866.43
551.599	22008.12
551.962	22070.27
552.326	22197.27
552.689	22299.64
553.053	22155.69
553.417	22244.5
553.78	22538.28
554.143	22606.07
554.507	22712.51
554.87	22830.93
555.234	23001.99
555.597	22888.78
555.96	22984.37
556.323	23237.02
556.686	23013.29
557.05	23438.59
557.413	23369.67
557.776	23492.6
558.139	23581.19
558.502	23723.11
558.865	23763.78
559.228	23900.28
559.59	24009.65
559.953	24065.92
560.316	24389.75
560.679	24466.14
561.041	24575.51
561.404	24733.93
561.767	24895.96
562.129	24842.4
562.492	25105.89
562.854	25125.33
563.217	25187.47
563.579	25314.48
563.941	25436.28
564.304	25744.29
564.666	26025.19
565.028	25966.21
565.39	26003.5
565.753	26195.58
566.115	26295.47
566.477	26495.91
566.839	26605.29
567.201	26810.03
567.563	26910.37
567.925	27172.28
568.287	27137.25
568.648	27280.07
569.01	27593.96
569.372	27781.53
569.734	27834.64
570.095	28013.84
570.457	28245.92
570.819	28398.91
571.18	28398.91
571.542	28644.78
571.903	28795.97
572.265	28907.6
572.626	29098.1
572.987	29198.89
573.349	29322.28
573.71	29531.77
574.071	29740.8
574.432	29781.48
574.794	30057.63
575.155	30115.03
575.516	30145.08
575.877	30312.54
576.238	30341.24
576.599	30671.17
576.96	30694.67
577.32	30824.16
577.681	31047.21
578.042	31221.66
578.403	31283.36
578.763	31352.96
579.124	31573.29
579.485	31793.18
579.845	31957.69
580.206	31950.91
580.566	32176.67
580.927	32304.35
581.287	32572.82
581.648	32505.92
582.008	32850.55
582.368	32963.99
582.728	33102.07
583.089	33180.48
583.449	33302.29
583.809	33663.63
584.169	33827.92
584.529	33929.84
584.889	34438.08
585.249	34407.8
585.609	34528.7
585.969	35089.59
586.329	35162.8
586.688	35665.16
587.048	35728.67
587.408	36061.31
587.768	36346.5
588.127	36767.96
588.487	37087.5
588.846	37693.81
589.206	37674.83
589.565	37906.01
589.925	38773.78
590.284	38972.2
590.643	39207.9
591.003	39705.06
591.362	40249.45
591.721	40800.85
592.08	41179.6
592.44	41717.89
592.799	42103.86
593.158	42476.06
593.517	42870.17
593.876	43343.15
594.235	43718.74
594.593	44375.9
594.952	44816.34
595.311	45164.8
595.67	45750.32
596.029	46403.86
596.387	46910.52
596.746	47357.74
597.104	47615.13
597.463	48013.99
597.822	48762.22
598.18	48934.42
598.538	49439.72
598.897	49923.32
599.255	50134.16
599.613	50837.65
599.972	50892.33
600.33	51330.97
600.688	51598.08
601.046	51920.1
601.404	52549.69
601.762	52713.08
602.12	53017.02
602.478	53433.28
602.836	53733.84
603.194	53821.07
603.552	54173.83
603.91	54393.71
604.268	54811.33
604.625	54995.73
604.983	55411.76
605.341	55386.23
605.698	55889.26
606.056	56291.74
606.413	56266.66
606.771	56674.56
607.128	56831.61
607.485	57042.45
607.843	57265.73
608.2	57537.36
608.557	57763.57
608.914	57866.39
609.272	58136.44
609.629	58431.8
609.986	58625.69
610.343	58675.86
610.7	59042.18
611.057	59103.87
611.414	59229.29
611.771	59558.55
612.127	59723.97
612.484	59875.15
612.841	60052.77
613.198	60088.25
613.554	60240.11
613.911	60512.65
614.267	60565.07
614.624	60701.79
614.98	60977.04
615.337	61145.17
615.693	61233.98
616.05	61319.63
616.406	61547.87
616.762	61590.13
617.118	61704.71
617.475	61818.15
617.831	61960.74
618.187	62043.23
618.543	62160.29
618.899	62356.21
619.255	62459.04
619.611	62460.39
619.967	62608.41
620.323	62847.05
620.678	62780.38
621.034	62794.17
621.39	62864.45
621.746	62908.29
622.101	63263.31
622.457	63091.34
622.812	63286.13
623.168	63327.26
623.523	63381.95
623.879	63468.73
624.234	63457.2
624.589	63506.69
624.945	63520.7
625.3	63522.28
625.655	63522.28
626.01	63522.28
626.365	63522.28
626.72	63522.28
627.075	63522.28
627.43	63522.28
627.785	63522.28
628.14	63522.28
628.495	63522.28
628.85	63522.28
629.205	63522.28
629.559	63522.28
629.914	63522.28
630.269	63522.28
630.623	63522.28
630.978	63522.28
631.332	63522.28
631.687	63522.28
632.041	63522.28
632.396	63522.28
632.75	63522.28
633.104	63522.28
633.459	63522.28
633.813	63522.28
634.167	63522.28
634.521	63522.28
634.875	63522.28
635.229	63522.28
635.583	63522.28
635.937	63522.28
636.291	63522.28
636.645	63522.28
636.999	63522.28
637.352	63522.28
637.706	63522.28
638.06	63522.28
638.413	63522.28
638.767	63522.28
639.121	63522.28
639.474	63522.28
639.828	63522.28
640.181	63522.28
640.534	63522.28
640.888	63522.28
641.241	63522.28
641.594	63522.28
641.947	63522.28
642.301	63522.28
642.654	63522.28
643.007	63522.28
643.36	63522.28
643.713	63522.28
644.066	63522.28
644.419	63519.8
644.771	63411.33
645.124	63207.26
645.477	63221.73
645.83	63110.32
646.182	63116.87
646.535	63056.53
646.888	63080.94
647.24	63044.33
647.593	63151.45
647.945	63050.66
648.298	62957.78
648.65	62869.42
649.002	62776.09
649.355	62791.23
649.707	62700.39
650.059	62703.55
650.411	63070.77
650.763	63127.27
651.115	63431.44
651.467	63330.88
651.819	63311.67
652.171	63285
652.523	63178.79
652.875	63232.12
653.227	63108.28
653.578	63317.54
653.93	63243.87
654.282	63152.35
654.633	63091.11
654.985	63117.1
655.337	63117.78
655.688	63055.4
656.039	63231.9
656.391	62949.19
656.742	62977.44
657.094	62995.07
657.445	62985.8
657.796	62998.68
658.147	62942.19
658.498	62968.85
658.849	63063.31
659.2	62921.4
659.551	62839.82
659.902	62980.83
660.253	62861.28
660.604	62942.41
660.955	62778.35
661.306	62970.89
661.656	62896.76
662.007	62852.25
662.358	62906.71
662.708	62840.04
663.059	62810.21
663.409	62687.05
663.76	62824.9
664.11	62817.22
664.461	62873.94
664.811	62851.12
665.161	62798.69
665.511	62740.38
665.862	62781.51
666.212	62803.43
666.562	62844.79
666.912	62780.61
667.262	62673.72
667.612	62663.78
667.962	62705.13
668.312	62637.34
668.662	62729.09
669.011	62739.71
669.361	62684.79
669.711	62727.05
670.06	62644.57
670.41	62598.69
670.76	62585.36
671.109	62714.17
671.459	62624
671.808	62600.5
672.157	62673.27
672.507	62508.53
672.856	62553.27
673.205	62594.63
673.554	62650.44
673.904	62561.18
674.253	62687.96
674.602	62551.46
674.951	62241.87
675.3	62129.1
675.649	62540.62
675.998	62504.68
676.346	62531.35
676.695	62600.5
677.044	62398.25
677.393	62435.08
677.741	62500.62
678.09	62450.9
678.438	62324.8
678.787	62522.99
679.135	62469.2
679.484	62287.74
679.832	62374.07
680.181	62307.63
680.529	62304.92
680.877	62274.41
681.225	62268.98
681.573	62404.35
681.922	62167.97
682.27	62135.65
682.618	62165.71
682.966	62172.04
683.314	62193.96
683.661	62123.23
684.009	62056.56
684.357	62020.18
684.705	61975.43
685.053	62004.58
685.4	61898.37
685.748	61879.16
686.095	61874.87
686.443	61776.12
686.79	61744.48
687.138	61778.6
687.485	61754.42
687.832	61638.27
688.18	61715.78
688.527	61677.14
688.874	61620.64
689.221	61568.44
689.568	61468.33
689.915	61427.42
690.262	61517.37
690.609	61424.71
690.956	61329.35
691.303	61344.71
691.65	61201.67
691.997	61223.36
692.344	61144.49
692.69	61014.78
693.037	61123.03
693.383	60931.17
693.73	61047.77
694.077	60881.22
694.423	60895.46
694.769	60778.4
695.116	60810.49
695.462	60729.14
695.808	60560.1
696.155	60690.72
696.501	60475.59
696.847	60480.56
697.193	60387.45
697.539	60430.16
697.885	60307.91
698.231	60201.47
698.577	60189.49
698.923	60190.85
699.269	59939.33
699.614	60019.33
699.96	59850.06
700.306	59889.16
700.651	59729.84
700.997	59719.9
701.342	59705.89
701.688	59663.4
702.033	59539.11
702.379	59514.25
702.724	59449.4
703.069	59539.56
703.415	59283.3
703.76	59223.64
704.105	59244.43
704.45	59173.47
704.795	59046.47
705.14	58895.74
705.485	58958.34
705.83	58775.52
706.175	58902.07
706.52	58762.18
706.865	58711.56
707.209	58640.38
707.554	58627.95
707.899	58615.75
708.243	58530.55
708.588	58507.28
708.932	58276.09
709.277	58422.31
709.621	58279.03
709.966	58116.78
710.31	58171.69
710.654	58006.05
710.998	58062.99
711.342	58047.4
711.687	57966.27
712.031	57854.64
712.375	57794.98
712.719	57779.84
713.063	57740.29
713.407	57791.14
713.75	57675.21
714.094	57676.11
714.438	57481.09
714.782	57498.04
715.125	57333.97
715.469	57550.92
715.812	57296.46
716.156	57239.06
716.499	57262.34
716.843	57266.4
717.186	57079.97
717.53	57158.84
717.873	57152.51
718.216	57084.04
718.559	56994.09
718.902	56774.44
719.246	56850.82
719.589	56763.14
719.932	56728.56
720.275	56663.03
720.617	56693.54
720.96	56588.91
721.303	56574.44
721.646	56604.5
721.989	56426.88
722.331	56406.99
722.674	56375.35
723.016	56465.52
723.359	56193.21
723.701	56315.24
724.044	56272.53
724.386	56095.36
724.729	56200.9
725.071	56119.99
725.413	56116.38
725.755	56007.91
726.097	55915.48
726.439	55923.16
726.782	55807.69
727.124	55912.09
727.465	55845.42
727.807	55787.12
728.149	55815.82
728.491	55669.84
728.833	55699.67
729.175	55584.41
729.516	55515.04
729.858	55592.32
730.199	55603.4
730.541	55523.17
730.882	55433.91
731.224	55462.84
731.565	55274.37
731.906	55304.87
732.248	55338.09
732.589	55191.43
732.93	55139.91
733.271	55197.08
733.612	55195.05
733.953	55241.6
734.294	55054.71
734.635	54939.23
734.976	55095.39
735.317	54938.33
735.658	54957.54
735.999	54810.42
736.339	54900.82
736.68	54846.81
737.021	54773.81
737.361	54659.92
737.702	54796.64
738.042	54717.54
738.383	54715.51
738.723	54719.35
739.063	54636.87
739.404	54624.21
739.744	54569.3
740.084	54498.57
740.424	54506.48
740.764	54504.67
741.104	54628.06
741.444	54415.63
741.784	54328.4
742.124	54353.71
742.464	54270.78
742.804	54226.48
743.143	54092.25
743.483	54184.45
743.823	54186.94
744.162	54169.31
744.502	54167.05
744.841	54019.26
745.181	54154.4
745.52	53953.04
745.86	54000.73
746.199	53892.71
746.538	53891.13
746.877	53919.83
747.216	53875.53
747.556	53693.84
747.895	53887.96
748.234	53733.62
748.573	53737.01
748.911	53603
749.25	53598.93
749.589	53393.74
749.928	53526.39
750.267	53518.25
750.605	53362.78
750.944	53391.48
751.283	53320.29
751.621	53365.04
751.96	53197.81
752.298	53232.84
752.636	53185.38
752.975	53035.1
753.313	52896.12
753.651	53120.75
753.989	52936.8
754.327	52897.93
754.666	52680.54
755.004	52885.5
755.342	52739.07
