Data from 485_FLMS001491_007.txt Node
Date: Thu Apr 19 16:32:21 BST 2018
User: hsy
Spectrometer: FLMS00149
Trigger mode: 0
Integration Time (sec): 1.000000E-2
Scans to average: 10
Electric dark correction enabled: true
Nonlinearity correction enabled: false
Boxcar width: 0
XAxis mode: Wavelengths
Number of Pixels in Spectrum: 2048
>>>>>Begin Spectral Data<<<<<
341.393	-26.6
341.776	-26.6
342.16	-26.6
342.543	-56.2
342.927	-58.68
343.31	-81.74
343.693	-73.37
344.077	-73.15
344.46	-55.07
344.843	-62.3
345.226	-27.27
345.61	-36.54
345.993	-25.92
346.376	6.17
346.759	25.61
347.142	29.22
347.525	45.49
347.908	59.5
348.291	77.36
348.674	83.68
349.057	108.32
349.44	120.52
349.823	143.34
350.206	171.37
350.588	250.91
350.971	247.97
351.354	288.88
351.737	287.75
352.119	299.27
352.502	307.41
352.884	337.24
353.267	325.26
353.65	337.91
354.032	346.28
354.414	370.91
354.797	371.13
355.179	373.17
355.562	370.23
355.944	367.52
356.326	388.76
356.709	389.89
357.091	397.57
357.473	391.47
357.855	398.93
358.238	401.42
358.62	393.51
359.002	398.03
359.384	395.77
359.766	412.26
360.148	391.25
360.53	373.17
360.912	368.42
361.294	396.67
361.676	402.09
362.057	388.53
362.439	386.5
362.821	379.27
363.203	401.19
363.584	399.83
363.966	400.29
364.348	377.46
364.729	381.76
365.111	372.72
365.493	370.91
365.874	378.82
366.256	382.43
366.637	384.02
367.019	398.03
367.4	385.6
367.781	398.48
368.163	383.11
368.544	372.04
368.925	358.93
369.306	377.91
369.688	392.83
370.069	376.11
370.45	365.03
370.831	384.02
371.212	387.18
371.593	389.66
371.974	387.63
372.355	383.56
372.736	382.21
373.117	391.92
373.498	424.01
373.879	377.69
374.26	406.16
374.641	388.99
375.021	374.75
375.402	399.83
375.783	414.07
376.163	402.32
376.544	405.94
376.925	412.26
377.305	400.74
377.686	413.39
378.066	408.2
378.447	426.73
378.827	409.33
379.208	424.24
379.588	407.07
379.968	418.36
380.349	440.29
380.729	425.37
381.109	423.34
381.489	435.09
381.87	412.49
382.25	426.27
382.63	433.73
383.01	435.54
383.39	439.61
383.77	466.95
384.15	457.69
384.53	438.93
384.91	456.33
385.29	471.92
385.67	458.14
386.049	454.97
386.429	480.51
386.809	456.78
387.189	467.85
387.568	462.66
387.948	476.67
388.328	459.72
388.707	469.44
389.087	495.2
389.466	471.02
389.846	478.48
390.225	486.61
390.605	502.43
390.984	508.53
391.363	518.02
391.743	531.36
392.122	505.59
392.501	517.12
392.881	524.58
393.26	529.1
393.639	509.21
394.018	518.7
394.397	536.55
394.776	532.03
395.155	508.53
395.534	518.25
395.913	545.37
396.292	527.06
396.671	549.21
397.05	560.06
397.429	560.06
397.808	558.7
398.186	542.88
398.565	561.86
398.944	571.58
399.323	579.72
399.701	559.38
400.08	573.61
400.458	588.76
400.837	575.87
401.215	565.48
401.594	584.01
401.972	592.82
402.351	599.83
402.729	604.57
403.107	613.61
403.486	597.34
403.864	601.86
404.242	597.34
404.62	636.89
404.999	649.32
405.377	619.94
405.755	637.79
406.133	632.82
406.511	654.97
406.889	635.99
407.267	667.85
407.645	666.49
408.023	677.79
408.401	680.05
408.779	667.17
409.156	665.14
409.534	704.68
409.912	715.76
410.29	697.23
410.667	730.9
411.045	715.76
411.422	729.99
411.8	719.83
412.178	743.55
412.555	742.65
412.933	751.01
413.31	770.67
413.687	765.25
414.065	787.39
414.442	787.17
414.819	790.78
415.197	803.67
415.574	807.51
415.951	798.92
416.328	809.77
416.705	852.93
417.082	821.97
417.46	821.29
417.837	863.1
418.214	860.84
418.591	838.47
418.967	843.44
419.344	895.41
419.721	882.08
420.098	870.78
420.475	889.76
420.852	896.77
421.228	903.55
421.605	891.35
421.982	924.34
422.358	925.47
422.735	935.41
423.111	907.39
423.488	925.7
423.864	951.91
424.241	955.53
424.617	944
424.994	983.32
425.37	1000.72
425.746	981.97
426.123	989.2
426.499	974.06
426.875	1016.54
427.251	1039.82
427.627	1014.06
428.003	1039.82
428.379	1039.82
428.756	1058.35
429.132	1078.23
429.507	1096.31
429.883	1117.56
430.259	1119.59
430.635	1112.13
431.011	1121.17
431.387	1149.64
431.763	1151.9
432.138	1198.91
432.514	1187.61
432.89	1176.76
433.265	1193.03
433.641	1232.58
434.016	1255.63
434.392	1240.26
434.767	1277.33
435.143	1273.48
435.518	1299.02
435.894	1306.93
436.269	1340.83
436.644	1336.53
437.02	1326.14
437.395	1342.86
437.77	1346.02
438.145	1383.54
438.52	1380.15
438.895	1387.6
439.271	1405.68
439.646	1419.02
440.021	1426.02
440.395	1459.92
440.77	1426.47
441.145	1470.31
441.52	1443.65
441.895	1481.84
442.27	1493.14
442.645	1452.01
443.019	1493.36
443.394	1510.31
443.769	1524.1
444.143	1486.81
444.518	1500.14
444.892	1505.12
445.267	1522.52
445.641	1548.28
446.016	1532.69
446.39	1549.86
446.764	1571.78
447.139	1587.83
447.513	1610.88
447.887	1579.24
448.262	1564.78
448.636	1612.68
449.01	1653.59
449.384	1634.38
449.758	1641.61
450.132	1671.67
450.506	1707.37
450.88	1714.6
451.254	1725.45
451.628	1693.13
452.002	1706.92
452.376	1759.35
452.75	1814.49
453.123	1802.06
453.497	1797.54
453.871	1790.53
454.244	1854.49
454.618	1880.93
454.992	1865.33
455.365	1887.93
455.739	1935.39
456.112	1951.43
456.486	1984.2
456.859	1986.91
457.232	2032.79
457.606	2046.12
457.979	2056.06
458.352	2083.63
458.725	2105.55
459.099	2123.63
459.472	2157.3
459.845	2231.2
460.218	2188.94
460.591	2206.11
460.964	2239.33
461.337	2278.65
461.71	2305.77
462.083	2291.54
462.456	2340.8
462.829	2330.18
463.201	2375.83
463.574	2391.42
463.947	2426
464.32	2430.97
464.692	2478.65
465.065	2484.07
465.438	2525.65
465.81	2573.56
466.183	2582.15
466.555	2598.19
466.928	2670.51
467.3	2621.24
467.672	2689.27
468.045	2724.07
468.417	2729.72
468.789	2725.42
469.161	2788.25
469.534	2850.39
469.906	2902.82
470.278	2939.43
470.65	2948.47
471.022	2989.37
471.394	3012.19
471.766	3070.72
472.138	3103.72
472.51	3138.97
472.882	3197.73
473.253	3183.94
473.625	3292.41
473.997	3322.92
474.369	3341.9
474.74	3359.3
475.112	3437.04
475.484	3484.5
475.855	3531.5
476.227	3594.33
476.598	3655.12
476.97	3707.54
477.341	3731.5
477.713	3788.45
478.084	3884.94
478.455	3930.14
478.827	3959.74
479.198	4092.39
479.569	4098.49
479.94	4176.46
480.311	4236.8
480.682	4324.25
481.053	4427.98
481.424	4470.24
481.795	4509.56
482.166	4570.8
482.537	4618.48
482.908	4766.95
483.279	4823.22
483.65	4887.85
484.021	4926.04
484.391	5068.86
484.762	5121.07
485.133	5170.33
485.503	5231.35
485.874	5345.47
486.244	5445.58
486.615	5504.78
486.985	5570.09
487.356	5689.41
487.726	5774.61
488.097	5899.35
488.467	5895.73
488.837	6043.08
489.207	6083.75
489.578	6224.77
489.948	6337.98
490.318	6437.87
490.688	6418.88
491.058	6566
491.428	6635.15
491.798	6708.59
492.168	6865.43
492.538	6934.8
492.908	6961.7
493.278	7105.65
493.648	7185.19
494.017	7238.52
494.387	7320.1
494.757	7439.42
495.126	7487.78
495.496	7502.92
495.866	7608.91
496.235	7724.84
496.605	7683.26
496.974	7809.58
497.344	7954.21
497.713	8016.58
498.082	8078.28
498.452	8164.6
498.821	8235.56
499.19	8273.98
499.559	8362.11
499.928	8337.48
500.298	8464.71
500.667	8492.05
501.036	8578.83
501.405	8630.13
501.774	8701.31
502.143	8750.35
502.512	8822.66
502.88	8890.46
503.249	8944.24
503.618	9003.45
503.987	9026.27
504.356	9091.58
504.724	9204.35
505.093	9203.9
505.462	9273.73
505.83	9290.9
506.199	9364.57
506.567	9539.93
506.936	9536.77
507.304	9655.41
507.672	9673.04
508.041	9703.09
508.409	9796.88
508.777	9903.77
509.145	9940.15
509.514	9925.69
509.882	10039.13
510.25	10090.43
510.618	10095.17
510.986	10168.16
511.354	10190.09
511.722	10389.85
512.09	10429.4
512.458	10394.83
512.826	10521.6
513.193	10614.93
513.561	10671.43
513.929	10811.31
514.297	10812.67
514.664	10876.17
515.032	10933.12
515.4	11069.84
515.767	11117.74
516.135	11123.85
516.502	11139.21
516.869	11236.16
517.237	11416.04
517.604	11337.63
517.972	11522.25
518.339	11562.03
518.706	11734
519.073	11698.07
519.44	11719.76
519.808	11988.46
520.175	11915.24
520.542	12120.88
520.909	12187.55
521.276	12247.21
521.643	12395.68
522.009	12394.32
522.376	12609.23
522.743	12643.81
523.11	12801.77
523.477	12923.12
523.843	13016
524.21	13179.84
524.577	13197.24
524.943	13387.29
525.31	13408.76
525.676	13580.73
526.043	13672.48
526.409	13666.6
526.776	13905.69
527.142	13971.23
527.508	14039.48
527.874	14215.74
528.241	14309.52
528.607	14395.4
528.973	14661.61
529.339	14588.39
529.705	14732.34
530.071	14846.46
530.437	14956.97
530.803	15095.27
531.169	15169.62
531.535	15254.13
531.901	15339.1
532.267	15358.54
532.632	15539.32
532.998	15583.62
533.364	15754.91
533.73	15824.97
534.095	16039.42
534.461	15975.92
534.826	16082.81
535.192	16158.74
535.557	16277.61
535.923	16280.77
536.288	16451.84
536.653	16529.58
537.019	16506.98
537.384	16660.88
537.749	16786.3
538.114	16723.25
538.479	16781.32
538.845	16892.28
539.21	16945.16
539.575	17108.55
539.94	17184.93
540.305	17285.04
540.67	17187.42
541.034	17288.2
541.399	17350.12
541.764	17571.59
542.129	17499.5
542.494	17638.48
542.858	17613.39
543.223	17667.85
543.587	17790.11
543.952	17813.84
544.316	17930.22
544.681	17894.97
545.045	18119.14
545.41	18086.6
545.774	18136.54
546.138	18172.02
546.503	18244.79
546.867	18326.59
547.231	18381.51
547.595	18387.84
547.959	18487.95
548.324	18572.24
548.688	18599.58
549.052	18706.7
549.416	18766.13
549.779	18836.19
550.143	18932.68
550.507	18974.49
550.871	19049.29
551.235	19037.08
551.599	19144.2
551.962	19329.05
552.326	19296.06
552.689	19421.93
553.053	19356.17
553.417	19449.5
553.78	19607.01
554.143	19643.4
554.507	19731.98
554.87	19831.64
555.234	19996.16
555.597	19979.43
555.96	20128.81
556.323	20165.87
556.686	20275.47
557.05	20315.02
557.413	20466.88
557.776	20535.35
558.139	20607.89
558.502	20713.65
558.865	20797.04
559.228	21032.74
559.59	21164.49
559.953	21105.5
560.316	21330.13
560.679	21367.42
561.041	21420.52
561.404	21556.79
561.767	21824.81
562.129	21710.01
562.492	21975.99
562.854	22090.79
563.217	22176.44
563.579	22229.32
563.941	22445.81
564.304	22534.39
564.666	22786.36
565.028	22696.42
565.39	22851
565.753	23095.96
566.115	23049.41
566.477	23340.02
566.839	23359.46
567.201	23643.29
567.563	23626.34
567.925	23785.43
568.287	23926.67
568.648	24015.71
569.01	24162.6
569.372	24349.03
569.734	24422.93
570.095	24692.08
570.457	24730.49
570.819	24898.17
571.18	24788.12
571.542	25074.44
571.903	25144.49
572.265	25390.59
572.626	25603.24
572.987	25565.73
573.349	25775.44
573.71	26013.4
574.071	26156.22
574.432	26231.7
574.794	26526.38
575.155	26526.83
575.516	26474.63
575.877	26730.44
576.238	26797.11
576.599	26876.88
576.96	27029.19
577.32	27065.8
577.681	27359.8
578.042	27434.6
578.403	27421.27
578.763	27576.07
579.124	27725.22
579.485	27932.44
579.845	28101.03
580.206	28103.74
580.566	28237.97
580.927	28351.42
581.287	28607.91
581.648	28715.47
582.008	28996.6
582.368	29064.39
582.728	29301.45
583.089	29291.05
583.449	29406.98
583.809	29747.76
584.169	29931.49
584.529	30038.6
584.889	30559.72
585.249	30439.27
585.609	30625.48
585.969	31021.18
586.329	31217.1
586.688	31684.44
587.048	31848.27
587.408	32025.9
587.768	32377.3
588.127	32645.77
588.487	33069.94
588.846	33547.21
589.206	33700.65
589.565	33990.36
589.925	34597.8
590.284	34790.12
590.643	35280.27
591.003	35710.09
591.362	36392.79
591.721	36804.75
592.08	37142.6
592.44	37747.55
592.799	38008.79
593.158	38632.05
593.517	38964.24
593.876	39525.36
594.235	39863.43
594.593	40310.88
594.952	40991.54
595.311	41423.84
595.67	41869.25
596.029	42575.9
596.387	43124.81
596.746	43667.85
597.104	44094.73
597.463	44380.6
597.822	45168.37
598.18	45604.97
598.538	46031.85
598.897	46667.77
599.255	46848.1
599.613	47728.99
599.972	48022.99
600.33	48437.44
600.688	48784.78
601.046	49331.43
601.404	49873.56
601.762	50134.57
602.12	50615.91
602.478	51082.34
602.836	51392.62
603.194	51517.59
603.552	52049.32
603.91	52198.25
604.268	52664.22
604.625	52889.3
604.983	53261.72
605.341	53455.61
605.698	53939.44
606.056	54374.46
606.413	54448.58
606.771	54773.55
607.128	55078.17
607.485	55264.15
607.843	55441.1
608.2	55804.93
608.557	56136.45
608.914	56165.37
609.272	56491.92
609.629	56821.85
609.986	57128.06
610.343	57187.49
610.7	57616.41
611.057	57720.59
611.414	57788.16
611.771	58084.65
612.127	58262.49
612.484	58463.39
612.841	58645.76
613.198	58652.99
613.554	58810.95
613.911	59094.56
614.267	59241.45
614.624	59311.28
614.98	59560.09
615.337	59845.05
615.693	59888.21
616.05	60001.2
616.406	60212.27
616.762	60330.91
617.118	60426.5
617.475	60502.21
617.831	60743.78
618.187	60864.46
618.543	60969.31
618.899	61146.94
619.255	61211.12
619.611	61228.74
619.967	61467.38
620.323	61572.69
620.678	61586.47
621.034	61586.25
621.39	61725
621.746	61711.89
622.101	62093.35
622.457	61959.12
622.812	62203.63
623.168	62183.97
623.523	62281.14
623.879	62437.75
624.234	62435.27
624.589	62482.27
624.945	62525.43
625.3	62621.93
625.655	62631.87
626.01	62672.32
626.365	62761.58
626.72	62729.72
627.075	62718.42
627.43	62808.81
627.785	62848.59
628.14	62910.05
628.495	62920.22
628.85	62967
629.205	62922.71
629.559	63071.63
629.914	62960.22
630.269	63035.25
630.623	62927.23
630.978	62950.05
631.332	63146.66
631.687	63154.12
632.041	63097.17
632.396	63135.13
632.75	63115.7
633.104	63219.65
633.459	63056.94
633.813	63123.83
634.167	63058.75
634.521	63125.42
634.875	63120.67
635.229	63107.79
635.583	63041.12
635.937	63005.42
636.291	63117.28
636.645	63038.87
636.999	62965.65
637.352	63062.82
637.706	62910.51
638.06	63079.09
638.413	62961.8
638.767	62942.37
639.121	62936.04
639.474	62869.83
639.828	62918.42
640.181	62881.81
640.534	62995.93
640.888	62832.77
641.241	62777.63
641.594	62768.14
641.947	62859.89
642.301	62787.8
642.654	62792.09
643.007	62715.03
643.36	62807.68
643.713	62723.85
644.066	62833.22
644.419	62702.6
644.771	62423.74
645.124	62275.27
645.477	62239.34
645.83	62136.29
646.182	62174.93
646.535	62100.81
646.888	62153.69
647.24	62076.86
647.593	62156.18
647.945	62042.73
648.298	61994.82
648.65	61931.32
649.002	61760.48
649.355	61771.1
649.707	61692.46
650.059	61722.97
650.411	62081.15
650.763	62141.94
651.115	62479.33
651.467	62317.08
651.819	62386
652.171	62240.92
652.523	62296.29
652.875	62277.53
653.227	62200.92
653.578	62296.29
653.93	62274.59
654.282	62155.5
654.633	62161.83
654.985	62169.28
655.337	62155.05
655.688	62124.31
656.039	62190.3
656.391	61925.45
656.742	62023.52
657.094	62113.69
657.445	62030.76
657.796	62041.83
658.147	61962.28
658.498	62062.85
658.849	62064.65
659.2	61932.91
659.551	61931.55
659.902	62041.15
660.253	61874.6
660.604	61995.73
660.955	61849.52
661.306	61985.79
661.656	61893.36
662.007	61901.95
662.358	61931.78
662.708	61871.44
663.059	61916.18
663.409	61734.49
663.76	61860.82
664.11	61889.06
664.461	61918.89
664.811	61853.59
665.161	61833.47
665.511	61751.89
665.862	61808.16
666.212	61809.97
666.562	61854.94
666.912	61784.21
667.262	61715.74
667.612	61701.95
667.962	61729.52
668.312	61741.72
668.662	61904.88
669.011	61756.64
669.361	61728.84
669.711	61739.92
670.06	61665.12
670.41	61650.65
670.76	61634.83
671.109	61760.93
671.459	61660.14
671.808	61640.48
672.157	61741.72
672.507	61591.67
672.856	61584.44
673.205	61617.66
673.554	61665.12
673.904	61593.48
674.253	61733.14
674.602	61593.03
674.951	61266.03
675.3	61181.06
675.649	61612.01
675.998	61595.06
676.346	61558.23
676.695	61665.34
677.044	61495.18
677.393	61545.12
677.741	61583.76
678.09	61460.6
678.438	61421.51
678.787	61527.04
679.135	61505.35
679.484	61394.84
679.832	61452.69
680.181	61334.28
680.529	61437.1
680.877	61287.72
681.225	61348.29
681.573	61480.49
681.922	61288.18
682.27	61288.63
682.618	61262.41
682.966	61198.69
683.314	61203.89
683.661	61141.51
684.009	61098.8
684.357	61038.47
684.705	60984.68
685.053	61051.12
685.4	60948.3
685.748	60926.15
686.095	60936.1
686.443	60808.64
686.79	60878.02
687.138	60876.66
687.485	60819.04
687.832	60763.9
688.18	60820.84
688.527	60704.01
688.874	60681.86
689.221	60663.79
689.568	60585.6
689.915	60489.33
690.262	60517.58
690.609	60445.49
690.956	60309.67
691.303	60358.94
691.65	60266.96
691.997	60256.11
692.344	60102.9
692.69	60094.08
693.037	60116.68
693.383	59945.84
693.73	59988.32
694.077	59849.8
694.423	59926.4
694.769	59869
695.116	59750.82
695.462	59706.75
695.808	59607.77
696.155	59635.79
696.501	59484.83
696.847	59536.81
697.193	59429.47
697.539	59480.09
697.885	59290.04
698.231	59253.2
698.577	59226.31
698.923	59184.05
699.269	59072.42
699.614	59002.59
699.96	58816.83
700.306	58942.93
700.651	58816.38
700.997	58726.44
701.342	58656.61
701.688	58692.99
702.033	58588.36
702.379	58547.23
702.724	58484.41
703.069	58519.66
703.415	58229.5
703.76	58204.87
704.105	58314.47
704.45	58160.35
704.795	58054.36
705.14	58040.35
705.485	58077.19
705.83	57883.75
706.175	57963.07
706.52	57799
706.865	57719.23
707.209	57668.61
707.554	57621.83
707.899	57639.91
708.243	57439.92
708.588	57489.18
708.932	57323.99
709.277	57369.41
709.621	57281.95
709.966	57061.17
710.31	57152.69
710.654	56995.18
710.998	57044.45
711.342	57063.2
711.687	56911.57
712.031	56834.28
712.375	56818.01
712.719	56783.44
713.063	56688.3
713.407	56826.83
713.75	56659.37
714.094	56624.8
714.438	56473.61
714.782	56542.99
715.125	56390.45
715.469	56503.22
715.812	56209.21
716.156	56180.51
716.499	56163.57
716.843	56177.12
717.186	56133.51
717.53	56199.04
717.873	56152.94
718.216	56073.85
718.559	55925.38
718.902	55715.22
719.246	55867.98
719.589	55714.76
719.932	55639.96
720.275	55568.55
720.617	55639.74
720.96	55527.88
721.303	55545.05
721.646	55589.34
721.989	55359.74
722.331	55424.38
722.674	55358.84
723.016	55308.22
723.359	55224.61
723.701	55346.64
724.044	55127.43
724.386	55029.58
724.729	55147.55
725.071	55085.85
725.413	55040.21
725.755	55007.89
726.097	54912.3
726.439	54821.91
726.782	54782.58
727.124	54950.04
727.465	54814.67
727.807	54684.51
728.149	54707.33
728.491	54638.18
728.833	54614.23
729.175	54578.3
729.516	54500.78
729.858	54438.87
730.199	54497.62
730.541	54432.54
730.882	54296.95
731.224	54304.63
731.565	54213.33
731.906	54292.65
732.248	54202.26
732.589	54172.66
732.93	54039.1
733.271	54054.24
733.612	54050.63
733.953	54135.14
734.294	53979.44
734.635	53918.43
734.976	54073.68
735.317	53908.26
735.658	53889.73
735.999	53691.54
736.339	53701.48
736.68	53764.76
737.021	53659.68
737.361	53553.01
737.702	53695.16
738.042	53558.89
738.383	53614.93
738.723	53595.5
739.063	53469.85
739.404	53536.52
739.744	53461.04
740.084	53351.44
740.424	53367.25
740.764	53152.8
741.104	53415.16
741.444	53180.82
741.784	53186.69
742.124	53257.65
742.464	53145.79
742.804	53148.28
743.143	53015.85
743.483	53034.38
743.823	52945.35
744.162	52929.53
744.502	52983.76
744.841	52881.62
745.181	53018.34
745.52	52857.89
745.86	52860.6
746.199	52748.29
746.538	52733.6
746.877	52819.7
747.216	52687.72
747.556	52475.53
747.895	52489.76
748.234	52488.18
748.573	52516.2
748.911	52369.54
749.25	52405.02
749.589	52275.08
749.928	52248.41
750.267	52347.62
750.605	52165.93
750.944	52167.96
751.283	52023.11
751.621	52190.79
751.96	51891.14
752.298	51905.15
752.636	51867.41
752.975	51751.25
753.313	51679.39
753.651	51926.16
753.989	51483.01
754.327	51757.13
754.666	51335.67
755.004	51473.52
755.342	51451.83
755.679	51422.22
