Data from 485_FLMS001491_001.txt Node
Date: Thu Apr 19 16:32:07 BST 2018
User: hsy
Spectrometer: FLMS00149
Trigger mode: 0
Integration Time (sec): 1.000000E-2
Scans to average: 10
Electric dark correction enabled: true
Nonlinearity correction enabled: false
Boxcar width: 0
XAxis mode: Wavelengths
Number of Pixels in Spectrum: 2048
>>>>>Begin Spectral Data<<<<<
341.393	-16.41
341.776	-16.41
342.16	-16.41
342.543	-46.69
342.927	-81.95
343.31	-56.18
343.693	-80.82
344.077	-67.26
344.46	-52.8
344.843	-69.97
345.226	-54.38
345.61	-22.29
345.993	-22.74
346.376	1.89
346.759	26.52
347.142	34.66
347.525	45.51
347.908	55.68
348.291	74.21
348.674	90.25
349.057	97.71
349.44	142.45
349.823	138.16
350.206	185.39
350.588	251.38
350.971	255.45
351.354	260.42
351.737	299.51
352.119	302.22
352.502	313.52
352.884	333.86
353.267	325.05
353.65	342
354.032	345.16
354.414	369.57
354.797	353.75
355.179	387.87
355.562	380.64
355.944	393.52
356.326	372.28
356.709	394.88
357.091	396.46
357.473	375.22
357.855	397.36
358.238	396.46
358.62	389.68
359.002	401.43
359.384	404.82
359.766	405.95
360.148	388.55
360.53	395.33
360.912	399.4
361.294	390.13
361.676	382.67
362.057	381.09
362.439	397.36
362.821	392.16
363.203	398.72
363.584	385.84
363.966	372.28
364.348	378.83
364.729	368.21
365.111	390.36
365.493	393.07
365.874	392.16
366.256	362.34
366.637	373.86
367.019	382.45
367.4	383.35
367.781	380.87
368.163	384.71
368.544	372.28
368.925	398.27
369.306	365.05
369.688	393.97
370.069	396.46
370.45	395.78
370.831	386.97
371.212	383.8
371.593	391.03
371.974	386.29
372.355	381.54
372.736	372.5
373.117	403.69
373.498	393.75
373.879	390.36
374.26	386.52
374.641	404.14
375.021	380.41
375.402	404.37
375.783	403.46
376.163	405.27
376.544	408.66
376.925	432.84
377.305	412.96
377.686	437.36
378.066	428.1
378.447	429
378.827	418.6
379.208	429.23
379.588	446.17
379.968	418.38
380.349	445.95
380.729	443.91
381.109	457.93
381.489	426.51
381.87	455.21
382.25	435.1
382.63	455.21
383.01	465.61
383.39	440.75
383.77	451.82
384.15	479.85
384.53	476
384.91	462.22
385.29	483.24
385.67	472.84
386.049	470.81
386.429	494.76
386.809	482.11
387.189	502.44
387.568	481.2
387.948	465.16
388.328	511.03
388.707	495.44
389.087	512.61
389.466	514.2
389.846	486.85
390.225	505.38
390.605	500.64
390.984	535.89
391.363	530.69
391.743	501.99
392.122	512.39
392.501	537.7
392.881	527.98
393.26	523.91
393.639	542.22
394.018	532.5
394.397	541.54
394.776	546.74
395.155	558.94
395.534	548.77
395.913	582.22
396.292	556.68
396.671	590.35
397.05	577.92
397.429	578.6
397.808	573.63
398.186	590.35
398.565	565.95
398.944	592.61
399.323	590.58
399.701	589.45
400.08	602.55
400.458	612.05
400.837	601.88
401.215	629.45
401.594	611.37
401.972	627.86
402.351	617.47
402.729	608.43
403.107	638.71
403.486	642.1
403.864	636
404.242	659.28
404.62	654.98
404.999	657.24
405.377	673.74
405.755	667.86
406.133	659.95
406.511	669.22
406.889	708.77
407.267	702.89
407.645	697.69
408.023	722.78
408.401	723.23
408.779	694.98
409.156	741.99
409.534	729.78
409.912	731.14
410.29	762.32
410.667	748.31
411.045	777.24
411.422	781.99
411.8	783.57
412.178	769.33
412.555	827.86
412.933	829.67
413.31	804.13
413.687	838.48
414.065	821.53
414.442	833.51
414.819	841.19
415.197	824.24
415.574	853.4
415.951	880.06
416.328	882.77
416.705	878.25
417.082	881.87
417.46	903.34
417.837	906.05
418.214	908.99
418.591	932.04
418.967	923.9
419.344	927.52
419.721	951.7
420.098	946.05
420.475	939.95
420.852	945.37
421.228	953.73
421.605	967.29
421.982	986.95
422.358	990.34
422.735	1001.19
423.111	1016.56
423.488	1040.96
423.864	1047.29
424.241	1046.84
424.617	1038.48
424.994	1054.07
425.37	1059.04
425.746	1080.51
426.123	1089.1
426.499	1104.24
426.875	1087.29
427.251	1120.73
427.627	1131.35
428.003	1129.32
428.379	1144.46
428.756	1141.98
429.132	1174.29
429.507	1194.63
429.883	1195.31
430.259	1211.35
430.635	1230.33
431.011	1246.15
431.387	1262.2
431.763	1266.49
432.138	1292.71
432.514	1285.47
432.89	1273.5
433.265	1351.46
433.641	1315.3
434.016	1347.85
434.392	1370.67
434.767	1403.89
435.143	1415.19
435.518	1401.63
435.894	1435.53
436.269	1444.11
436.644	1439.37
437.02	1471.01
437.395	1442.98
437.77	1513.27
438.145	1490.67
438.52	1535.41
438.895	1537.67
439.271	1521.17
439.646	1561.85
440.021	1597.33
440.395	1600.04
440.77	1597.56
441.145	1554.62
441.52	1611.79
441.895	1628.52
442.27	1614.73
442.645	1637.78
443.019	1672.81
443.394	1637.1
443.769	1676.2
444.143	1630.32
444.518	1709.42
444.892	1688.85
445.267	1719.14
445.641	1695.63
446.016	1721.85
446.39	1730.43
446.764	1745.8
447.139	1738.8
447.513	1734.05
447.887	1738.12
448.262	1766.82
448.636	1813.14
449.01	1802.98
449.384	1801.39
449.758	1832.8
450.132	1865.57
450.506	1863.54
450.88	1875.97
451.254	1900.6
451.628	1911.67
452.002	1924.55
452.376	1926.81
452.75	1965.23
453.123	2025.34
453.497	2018.79
453.871	1978.56
454.244	2056.08
454.618	2087.26
454.992	2101.72
455.365	2082.97
455.739	2165.9
456.112	2157.77
456.486	2189.41
456.859	2236.86
457.232	2258.78
457.606	2254.26
457.979	2307.14
458.352	2316.63
458.725	2345.56
459.099	2345.56
459.472	2456.29
459.845	2448.61
460.218	2450.87
460.591	2513.92
460.964	2500.58
461.337	2540.58
461.71	2582.84
462.083	2659.68
462.456	2621.03
462.829	2640.69
463.201	2690.41
463.574	2675.04
463.947	2761.14
464.32	2767.02
464.692	2801.59
465.065	2776.06
465.438	2831.42
465.81	2867.58
466.183	2931.31
466.555	2967.69
466.928	2981.25
467.3	2955.04
467.672	3053.11
468.045	3065.77
468.417	3086.56
468.789	3158.65
469.161	3142.15
469.534	3217.85
469.906	3263.5
470.278	3252.88
470.65	3332.88
471.022	3385.76
471.394	3430.05
471.766	3461.91
472.138	3502.59
472.51	3599.31
472.882	3570.16
473.253	3662.81
473.625	3692.87
473.997	3717.95
474.369	3756.6
474.74	3839.31
475.112	3936.48
475.484	3953.2
475.855	4034.78
476.227	4045.18
476.598	4143.25
476.97	4140.31
477.341	4312.29
477.713	4345.51
478.084	4368.33
478.455	4441.55
478.827	4474.32
479.198	4618.49
479.569	4665.72
479.94	4777.13
480.311	4795.21
480.682	4947.98
481.053	5028.88
481.424	5145.49
481.795	5156.11
482.166	5248.31
482.537	5313.62
482.908	5419.6
483.279	5497.57
483.65	5622.08
484.021	5696.88
484.391	5798.58
484.762	5861.85
485.133	5916.54
485.503	6001.28
485.874	6118.57
486.244	6219.81
486.615	6334.38
486.985	6398.56
487.356	6499.57
487.726	6585.22
488.097	6782.73
488.467	6808.49
488.837	6943.86
489.207	6980.69
489.578	7149.73
489.948	7233.11
490.318	7333.9
490.688	7388.37
491.058	7553.33
491.428	7587.91
491.798	7726.21
492.168	7912.87
492.538	7885.53
492.908	8042.13
493.278	8126.42
493.648	8173.66
494.017	8348.34
494.387	8477.6
494.757	8514.21
495.126	8584.49
495.496	8687.31
495.866	8764.6
496.235	8794.88
496.605	8982.67
496.974	8973.63
497.344	9095.44
497.713	9177.24
498.082	9274.42
498.452	9356
498.821	9401.42
499.19	9464.92
499.559	9538.82
499.928	9588.31
500.298	9662.88
500.667	9816.55
501.036	9842.99
501.405	9951.24
501.774	9965.25
502.143	10053.83
502.512	10072.14
502.88	10160.5
503.249	10216.54
503.618	10321.17
503.987	10296.76
504.356	10384.67
504.724	10463.31
505.093	10541.05
505.462	10596.42
505.83	10657.66
506.199	10770.65
506.567	10883.64
506.936	10816.98
507.304	10974.94
507.672	11092.9
508.041	11115.95
508.409	11164.08
508.777	11265.1
509.145	11392.55
509.514	11333.57
509.882	11532.89
510.25	11511.87
510.618	11568.37
510.986	11629.16
511.354	11755.26
511.722	11844.29
512.09	11976.04
512.458	12015.59
512.826	12028.47
513.193	12195.7
513.561	12244.96
513.929	12282.25
514.297	12373.09
514.664	12481.34
515.032	12603.37
515.4	12632.52
515.767	12672.75
516.135	12743.93
516.502	12754.33
516.869	12983.25
517.237	13073.19
517.604	12996.81
517.972	13253.3
518.339	13294.65
518.706	13274.99
519.073	13404.93
519.44	13470.69
519.808	13650.12
520.175	13715.66
520.542	13851.02
520.909	13952.94
521.276	14068.42
521.643	14243.1
522.009	14238.58
522.376	14390.44
522.743	14481.06
523.11	14642.19
523.477	14839.02
523.843	14816.19
524.21	15014.38
524.577	15183.19
524.943	15239.01
525.31	15293.02
525.676	15525.78
526.043	15673.12
526.409	15713.57
526.776	15909.5
527.142	15892.32
527.508	16147.23
527.874	16224.29
528.241	16362.82
528.607	16492.08
528.973	16675.8
529.339	16708.57
529.705	16826.99
530.071	16958.28
530.437	17065.62
530.803	17327.76
531.169	17302.68
531.535	17391.94
531.901	17466.52
532.267	17607.08
532.632	17847.98
532.998	17787.87
533.364	17890.46
533.73	18083.23
534.095	18167.06
534.461	18263.33
534.826	18326.38
535.192	18485.02
535.557	18562.53
535.923	18615.41
536.288	18762.53
536.653	18805.92
537.019	18923.43
537.384	18951.45
537.749	19071.22
538.114	19095.63
538.479	19141.73
538.845	19262.4
539.21	19280.48
539.575	19366.81
539.94	19549.4
540.305	19639.57
540.67	19622.62
541.034	19695.84
541.399	19712.56
541.764	19779.23
542.129	19839.11
542.494	19968.37
542.858	20042.95
543.223	20055.83
543.587	20112.1
543.952	20191.42
544.316	20300.12
544.681	20307.12
545.045	20511.86
545.41	20593.44
545.774	20583.95
546.138	20575.36
546.503	20685.19
546.867	20823.04
547.231	20883.15
547.595	20910.27
547.959	21027.78
548.324	20991.85
548.688	21165.63
549.052	21281.79
549.416	21241.79
549.779	21328.56
550.143	21379.41
550.507	21599.06
550.871	21609.69
551.235	21603.36
551.599	21825.05
551.962	21801.77
552.326	21945.95
552.689	22061.65
553.053	21846.74
553.417	22091.26
553.78	22274.08
554.143	22259.16
554.507	22457.35
554.87	22506.16
555.234	22716.32
555.597	22676.1
555.96	22768.3
556.323	22883.78
556.686	22819.82
557.05	23077.44
557.413	23082.87
557.776	23217.78
558.139	23393.37
558.502	23545.91
558.865	23533.93
559.228	23692.8
559.59	23792.45
559.953	23796.52
560.316	24142.73
560.679	24117.64
561.041	24290.29
561.404	24401.93
561.767	24638.08
562.129	24524.41
562.492	24934.12
562.854	24815.03
563.217	25000.78
563.579	25153.77
563.941	25302.02
564.304	25462.24
564.666	25755.79
565.028	25688
565.39	25807.54
565.753	26066.07
566.115	26165.72
566.477	26276.68
566.839	26408.2
567.201	26649.55
567.563	26673.96
567.925	26871.24
568.287	26959.6
568.648	27044.57
569.01	27327.05
569.372	27513.26
569.734	27649.3
570.095	27807.26
570.457	27893.36
570.819	28072.34
571.18	28131.77
571.542	28361.82
571.903	28565.89
572.265	28689.5
572.626	28892.88
572.987	28836.39
573.349	29100.79
573.71	29334.23
574.071	29343.95
574.432	29598.85
574.794	29787.78
575.155	29809.24
575.516	29862.35
575.877	30088.56
576.238	30176.01
576.599	30360.42
576.96	30419.4
577.32	30404.26
577.681	30674.98
578.042	30913.4
578.403	31037.46
578.763	31136.44
579.124	31127.4
579.485	31461.63
579.845	31662.53
580.206	31553.15
580.566	31717.67
580.927	31868.85
581.287	32074.72
581.648	32013.48
582.008	32502.73
582.368	32525.78
582.728	32778.66
583.089	32830.63
583.449	33015.26
583.809	33290.28
584.169	33520.79
584.529	33565.76
584.889	33945.86
585.249	34040.77
585.609	34208
585.969	34426.3
586.329	34674.43
586.688	35093.4
587.048	35334.52
587.408	35597.57
587.768	35794.4
588.127	36091.79
588.487	36382.63
588.846	36995.95
589.206	37181.03
589.565	37546.44
589.925	38235.69
590.284	38331.73
590.643	38678.84
591.003	39302.33
591.362	39814.63
591.721	40093.49
592.08	40595.63
592.44	41113.13
592.799	41425.21
593.158	41940.9
593.517	42388.12
593.876	42943.59
594.235	43192.17
594.593	43803.68
594.952	44148.3
595.311	44659.93
595.67	45196.18
596.029	45883.85
596.387	46332.43
596.746	46954.1
597.104	47027.1
597.463	47508.44
597.822	48154.3
598.18	48466.61
598.538	48864.11
598.897	49514.72
599.255	49576.18
599.613	50434.01
599.972	50479.89
600.33	50976.37
600.688	51242.81
601.046	51599.86
601.404	52185.38
601.762	52377.69
602.12	52859.03
602.478	53139.03
602.836	53405.01
603.194	53531.11
603.552	53943.53
603.91	54079.57
604.268	54590.06
604.625	54703.51
604.983	55104.4
605.341	55166.54
605.698	55630.03
606.056	55980.53
606.413	56026.41
606.771	56437.02
607.128	56563.57
607.485	56752.26
607.843	56914.97
608.2	57330.55
608.557	57582.98
608.914	57620.72
609.272	57956.07
609.629	58201.04
609.986	58438.77
610.343	58482.16
610.7	58837.41
611.057	58926.9
611.414	59114.46
611.771	59304.97
612.127	59538.86
612.484	59684.17
612.841	59865.4
613.198	59879.87
613.554	60103.82
613.911	60367.09
614.267	60457.93
614.624	60579.06
614.98	60787.19
615.337	61029.89
615.693	61050
616.05	61178.14
616.406	61395.08
616.762	61368.19
617.118	61538.81
617.475	61621.74
617.831	61842.53
618.187	61955.97
618.543	62048.62
618.899	62227.15
619.255	62194.61
619.611	62263.53
619.967	62523.19
620.323	62601.15
620.678	62599.12
621.034	62712.79
621.39	62720.92
621.746	62779.9
622.101	63110.29
622.457	62932.89
622.812	63133.11
623.168	63226.22
623.523	63237.74
623.879	63335.37
624.234	63258.53
624.589	63396.84
624.945	63476.16
625.3	63502.37
625.655	63517.06
626.01	63513.67
626.365	63517.06
626.72	63517.06
627.075	63517.06
627.43	63517.06
627.785	63517.06
628.14	63517.06
628.495	63517.06
628.85	63517.06
629.205	63517.06
629.559	63517.06
629.914	63517.06
630.269	63517.06
630.623	63517.06
630.978	63517.06
631.332	63517.06
631.687	63517.06
632.041	63517.06
632.396	63517.06
632.75	63517.06
633.104	63517.06
633.459	63517.06
633.813	63517.06
634.167	63517.06
634.521	63517.06
634.875	63517.06
635.229	63517.06
635.583	63517.06
635.937	63517.06
636.291	63517.06
636.645	63517.06
636.999	63517.06
637.352	63517.06
637.706	63517.06
638.06	63517.06
638.413	63517.06
638.767	63517.06
639.121	63517.06
639.474	63517.06
639.828	63517.06
640.181	63517.06
640.534	63517.06
640.888	63517.06
641.241	63517.06
641.594	63517.06
641.947	63517.06
642.301	63517.06
642.654	63517.06
643.007	63513.22
643.36	63517.06
643.713	63517.06
644.066	63517.06
644.419	63506.89
644.771	63377.18
645.124	63124.07
645.477	63091.99
645.83	63032.33
646.182	62993.68
646.535	62987.81
646.888	63029.61
647.24	62945.1
647.593	63133.79
647.945	62972.89
648.298	62941.03
648.65	62843.63
649.002	62712.11
649.355	62653.58
649.707	62613.81
650.059	62622.84
650.411	62920.01
650.763	63035.49
651.115	63405.65
651.467	63315.71
651.819	63228.25
652.171	63199.33
652.523	63137.63
652.875	63160.23
653.227	63066.45
653.578	63236.61
653.93	63123.62
654.282	63052.21
654.633	62981.03
654.985	63012.89
655.337	63066
655.688	62998.88
656.039	63050.63
656.391	62865.32
656.742	62908.71
657.094	62942.61
657.445	62980.35
657.796	62971.76
658.147	62883.63
658.498	62897.87
658.849	62923.18
659.2	62890.86
659.551	62854.25
659.902	62908.04
660.253	62798.89
660.604	62902.61
660.955	62697.19
661.306	62831.43
661.656	62779
662.007	62778.32
662.358	62807.25
662.708	62782.16
663.059	62762.05
663.409	62639.12
663.76	62738.55
664.11	62734.71
664.461	62730.86
664.811	62754.59
665.161	62714.59
665.511	62655.39
665.862	62687.93
666.212	62718.21
666.562	62766.57
666.912	62698.55
667.262	62602.51
667.612	62708.27
667.962	62663.52
668.312	62611.32
668.662	62755.27
669.011	62681.83
669.361	62640.02
669.711	62643.18
670.06	62624.65
670.41	62612.22
670.76	62566.12
671.109	62633.01
671.459	62552.34
671.808	62670.75
672.157	62580.59
672.507	62483.19
672.856	62471.89
673.205	62530.42
673.554	62563.64
673.904	62476.63
674.253	62653.8
674.602	62544.65
674.951	62205.91
675.3	62127.72
675.649	62518.44
675.998	62476.41
676.346	62531.32
676.695	62517.54
677.044	62416.3
677.393	62476.63
677.741	62526.12
678.09	62419.46
678.438	62399.57
678.787	62423.08
679.135	62483.64
679.484	62291.1
679.832	62413.81
680.181	62269.18
680.529	62305.34
680.877	62237.54
681.225	62244.32
681.573	62374.72
681.922	62258.33
682.27	62171.56
682.618	62177.43
682.966	62188.28
683.314	62162.97
683.661	62106.25
684.009	62024.67
684.357	62018.79
684.705	61958.23
685.053	62003.88
685.4	61922.52
685.748	61864.22
686.095	61867.16
686.443	61718.69
686.79	61748.52
687.138	61794.17
687.485	61759.14
687.832	61670.55
688.18	61705.81
688.527	61605.7
688.874	61556.43
689.221	61577.45
689.568	61482.31
689.915	61441.63
690.262	61451.8
690.609	61423.55
690.956	61312.82
691.303	61321.18
691.65	61262.65
691.997	61195.31
692.344	61077.57
692.69	61073.73
693.037	61082.77
693.383	60845.04
693.73	60984.02
694.077	60850.01
694.423	60836.45
694.769	60768.88
695.116	60726.4
695.462	60705.61
695.808	60617.02
696.155	60624.71
696.501	60420.87
696.847	60506.52
697.193	60333.87
697.539	60323.92
697.885	60248.9
698.231	60155.79
698.577	60228.11
698.923	60179.29
699.269	59962.35
699.614	59899.98
699.96	59822.69
700.306	59902.24
700.651	59741.79
700.997	59688.68
701.342	59648.46
701.688	59703.83
702.033	59571.4
702.379	59529.82
702.724	59358.3
703.069	59519.65
703.415	59217.06
703.76	59223.84
704.105	59285.31
704.45	59130.06
704.795	59061.81
705.14	58928.03
705.485	59010.96
705.83	58804.87
706.175	58914.69
706.52	58767.35
706.865	58784.08
707.209	58572.56
707.554	58657.53
707.899	58621.82
708.243	58452.33
708.588	58446.23
708.932	58316.97
709.277	58343.41
709.621	58274.94
709.966	58061.61
710.31	58150.65
710.654	57993.81
710.998	58074.49
711.342	58035.85
711.687	57900.71
712.031	57862.29
712.375	57767.83
712.719	57756.53
713.063	57672.01
713.407	57848.28
713.75	57648.06
714.094	57677.66
714.438	57464.34
714.782	57518.12
715.125	57280.84
715.469	57523.54
715.812	57218.92
716.156	57160.39
716.499	57190.67
716.843	57288.97
717.186	57039.49
717.53	57200.84
717.873	57196.55
718.216	57104.12
718.559	56962.43
718.902	56804.92
719.246	56831.58
719.589	56719.27
719.932	56744.81
720.275	56788.65
720.617	56713.17
720.96	56621.42
721.303	56604.25
721.646	56641.08
721.989	56376.23
722.331	56556.11
722.674	56427.08
723.016	56388.21
723.359	56232.73
723.701	56353.18
724.044	56236.57
724.386	56112.51
724.729	56213.07
725.071	56137.14
725.413	56130.81
725.755	56084.49
726.097	55984.83
726.439	55908.9
726.782	55875.68
727.124	55989.12
727.465	55835.9
727.807	55756.36
728.149	55829.35
728.491	55737.38
728.833	55732.86
729.175	55657.15
729.516	55585.74
729.858	55549.58
730.199	55678.85
730.541	55591.17
730.882	55420.32
731.224	55454.22
731.565	55338.06
731.906	55375.8
732.248	55378.52
732.589	55228.01
732.93	55231.85
733.271	55219.2
733.612	55186.88
733.953	55328.35
734.294	55158.86
734.635	55052.87
734.976	55112.53
735.317	54926.1
735.658	54931.3
735.999	54840.68
736.339	54822.6
736.68	55007.45
737.021	54846.33
737.361	54772.2
737.702	54951.86
738.042	54717.74
738.383	54837.51
738.723	54741.7
739.063	54687.01
739.404	54721.58
739.744	54710.28
740.084	54534.92
740.424	54608.14
740.764	54495.6
741.104	54580.8
741.444	54482.95
741.784	54371.76
742.124	54399.78
742.464	54363.18
742.804	54258.09
743.143	54296.51
743.483	54267.81
743.823	54170.41
744.162	54193.69
744.502	54136.29
744.841	54083.86
745.181	54170.86
745.52	53945.56
745.86	54052.22
746.199	53948.95
746.538	53941.72
746.877	54068.04
747.216	53902.17
747.556	53851.1
747.895	53857.2
748.234	53711.67
748.573	53766.58
748.911	53599.58
749.25	53683.19
749.589	53490.43
749.928	53534.95
750.267	53515.74
750.605	53446.14
750.944	53366.37
751.283	53319.36
751.621	53356.2
751.96	53144
752.298	53096.32
752.636	53199.82
752.975	53097.9
753.313	52944.23
753.651	53124.56
753.989	52912.37
754.327	52971.35
754.666	52619.49
