Data from 485_FLMS001491_004.txt Node
Date: Thu Apr 19 16:32:14 BST 2018
User: hsy
Spectrometer: FLMS00149
Trigger mode: 0
Integration Time (sec): 1.000000E-2
Scans to average: 10
Electric dark correction enabled: true
Nonlinearity correction enabled: false
Boxcar width: 0
XAxis mode: Wavelengths
Number of Pixels in Spectrum: 2048
>>>>>Begin Spectral Data<<<<<
341.393	-22.26
341.776	-22.26
342.16	-22.26
342.543	-78.53
342.927	-62.94
343.31	-62.71
343.693	-48.47
344.077	-80.79
344.46	-72.65
344.843	-54.8
345.226	-38.08
345.61	-35.82
345.993	1.02
346.376	3.28
346.759	5.08
347.142	20.68
347.525	47.57
347.908	60.45
348.291	62.48
348.674	86.66
349.057	106.1
349.44	120.56
349.823	131.86
350.206	148.36
350.588	238.3
350.971	272.65
351.354	273.33
351.737	303.61
352.119	290.27
352.502	307.45
352.884	335.7
353.267	337.51
353.65	337.73
354.032	365.3
354.414	356.26
354.797	364.4
355.179	378.41
355.562	397.84
355.944	377.28
356.326	391.97
356.709	405.98
357.091	387.9
357.473	388.13
357.855	393.77
358.238	410.27
358.62	387.9
359.002	397.84
359.384	409.14
359.766	428.12
360.148	411.4
360.53	408.01
360.912	397.39
361.294	398.52
361.676	401.01
362.057	395.36
362.439	407.33
362.821	409.14
363.203	403.49
363.584	385.87
363.966	391.74
364.348	382.48
364.729	387.22
365.111	396.71
365.493	401.46
365.874	378.86
366.256	390.39
366.637	360.78
367.019	372.53
367.4	384.51
367.781	412.76
368.163	394
368.544	397.62
368.925	400.55
369.306	408.01
369.688	389.26
370.069	372.08
370.45	401.46
370.831	399.2
371.212	406.66
371.593	361.01
371.974	399.2
372.355	408.24
372.736	406.88
373.117	391.29
373.498	413.89
373.879	404.85
374.26	404.62
374.641	408.46
375.021	392.19
375.402	418.41
375.783	406.2
376.163	437.39
376.544	443.49
376.925	417.5
377.305	424.73
377.686	420.21
378.066	420.89
378.447	434.68
378.827	419.54
379.208	434.23
379.588	447.56
379.968	440.33
380.349	441.01
380.729	431.29
381.109	436.26
381.489	451.17
381.87	465.19
382.25	442.14
382.63	443.04
383.01	441.91
383.39	444.62
383.77	488.69
384.15	452.3
384.53	461.8
384.91	445.3
385.29	459.99
385.67	451.85
386.049	488.24
386.429	490.5
386.809	489.37
387.189	474.22
387.568	477.39
387.948	504.05
388.328	489.37
388.707	504.73
389.087	488.91
389.466	510.61
389.846	537.05
390.225	527.33
390.605	533.21
390.984	490.27
391.363	534.79
391.743	514
392.122	523.72
392.501	517.39
392.881	543.6
393.26	541.79
393.639	549.93
394.018	527.33
394.397	545.41
394.776	556.03
395.155	572.08
395.534	549.93
395.913	560.78
396.292	570.95
396.671	570.95
397.05	574.56
397.429	587.67
397.808	602.36
398.186	594.9
398.565	588.8
398.944	587.44
399.323	607.1
399.701	592.64
400.08	581.34
400.458	599.65
400.837	612.07
401.215	602.13
401.594	616.82
401.972	610.04
402.351	638.97
402.729	658.85
403.107	637.38
403.486	629.47
403.864	634.9
404.242	650.94
404.62	664.95
404.999	666.31
405.377	672.64
405.755	679.19
406.133	681.68
406.511	712.18
406.889	706.99
407.267	684.16
407.645	699.08
408.023	745.86
408.401	727.78
408.779	724.61
409.156	721.68
409.534	723.94
409.912	749.25
410.29	726.87
410.667	758.06
411.045	785.86
411.422	755.8
411.8	787.21
412.178	793.54
412.555	799.41
412.933	801
413.31	828.57
413.687	817.04
414.065	824.05
414.442	817.04
414.819	842.58
415.197	836.7
415.574	854.78
415.951	868.56
416.328	877.6
416.705	853.42
417.082	878.73
417.46	908.11
417.837	887.32
418.214	912.63
418.591	944.27
418.967	910.37
419.344	905.63
419.721	944.49
420.098	946.08
420.475	927.32
420.852	940.65
421.228	965.96
421.605	932.97
421.982	957.15
422.358	969.35
422.735	977.71
423.111	993.08
423.488	1003.25
423.864	1014.78
424.241	1048.22
424.617	1037.83
424.994	1037.15
425.37	1045.96
425.746	1029.69
426.123	1036.24
426.499	1074.21
426.875	1080.54
427.251	1105.85
427.627	1095.23
428.003	1136.35
428.379	1116.24
428.756	1145.62
429.132	1141.33
429.507	1157.82
429.883	1158.5
430.259	1189.69
430.635	1200.08
431.011	1202.57
431.387	1223.58
431.763	1241.89
432.138	1249.57
432.514	1256.8
432.89	1290.47
433.265	1312.17
433.641	1310.14
434.016	1320.98
434.392	1355.33
434.767	1403.92
435.143	1388.1
435.518	1392.84
435.894	1393.97
436.269	1434.2
436.644	1434.88
437.02	1435.1
437.395	1432.62
437.77	1478.72
438.145	1493.41
438.52	1467.42
438.895	1559.85
439.271	1519.17
439.646	1548.32
440.021	1542.22
440.395	1560.98
440.77	1537.7
441.145	1576.57
441.52	1589.22
441.895	1602.56
442.27	1606.4
442.645	1608.21
443.019	1605.04
443.394	1609.56
443.769	1612.05
444.143	1640.52
444.518	1642.33
444.892	1669
445.267	1668.54
445.641	1682.78
446.016	1706.06
446.39	1692.05
446.764	1707.86
447.139	1728.88
447.513	1719.16
447.887	1727.3
448.262	1748.54
448.636	1746.06
449.01	1756
449.384	1789.67
449.758	1826.96
450.132	1823.79
450.506	1828.99
450.88	1824.02
451.254	1855.43
451.628	1886.84
452.002	1892.94
452.376	1913.28
452.75	1953.06
453.123	1953.73
453.497	1973.17
453.871	1954.41
454.244	2012.04
454.618	2051.81
454.992	2062.43
455.365	2078.7
455.739	2110.11
456.112	2113.73
456.486	2161.86
456.859	2186.72
457.232	2226.95
457.606	2215.87
457.979	2246.61
458.352	2290
458.725	2285.48
459.099	2319.15
459.472	2340.16
459.845	2397.11
460.218	2411.8
460.591	2428.3
460.964	2451.12
461.337	2493.61
461.71	2520.27
462.083	2542.19
462.456	2570.21
462.829	2558.01
463.201	2607.28
463.574	2666.26
463.947	2654.73
464.32	2682.08
464.692	2764.56
465.065	2736.76
465.438	2747.16
465.81	2834.39
466.183	2815.86
466.555	2894.05
466.928	2887.95
467.3	2903.54
467.672	2948.06
468.045	3034.84
468.417	3000.49
468.789	3058.34
469.161	3084.78
469.534	3128.84
469.906	3144.44
470.278	3228.95
470.65	3239.35
471.022	3343.3
471.394	3334.94
471.766	3385.79
472.138	3404.09
472.51	3456.29
472.882	3515.95
473.253	3552.56
473.625	3626.91
473.997	3658.32
474.369	3656.29
474.74	3702.39
475.112	3810.63
475.484	3867.81
475.855	3923.63
476.227	3950.52
476.598	4034.81
476.97	4080.68
477.341	4141.02
477.713	4235.26
478.084	4253.11
478.455	4374.46
478.827	4366.1
479.198	4572.87
479.569	4525.19
479.94	4636.6
480.311	4696.03
480.682	4762.47
481.053	4891.06
481.424	4952.3
481.795	5006.99
482.166	5072.3
482.537	5186.42
482.908	5292.4
483.279	5386.41
483.65	5462.34
484.021	5531.72
484.391	5620.3
484.762	5695.33
485.133	5723.35
485.503	5883.35
485.874	6008.54
486.244	6049.67
486.615	6134.19
486.985	6236.33
487.356	6341.64
487.726	6476.33
488.097	6580.73
488.467	6582.99
488.837	6703.89
489.207	6836.32
489.578	6947.95
489.948	7050.55
490.318	7133.26
490.688	7195.63
491.058	7320.6
491.428	7422.06
491.798	7516.75
492.168	7639.69
492.538	7668.61
492.908	7780.7
493.278	7954.03
493.648	7948.15
494.017	8058.88
494.387	8135.27
494.757	8158.77
495.126	8316.05
495.496	8410.97
495.866	8465.2
496.235	8614.35
496.605	8662.26
496.974	8774.12
497.344	8828.36
497.713	8935.02
498.082	9020.67
498.452	9091.17
498.821	9091.17
499.19	9183.6
499.559	9275.12
499.928	9369.81
500.298	9420.66
500.667	9480.99
501.036	9478.96
501.405	9582.69
501.774	9658.62
502.143	9762.57
502.512	9794.43
502.88	9883.47
503.249	9904.71
503.618	9963.47
503.987	10014.09
504.356	10119.85
504.724	10182.67
505.093	10195.1
505.462	10245.27
505.83	10286.85
506.199	10488.88
506.567	10489.33
506.936	10588.31
507.304	10695.42
507.672	10685.71
508.041	10758.25
508.409	10816.55
508.777	10919.6
509.145	10929.54
509.514	11007.73
509.882	11113.27
510.25	11195.75
510.618	11268.52
510.986	11279.82
511.354	11356.65
511.722	11496.53
512.09	11616.3
512.458	11530.88
512.826	11701.73
513.193	11747.15
513.561	11825.34
513.929	11944.66
514.297	12028.95
514.664	12066.46
515.032	12182.62
515.4	12203.41
515.767	12335.61
516.135	12377.87
516.502	12352.56
516.869	12530.86
517.237	12615.6
517.604	12599.78
517.972	12781.25
518.339	12803.62
518.706	12908.93
519.073	12970.62
519.44	13050.84
519.808	13237.73
520.175	13316.82
520.542	13428.91
520.909	13566.08
521.276	13576.25
521.643	13768.34
522.009	13848.34
522.376	13950.03
522.743	13997.49
523.11	14145.28
523.477	14303.24
523.843	14350.47
524.21	14592.05
524.577	14709.1
524.943	14813.96
525.31	14902.09
525.676	15084.24
526.043	15176.44
526.409	15321.07
526.776	15455.75
527.142	15530.78
527.508	15584.11
527.874	15732.13
528.241	15809.64
528.607	15828.85
528.973	16217.99
529.339	16212.79
529.705	16363.3
530.071	16490.07
530.437	16597.87
530.803	16762.38
531.169	16878.54
531.535	16871.99
531.901	16887.58
532.267	17079.89
532.632	17244.18
532.998	17286.89
533.364	17444.4
533.73	17499.99
534.095	17603.04
534.461	17695.69
534.826	17810.49
535.192	17827.67
535.557	18033.31
535.923	18057.94
536.288	18133.65
536.653	18159.64
537.019	18226.75
537.384	18361.44
537.749	18545.16
538.114	18486.18
538.479	18514.2
538.845	18620.41
539.21	18677.14
539.575	18782.9
539.94	18800.3
540.305	19022.89
540.67	19026.96
541.034	19019.73
541.399	19227.18
541.764	19256.33
542.129	19352.37
542.494	19287.97
542.858	19450.68
543.223	19428.53
543.587	19555.98
543.952	19597.34
544.316	19710.56
544.681	19725.24
545.045	19889.31
545.41	19891.34
545.774	19933.83
546.138	20016.99
546.503	20119.13
546.867	20064.22
547.231	20283.42
547.595	20305.12
547.959	20353.25
548.324	20478.44
548.688	20463.98
549.052	20581.27
549.416	20598.67
549.779	20596.63
550.143	20835.5
550.507	20824.42
550.871	20939
551.235	20979
551.599	21099.9
551.962	21199.56
552.326	21368.36
552.689	21364.97
553.053	21215.15
553.417	21429.83
553.78	21625.76
554.143	21686.32
554.507	21627.79
554.87	21887.9
555.234	21973.32
555.597	21982.36
555.96	22038.4
556.323	22161.34
556.686	22302.8
557.05	22460.54
557.413	22505.51
557.776	22455.57
558.139	22822.56
558.502	22861.88
558.865	22805.39
559.228	23094.65
559.59	23032.28
559.953	23181.88
560.316	23536.67
560.679	23434.07
561.041	23530.34
561.404	23771.01
561.767	23995.19
562.129	23886.04
562.492	24139.37
562.854	24194.96
563.217	24219.82
563.579	24411.67
563.941	24615.28
564.304	24774.83
564.666	24968.27
565.028	25075.84
565.39	25075.61
565.753	25222.73
566.115	25343.85
566.477	25575.03
566.839	25631.76
567.201	25834.24
567.563	25929.6
567.925	26084.62
568.287	26111.29
568.648	26367.56
569.01	26660.43
569.372	26807.09
569.734	26851.38
570.095	27085.73
570.457	27163.01
570.819	27292.28
571.18	27346.29
571.542	27646.39
571.903	27639.84
572.265	27870.79
572.626	28146.72
572.987	27980.62
573.349	28292.7
573.71	28453.83
574.071	28735.4
574.432	28748.06
574.794	29061.72
575.155	29116.41
575.516	29077.77
575.877	29181.49
576.238	29380.36
576.599	29495.61
576.96	29809.27
577.32	29740.35
577.681	29910.29
578.042	30184.86
578.403	30248.81
578.763	30314.8
579.124	30418.3
579.485	30711.62
579.845	30927.44
580.206	30878.4
580.566	30988.45
580.927	31247.43
581.287	31391.83
581.648	31429.8
582.008	31786.17
582.368	31838.37
582.728	32032.04
583.089	32136.9
583.449	32208.08
583.809	32605.13
584.169	32814.39
584.529	32921.28
584.889	33304.32
585.249	33253.02
585.609	33303.19
585.969	33862.05
586.329	34057.3
586.688	34470.85
587.048	34608.02
587.408	34986.09
587.768	35227.66
588.127	35482.34
588.487	35789.91
588.846	36464.01
589.206	36524.12
589.565	36964.11
589.925	37482.74
590.284	37704.66
590.643	38140.58
591.003	38619.89
591.362	39188.01
591.721	39507.1
592.08	39946.86
592.44	40583.68
592.799	40995.87
593.158	41416.43
593.517	41722.63
593.876	42320.58
594.235	42554.47
594.593	43097.74
594.952	43567.33
595.311	44012.74
595.67	44500.64
596.029	45238.7
596.387	45847.04
596.746	46304.88
597.104	46597.98
597.463	46919.78
597.822	47609.03
598.18	47898.29
598.538	48402.23
598.897	49051.25
599.255	49144.81
599.613	49946.37
599.972	50055.07
600.33	50625
600.688	50664.77
601.046	51271.99
601.404	51920.78
601.762	52110.16
602.12	52473.08
602.478	52857.93
602.836	53139.96
603.194	53237.58
603.552	53637.35
603.91	53868.3
604.268	54315.52
604.625	54520.49
604.983	54900.82
605.341	55002.06
605.698	55453.12
606.056	55823.96
606.413	55857.4
606.771	56282.7
607.128	56425.97
607.485	56568.12
607.843	56747.77
608.2	57030.7
608.557	57381.2
608.914	57504.59
609.272	57811.7
609.629	58103.67
609.986	58342.99
610.343	58376.88
610.7	58733.94
611.057	58838.34
611.414	58945
611.771	59212.12
612.127	59372.79
612.484	59528.72
612.841	59721.48
613.198	59787.24
613.554	59907.24
613.911	60189.26
614.267	60270.17
614.624	60439.2
614.98	60554.23
615.337	60826.54
615.693	60912.64
616.05	60992.18
616.406	61180.65
616.762	61269.91
617.118	61344.71
617.475	61374.32
617.831	61657.47
618.187	61758.49
618.543	61849.79
618.899	62062.89
619.255	62079.61
619.611	62153.73
619.967	62320.73
620.323	62441.86
620.678	62430.34
621.034	62411.35
621.39	62564.8
621.746	62611.57
622.101	62915.52
622.457	62842.98
622.812	63014.05
623.168	63095.63
623.523	63078.23
623.879	63159.36
624.234	63155.51
624.589	63287.04
624.945	63339.92
625.3	63402.29
625.655	63460.82
626.01	63480.25
626.365	63501.72
626.72	63507.6
627.075	63524.09
627.43	63510.08
627.785	63524.09
628.14	63524.09
628.495	63524.09
628.85	63524.09
629.205	63524.09
629.559	63524.09
629.914	63524.09
630.269	63524.09
630.623	63524.09
630.978	63524.09
631.332	63524.09
631.687	63524.09
632.041	63524.09
632.396	63524.09
632.75	63524.09
633.104	63524.09
633.459	63524.09
633.813	63524.09
634.167	63524.09
634.521	63524.09
634.875	63524.09
635.229	63524.09
635.583	63524.09
635.937	63524.09
636.291	63524.09
636.645	63524.09
636.999	63524.09
637.352	63524.09
637.706	63524.09
638.06	63524.09
638.413	63524.09
638.767	63524.09
639.121	63524.09
639.474	63517.31
639.828	63524.09
640.181	63524.09
640.534	63524.09
640.888	63524.09
641.241	63508.27
641.594	63520.02
641.947	63513.25
642.301	63504.21
642.654	63524.09
643.007	63497.88
643.36	63523.19
643.713	63482.96
644.066	63524.09
644.419	63424.43
644.771	63276.64
645.124	63023.09
645.477	63045.46
645.83	62942.86
646.182	62881.17
646.535	62849.76
646.888	62950.32
647.24	62862.19
647.593	62976.76
647.945	62846.82
648.298	62780.38
648.65	62702.65
649.002	62612.25
649.355	62535.19
649.707	62495.87
650.059	62483.89
650.411	62804.56
650.763	62929.53
651.115	63202.97
651.467	63112.58
651.819	63106.02
652.171	63064.22
652.523	62982.86
652.875	63028.51
653.227	62934.5
653.578	63089.08
653.93	62991.23
654.282	62875.97
654.633	62822.42
654.985	62880.04
655.337	62896.31
655.688	62831.23
656.039	62922.07
656.391	62715.75
656.742	62745.81
657.094	62763.21
657.445	62770.44
657.796	62776.09
658.147	62691.12
658.498	62767.28
658.849	62814.05
659.2	62685.47
659.551	62677.34
659.902	62805.47
660.253	62685.7
660.604	62715.75
660.955	62602.53
661.306	62713.27
661.656	62638.47
662.007	62680.05
662.358	62641.86
662.708	62673.95
663.059	62578.13
663.409	62531.35
663.76	62621.97
664.11	62600.95
664.461	62665.81
664.811	62614.96
665.161	62621.52
665.511	62543.33
665.862	62604.12
666.212	62571.8
666.562	62589.88
666.912	62568.86
667.262	62455.65
667.612	62491.8
667.962	62559.37
668.312	62474.18
668.662	62654.06
669.011	62562.76
669.361	62519.83
669.711	62478.92
670.06	62483.67
670.41	62430.11
670.76	62416.55
671.109	62547.62
671.459	62419.94
671.808	62437.79
672.157	62441.41
672.507	62314.86
672.856	62360.51
673.205	62386.04
673.554	62393.27
673.904	62347.17
674.253	62458.36
674.602	62385.14
674.951	62040.74
675.3	61996
675.649	62293.39
675.998	62352.15
676.346	62355.31
676.695	62415.65
677.044	62233.73
677.393	62248.87
677.741	62343.11
678.09	62195.99
678.438	62204.35
678.787	62283.67
679.135	62251.58
679.484	62112.6
679.832	62201.19
680.181	62080.29
680.529	62168.65
680.877	62103.34
681.225	62068.99
681.573	62224.47
681.922	62071.48
682.27	62034.87
682.618	62025.37
682.966	61991.03
683.314	61987.41
683.661	61962.1
684.009	61821.09
684.357	61825.83
684.705	61779.96
685.053	61848.43
685.4	61690.24
685.748	61717.36
686.095	61679.4
686.443	61576.35
686.79	61511.94
687.138	61693.18
687.485	61605.27
687.832	61473.07
688.18	61497.03
688.527	61401.44
688.874	61456.8
689.221	61427.2
689.568	61340.42
689.915	61245.51
690.262	61249.58
690.609	61247.54
690.956	61146.3
691.303	61185.62
691.65	61021.11
691.997	61061.11
692.344	60935.69
692.69	60948.57
693.037	60957.38
693.383	60739.76
693.73	60832.64
694.077	60692.08
694.423	60737.95
694.769	60622.7
695.116	60667.22
695.462	60501.35
695.808	60440.78
696.155	60492.31
696.501	60309.71
696.847	60424.29
697.193	60190.39
697.539	60234.46
697.885	60079.21
698.231	60043.73
698.577	60008.03
698.923	60001.25
699.269	59834.25
699.614	59736.4
699.96	59757.86
700.306	59766.68
700.651	59626.57
700.997	59540.69
701.342	59488.72
701.688	59408.04
702.033	59380.02
702.379	59416.86
702.724	59265.67
703.069	59244.66
703.415	59009.18
703.76	59062.74
704.105	59059.58
704.45	58971.67
704.795	58914.04
705.14	58767.38
705.485	58800.37
705.83	58628.18
706.175	58780.71
706.52	58636.31
706.865	58551.79
707.209	58508.18
707.554	58410.33
707.899	58445.58
708.243	58306.6
708.588	58262.99
708.932	58148.87
709.277	58244.46
709.621	58117.91
709.966	57980.28
710.31	57946.84
710.654	57830.46
710.998	57888.53
711.342	57866.39
711.687	57717.92
712.031	57715.88
712.375	57582.1
712.719	57589.11
713.063	57501.2
713.407	57647.41
713.75	57491.03
714.094	57445.16
714.438	57363.8
714.782	57400.86
715.125	57182.56
715.469	57303.69
715.812	57019.86
716.156	57051.95
716.499	57083.36
716.843	57044.94
717.186	56915
717.53	57095.79
717.873	57057.14
718.216	56911.38
718.559	56802.91
718.902	56642.92
719.246	56713.88
719.589	56628
719.932	56530.38
720.275	56531.28
720.617	56568.8
720.96	56371.06
721.303	56474.79
721.646	56464.39
721.989	56290.16
722.331	56330.84
722.674	56155.7
723.016	56189.14
723.359	56096.04
723.701	56135.36
724.044	56070.5
724.386	55892.43
724.729	55991.18
725.071	55956.16
725.413	55955.03
725.755	55866.44
726.097	55767.01
726.439	55646.11
726.782	55637.75
727.124	55735.37
727.465	55668.03
727.807	55484.98
728.149	55614.7
728.491	55477.07
728.833	55533.79
729.175	55453.8
729.516	55357.53
729.858	55325.21
730.199	55398.66
730.541	55366.79
730.882	55227.59
731.224	55169.51
731.565	55146.23
731.906	55202.28
732.248	55195.72
732.589	55079.57
732.93	54997.54
733.271	54949.85
733.612	54952.79
733.953	55024.65
734.294	54899.69
734.635	54838.22
734.976	54921.61
735.317	54736.07
735.658	54704.89
735.999	54704.66
736.339	54718.45
736.68	54682.29
737.021	54700.6
737.361	54501.28
737.702	54739.24
738.042	54619.24
738.383	54641.61
738.723	54592.8
739.063	54472.13
739.404	54476.19
739.744	54475.74
740.084	54390.1
740.424	54422.41
740.764	54314.84
741.104	54340.38
741.444	54181.51
741.784	54058.58
742.124	54221.51
742.464	54121.85
742.804	54000.73
743.143	53978.58
743.483	54144.45
743.823	53932.93
744.162	53910.79
744.502	53983.55
744.841	53872.14
745.181	53941.07
745.52	53773.84
745.86	53853.61
746.199	53794.63
746.538	53754.63
746.877	53753.95
747.216	53667.63
747.556	53602.32
747.895	53655.43
748.234	53583.56
748.573	53500.85
748.911	53393.74
749.25	53356.22
749.589	53259.5
749.928	53332.72
750.267	53304.25
750.605	53202.78
750.944	53120.3
751.283	53083.69
751.621	53163.23
751.96	52866.75
752.298	52922.11
752.636	52910.13
752.975	52767.31
753.313	52701.33
753.651	52900.19
753.989	52658.16
754.327	52656.81
754.666	52476.25
755.004	52497.94
755.342	52540.43
