Data from 485_FLMS001491_003.txt Node
Date: Thu Apr 19 16:32:12 BST 2018
User: hsy
Spectrometer: FLMS00149
Trigger mode: 0
Integration Time (sec): 1.000000E-2
Scans to average: 10
Electric dark correction enabled: true
Nonlinearity correction enabled: false
Boxcar width: 0
XAxis mode: Wavelengths
Number of Pixels in Spectrum: 2048
>>>>>Begin Spectral Data<<<<<
341.393	0.44
341.776	0.44
342.16	0.44
342.543	-86.34
342.927	-99.9
343.31	-74.59
343.693	-79.33
344.077	-87.7
344.46	-73.23
344.843	-55.38
345.226	-33.69
345.61	-34.59
345.993	-18.32
346.376	-22.61
346.759	15.35
347.142	37.27
347.525	61.23
347.908	51.06
348.291	94.45
348.674	103.49
349.057	116.59
349.44	105.75
349.823	144.16
350.206	172.41
350.588	230.26
350.971	239.75
351.354	266.65
351.737	268.91
352.119	291.96
352.502	298.06
352.884	311.16
353.267	312.52
353.65	335.34
354.032	347.55
354.414	345.51
354.797	367.43
355.179	356.13
355.562	380.77
355.944	342.58
356.326	366.3
356.709	381.44
357.091	386.87
357.473	391.16
357.855	407.88
358.238	381.67
358.62	370.15
359.002	400.88
359.384	387.77
359.766	388.68
360.148	381.44
360.53	384.61
360.912	406.75
361.294	361.56
361.676	379.64
362.057	378.73
362.439	380.54
362.821	383.48
363.203	386.19
363.584	384.83
363.966	382.12
364.348	350.03
364.729	378.28
365.111	359.75
365.493	392.07
365.874	374.44
366.256	394.55
366.637	366.08
367.019	390.94
367.4	366.98
367.781	392.74
368.163	384.38
368.544	401.11
368.925	357.72
369.306	373.08
369.688	376.25
370.069	376.25
370.45	401.56
370.831	393.42
371.212	390.94
371.593	380.54
371.974	382.35
372.355	374.89
372.736	384.83
373.117	396.81
373.498	388.22
373.879	376.25
374.26	374.21
374.641	352.74
375.021	363.82
375.402	374.67
375.783	430.03
376.163	408.79
376.544	416.25
376.925	386.42
377.305	381.44
377.686	398.39
378.066	417.38
378.447	398.39
378.827	401.11
379.208	393.87
379.588	391.84
379.968	413.99
380.349	421.22
380.729	425.74
381.109	423.48
381.489	429.58
381.87	425.74
382.25	428.22
382.63	440.88
383.01	416.25
383.39	428
383.77	431.39
384.15	444.04
384.53	436.13
384.91	430.93
385.29	445.62
385.67	473.19
386.049	455.57
386.429	436.58
386.809	427.09
387.189	472.52
387.568	467.54
387.948	479.52
388.328	474.1
388.707	475.45
389.087	490.14
389.466	494.21
389.846	494.89
390.225	504.61
390.605	491.72
390.984	512.74
391.363	491.95
391.743	504.83
392.122	508.22
392.501	509.35
392.881	533.08
393.26	487.88
393.639	498.5
394.018	526.75
394.397	529.24
394.776	515.9
395.155	521.78
395.534	537.82
395.913	529.69
396.292	540.76
396.671	537.37
397.05	536.92
397.429	526.98
397.808	532.4
398.186	527.66
398.565	551.61
398.944	549.12
399.323	538.28
399.701	532.18
400.08	549.35
400.458	568.33
400.837	551.38
401.215	566.75
401.594	584.15
401.972	585.06
402.351	566.98
402.729	592.96
403.107	578.95
403.486	599.97
403.864	592.74
404.242	592.96
404.62	607.2
404.999	613.08
405.377	602.23
405.755	624.15
406.133	632.96
406.511	631.38
406.889	629.12
407.267	634.32
407.645	636.35
408.023	626.18
408.401	649.46
408.779	662.57
409.156	676.58
409.534	638.61
409.912	682.68
410.29	696.92
410.667	711.83
411.045	710.02
411.422	708.22
411.8	724.71
412.178	724.94
412.555	736.46
412.933	743.7
413.31	751.38
413.687	760.19
414.065	757.93
414.442	754.99
414.819	759.29
415.197	754.99
415.574	770.81
415.951	803.81
416.328	805.84
416.705	786.41
417.082	820.08
417.46	811.72
417.837	802
418.214	804.48
418.591	853.97
418.967	850.81
419.344	843.35
419.721	858.95
420.098	841.09
420.475	847.65
420.852	856.91
421.228	876.12
421.605	865.5
421.982	889.91
422.358	903.01
422.735	876.57
423.111	910.92
423.488	895.78
423.864	919.96
424.241	915.67
424.617	926.06
424.994	909.34
425.37	941.2
425.746	943.01
426.123	950.92
426.499	942.33
426.875	979.85
427.251	984.59
427.627	985.95
428.003	1018.49
428.379	1020.52
428.756	1049.9
429.132	1036.79
429.507	1049
429.883	1072.05
430.259	1084.03
430.635	1077.02
431.011	1074.31
431.387	1106.85
431.763	1119.28
432.138	1105.27
432.514	1142.55
432.89	1164.48
433.265	1188.66
433.641	1185.49
434.016	1190.92
434.392	1177.13
434.767	1236.56
435.143	1210.35
435.518	1214.87
435.894	1235.21
436.269	1263.68
436.644	1281.76
437.02	1257.81
437.395	1279.95
437.77	1303.68
438.145	1324.47
438.52	1358.59
438.895	1339.39
439.271	1331.25
439.646	1387.97
440.021	1368.09
440.395	1375.32
440.77	1378.71
441.145	1383.23
441.52	1399.27
441.895	1389.1
442.27	1389.78
442.645	1400.18
443.019	1465.48
443.394	1406.73
443.769	1454.41
444.143	1437.91
444.518	1479.95
444.892	1425.71
445.267	1443.34
445.641	1500.74
446.016	1484.24
446.39	1468.42
446.764	1486.73
447.139	1491.7
447.513	1531.47
447.887	1535.09
448.262	1543.9
448.636	1574.63
449.01	1579.15
449.384	1582.32
449.758	1582.54
450.132	1614.18
450.506	1598.59
450.88	1634.97
451.254	1620.51
451.628	1643.78
452.002	1690.56
452.376	1664.35
452.75	1689.21
453.123	1711.58
453.497	1726.72
453.871	1721.75
454.244	1755.87
454.618	1796.55
454.992	1801.29
455.365	1768.53
455.739	1841.29
456.112	1868.19
456.486	1884.68
456.859	1903.21
457.232	1929.43
457.606	1965.81
457.979	1943.44
458.352	2046.03
458.725	1998.8
459.099	2042.64
459.472	2045.81
459.845	2084.22
460.218	2101.4
460.591	2115.41
460.964	2119.7
461.337	2173.04
461.71	2185.92
462.083	2195.86
462.456	2222.53
462.829	2237.22
463.201	2274.05
463.574	2312.92
463.947	2319.25
464.32	2348.62
464.692	2342.3
465.065	2409.19
465.438	2418.45
465.81	2462.75
466.183	2436.76
466.555	2486.02
466.928	2513.59
467.3	2530.09
467.672	2575.74
468.045	2617.54
468.417	2587.71
468.789	2631.1
469.161	2663.87
469.534	2671.1
469.906	2697.99
470.278	2751.55
470.65	2793.13
471.022	2813.02
471.394	2864.77
471.766	2896.86
472.138	2912.9
472.51	2986.35
472.882	3033.35
473.253	3032.9
473.625	3090.07
473.997	3151.54
474.369	3161.26
474.74	3195.38
475.112	3230.64
475.484	3243.29
475.855	3303.4
476.227	3395.83
476.598	3449.84
476.97	3467.47
477.341	3547.92
477.713	3588.14
478.084	3666.56
478.455	3730.28
478.827	3795.37
479.198	3825.42
479.569	3867.45
479.94	3947.45
480.311	4013.67
480.682	4081.01
481.053	4188.12
481.424	4231.74
481.795	4265.64
482.166	4346.09
482.537	4396.03
482.908	4471.96
483.279	4591.73
483.65	4620.88
484.021	4704.27
484.391	4792.18
484.762	4824.94
485.133	4913.53
485.503	5012.28
485.874	5059.51
486.244	5141.09
486.615	5195.33
486.985	5267.64
487.356	5428.54
487.726	5420.86
488.097	5529.78
488.467	5595.77
488.837	5698.37
489.207	5776.56
489.578	5892.26
489.948	5983.11
490.318	6041.86
490.688	6073.95
491.058	6236.66
491.428	6251.12
491.798	6399.82
492.168	6426.26
492.538	6497.89
492.908	6588.29
493.278	6661.28
493.648	6726.81
494.017	6839.35
494.387	6897.88
494.757	6952.8
495.126	7038.44
495.496	7087.48
495.866	7159.8
496.235	7260.59
496.605	7346.46
496.974	7388.49
497.344	7470.3
497.713	7602.72
498.082	7609.05
498.452	7680.46
498.821	7703.96
499.19	7707.13
499.559	7866.22
499.928	7902.38
500.298	7948.7
500.667	8021.7
501.036	7997.29
501.405	8158.64
501.774	8184.63
502.143	8235.7
502.512	8317.96
502.88	8380.1
503.249	8369.48
503.618	8483.83
503.987	8471.85
504.356	8485.64
504.724	8641.79
505.093	8630.04
505.462	8715.46
505.83	8708.68
506.199	8863.26
506.567	8888.11
506.936	8901.67
507.304	9000.65
507.672	9107.32
508.041	9133.08
508.409	9195.68
508.777	9266.41
509.145	9371.72
509.514	9399.06
509.882	9441.55
510.25	9423.47
510.618	9589.79
510.986	9552.73
511.354	9637.02
511.722	9764.93
512.09	9845.38
512.458	9773.97
512.826	9844.7
513.193	9877.92
513.561	9944.13
513.929	10003.11
514.297	10107.97
514.664	10168.53
515.032	10224.12
515.4	10339.83
515.767	10414.4
516.135	10432.03
516.502	10406.04
516.869	10531.46
517.237	10580.27
517.604	10553.61
517.972	10757.67
518.339	10836.31
518.706	10876.76
519.073	10907.95
519.44	10998.11
519.808	11093.93
520.175	11172.12
520.542	11341.83
520.909	11301.38
521.276	11429.06
521.643	11522.39
522.009	11635.84
522.376	11648.27
522.743	11708.15
523.11	11897.3
523.477	12062.27
523.843	12108.37
524.21	12206.9
524.577	12326.44
524.943	12400.34
525.31	12417.51
525.676	12669.94
526.043	12701.57
526.409	12770.72
526.776	12921
527.142	12971.85
527.508	13124.84
527.874	13200.99
528.241	13304.49
528.607	13365.51
528.973	13546.52
529.339	13525.51
529.705	13739.74
530.071	13916.23
530.437	13927.08
530.803	14000.75
531.169	14153.29
531.535	14106.51
531.901	14201.65
532.267	14318.93
532.632	14386.95
532.998	14493.39
533.364	14613.61
533.73	14640.28
534.095	14810.9
534.461	14870.1
534.826	14945.13
535.192	14962.08
535.557	15105.13
535.923	14967.28
536.288	15187.61
536.653	15257.89
537.019	15243.88
537.384	15339.92
537.749	15476.42
538.114	15560.03
538.479	15551.67
538.845	15636.18
539.21	15612.23
539.575	15677.99
539.94	15778.55
540.305	15857.65
540.67	15878.89
541.034	15937.19
541.399	16041.82
541.764	16089.05
542.129	16121.6
542.494	16181.26
542.858	16216.51
543.223	16252.67
543.587	16367.24
543.952	16386.22
544.316	16489.27
544.681	16437.75
545.045	16634.35
545.41	16695.82
545.774	16658.98
546.138	16753.44
546.503	16790.5
546.867	16858.75
547.231	16942.82
547.595	16964.96
547.959	17062.81
548.324	17107.56
548.688	17122.7
549.052	17215.58
549.416	17226.65
549.779	17371.51
550.143	17359.76
550.507	17543.48
550.871	17486.76
551.235	17465.97
551.599	17629.35
551.962	17779.86
552.326	17717.94
552.689	17850.14
553.053	17724.04
553.417	17905.73
553.78	18119.28
554.143	18074.09
554.507	18195.67
554.87	18313.4
555.234	18443.57
555.597	18294.42
555.96	18388.65
556.323	18525.6
556.686	18526.28
557.05	18693.51
557.413	18726.73
557.776	18755.65
558.139	18952.93
558.502	19041.52
558.865	19042.87
559.228	19188.86
559.59	19340.27
559.953	19333.26
560.316	19427.72
560.679	19600.83
561.041	19629.75
561.404	19836.75
561.767	19872.91
562.129	19919.01
562.492	20081.72
562.854	20212.79
563.217	20163.07
563.579	20325.78
563.941	20477.19
564.304	20595.6
564.666	20844.41
565.028	20776.39
565.39	20982.71
565.753	21094.57
566.115	21102.03
566.477	21181.8
566.839	21363.94
567.201	21604.16
567.563	21614.11
567.925	21764.84
568.287	21881.9
568.648	21937.94
569.01	22147.88
569.372	22274.88
569.734	22374.76
570.095	22477.36
570.457	22704.7
570.819	22701.99
571.18	22797.8
571.542	23071.7
571.903	23034.18
572.265	23222.2
572.626	23329.54
572.987	23455.41
573.349	23586.26
573.71	23739.47
574.071	23880.94
574.432	23996.64
574.794	24192.57
575.155	24127.94
575.516	24200.03
575.877	24380.14
576.238	24493.35
576.599	24657.87
576.96	24750.07
577.32	24778.54
577.681	24914.13
578.042	25190.51
578.403	25195.48
578.763	25284.52
579.124	25425.08
579.485	25691.74
579.845	25803.38
580.206	25761.79
580.566	25985.29
580.927	26047.44
581.287	26266.87
581.648	26254.44
582.008	26669.57
582.368	26613.3
582.728	26845.38
583.089	27066.84
583.449	27145.71
583.809	27472.03
584.169	27690.11
584.529	27648.75
584.889	28206.7
585.249	28248.06
585.609	28191.56
585.969	28796.06
586.329	28837.19
586.688	29346.56
587.048	29453
587.408	29703.84
587.768	30055.01
588.127	30410.71
588.487	30702.46
588.846	31339.95
589.206	31332.5
589.565	31807.96
589.925	32357.55
590.284	32580.37
590.643	33133.58
591.003	33400.92
591.362	34093.33
591.721	34497.16
592.08	34892.4
592.44	35441.09
592.799	35822.32
593.158	36314.96
593.517	36703.88
593.876	37285.11
594.235	37653.23
594.593	38165.31
594.952	38836.48
595.311	39123.93
595.67	39787.41
596.029	40497.23
596.387	41049.3
596.746	41588.72
597.104	42016.96
597.463	42543.27
597.822	43244.95
598.18	43560.65
598.538	44004.48
598.897	44833.61
599.255	44960.16
599.613	46079
599.972	46165.33
600.33	46720.34
600.688	47058.86
601.046	47725.74
601.404	48313.07
601.762	48645.49
602.12	49178.58
602.478	49568.85
602.836	50123.41
603.194	50173.81
603.552	50555.27
603.91	50878.2
604.268	51386.88
604.625	51658.74
604.983	52169.01
605.341	52295.56
605.698	52815.32
606.056	53223.45
606.413	53326.27
606.771	53729.42
607.128	54006.25
607.485	54212.12
607.843	54389.52
608.2	54721.71
608.557	55031.99
608.914	55206.22
609.272	55536.83
609.629	55828.57
609.986	56044.61
610.343	56254.78
610.7	56586.75
611.057	56640.98
611.414	56898.83
611.771	57119.61
612.127	57326.16
612.484	57428.98
612.841	57734.74
613.198	57778.81
613.554	57963.43
613.911	58269.87
614.267	58365
614.624	58491.1
614.98	58662.62
615.337	58938.78
615.693	59020.35
616.05	59122.73
616.406	59361.36
616.762	59436.84
617.118	59560.45
617.475	59660.34
617.831	59846.77
618.187	59963.61
618.543	60108.24
618.899	60360.88
619.255	60398.62
619.611	60448.34
619.967	60570.82
620.323	60767.43
620.678	60751.16
621.034	60832.28
621.39	60907.76
621.746	60948.67
622.101	61273.18
622.457	61105.27
622.812	61364.47
623.168	61447.41
623.523	61481.08
623.879	61567.86
624.234	61492.38
624.589	61688.31
624.945	61710.91
625.3	61762.88
625.655	61888.3
626.01	61882.88
626.365	61919.04
626.72	61937.79
627.075	61936.44
627.43	62020.5
627.785	62060.73
628.14	62142.76
628.495	62174.85
628.85	62205.81
629.205	62142.08
629.559	62337.1
629.914	62240.16
630.269	62190.67
630.623	62195.19
630.978	62166.49
631.332	62342.75
631.687	62341.62
632.041	62316.54
632.396	62367.16
632.75	62306.6
633.104	62335.52
633.459	62248.74
633.813	62296.65
634.167	62269.54
634.521	62366.71
634.875	62375.75
635.229	62326.03
635.583	62280.16
635.937	62246.48
636.291	62234.28
636.645	62258.91
636.999	62212.59
637.352	62258.46
637.706	62107.05
638.06	62257.78
638.413	62163.1
638.767	62156.77
639.121	62185.02
639.474	62091.23
639.828	62079.94
640.181	62083.55
640.534	62212.14
640.888	62049.65
641.241	61965.59
641.594	62039.26
641.947	62092.59
642.301	61950.22
642.654	62055.53
643.007	61980.5
643.36	62024.57
643.713	61962.42
644.066	62052.82
644.419	61881.97
644.771	61693.5
645.124	61460.52
645.477	61474.75
645.83	61359.05
646.182	61337.81
646.535	61264.59
646.888	61336
647.24	61258.26
647.593	61373.97
647.945	61258.04
648.298	61136.46
648.65	61082.9
649.002	61016.01
649.355	60962
649.707	60894.43
650.059	60868.22
650.411	61226.62
650.763	61290.8
651.115	61664.35
651.467	61547.52
651.819	61592.72
652.171	61451.48
652.523	61423.23
652.875	61423.91
653.227	61388.43
653.578	61528.54
653.93	61441.08
654.282	61358.15
654.633	61329.67
654.985	61361.31
655.337	61363.12
655.688	61337.58
656.039	61435.66
656.391	61205.38
656.742	61255.32
657.094	61244.25
657.445	61249.22
657.796	61307.07
658.147	61175.78
658.498	61277.24
658.849	61214.65
659.2	61199.96
659.551	61168.77
659.902	61279.96
660.253	61114.54
660.604	61171.26
660.955	61081.77
661.306	61183.69
661.656	61080.64
662.007	61106.85
662.358	61109.11
662.708	61102.56
663.059	61091.94
663.409	60923.58
663.76	61056.91
664.11	61039.51
664.461	61091.94
664.811	61074.99
665.161	61067.98
665.511	60962.45
665.862	60964.71
666.212	61000.19
666.562	61005.39
666.912	60930.36
667.262	60941.43
667.612	60956.58
667.962	60915.22
668.312	60905.05
668.662	61024.82
669.011	60930.59
669.361	60916.8
669.711	60965.16
670.06	60917.48
670.41	60846.75
670.76	60827.54
671.109	60969.68
671.459	60857.82
671.808	60914.77
672.157	60874.32
672.507	60777.82
672.856	60762.46
673.205	60817.82
673.554	60924.26
673.904	60771.5
674.253	60997.48
674.602	60815.79
674.951	60498.96
675.3	60353.88
675.649	60841.78
675.998	60778.5
676.346	60816.69
676.695	60855.56
677.044	60665.74
677.393	60703.25
677.741	60718.62
678.09	60728.11
678.438	60583.25
678.787	60720.65
679.135	60711.61
679.484	60546.42
679.832	60696.47
680.181	60590.71
680.529	60523.37
680.877	60474.55
681.225	60494.44
681.573	60678.84
681.922	60499.64
682.27	60502.58
682.618	60437.49
682.966	60446.53
683.314	60433.65
683.661	60355.01
684.009	60313.2
684.357	60221.68
684.705	60223.04
685.053	60265.75
685.4	60157.73
685.748	60070.5
686.095	60207.67
686.443	59986.66
686.79	59999.76
687.138	60107.33
687.485	60077.5
687.832	59927.9
688.18	60004.96
688.527	59811.52
688.874	59844.97
689.221	59838.19
689.568	59750.28
689.915	59618.53
690.262	59725.65
690.609	59635.03
690.956	59536.5
691.303	59576.27
691.65	59429.61
691.997	59400.68
692.344	59307.13
692.69	59276.85
693.037	59303.29
693.383	59080.47
693.73	59192.55
694.077	59063.74
694.423	59062.39
694.769	59028.72
695.116	59030.98
695.462	58827.14
695.808	58779.01
696.155	58918.66
696.501	58678.67
696.847	58722.74
697.193	58573.36
697.539	58588.05
697.885	58460.6
698.231	58375.63
698.577	58391.67
698.923	58379.92
699.269	58189.64
699.614	58163.43
699.96	58022.42
700.306	58131.56
700.651	57936.09
700.997	57945.58
701.342	57898.12
701.688	57848.63
702.033	57804.34
702.379	57772.03
702.724	57659.49
703.069	57703.33
703.415	57330.46
703.76	57342.66
704.105	57370.23
704.45	57320.51
704.795	57214.98
705.14	57112.61
705.485	57170.23
705.83	56995.55
706.175	57107.64
706.52	56980.63
706.865	56903.8
707.209	56809.57
707.554	56856.57
707.899	56782.22
708.243	56712.84
708.588	56671.72
708.932	56455
709.277	56593.3
709.621	56450.93
709.966	56243.25
710.31	56307.21
710.654	56175.23
710.998	56195.8
711.342	56165.06
711.687	56062.01
712.031	56076.48
712.375	55932.07
712.719	55869.93
713.063	55782.02
713.407	55915.35
713.75	55765.53
714.094	55783.83
714.438	55618.64
714.782	55694.79
715.125	55469.71
715.469	55651.63
715.812	55412.09
716.156	55294.13
716.499	55372.77
716.843	55335.03
717.186	55140.23
717.53	55344.52
717.873	55253
718.216	55208.7
718.559	55082.15
718.902	54894.36
719.246	54936.85
719.589	54883.74
719.932	54757.42
720.275	54747.25
720.617	54780.47
720.96	54718.32
721.303	54626.57
721.646	54739.11
721.989	54496.18
722.331	54543.18
722.674	54503.64
723.016	54517.65
723.359	54279.69
723.701	54457.76
724.044	54284.89
724.386	54107.94
724.729	54229.52
725.071	54202.4
725.413	54098.9
725.755	54006.25
726.097	54038.34
726.439	53929.87
726.782	53815.52
727.124	53981.17
727.465	53891.68
727.807	53790.66
728.149	53809.64
728.491	53724.22
728.833	53741.17
729.175	53657.33
729.516	53661.4
729.858	53549.76
730.199	53663.43
730.541	53574.17
730.882	53436.09
731.224	53392.03
731.565	53269.32
731.906	53322.65
732.248	53355.19
732.589	53213.05
732.93	53143.67
733.271	53144.13
733.612	53189.77
733.953	53290.56
734.294	53138.7
734.635	52949.55
734.976	53059.83
735.317	52945.71
735.658	52969.89
735.999	52870.46
736.339	52851.03
736.68	52897.35
737.021	52745.04
737.361	52736.68
737.702	52890.8
738.042	52652.84
738.383	52750.69
738.723	52669.79
739.063	52554.08
739.404	52702.55
739.744	52517.48
740.084	52556.8
740.424	52590.92
740.764	52395.22
741.104	52463.69
741.444	52322
741.784	52202.23
742.124	52277.93
742.464	52322.68
742.804	52102.8
743.143	52125.85
743.483	52109.12
743.823	51981.9
744.162	51930.82
744.502	51984.16
744.841	51827.55
745.181	52029.8
745.52	51749.36
745.86	51721.34
746.199	51754.78
746.538	51789.36
746.877	51795.69
747.216	51748.46
747.556	51560.44
747.895	51616.93
748.234	51519.54
748.573	51406.77
748.911	51411.74
749.25	51299.65
749.589	51111.64
749.928	51281.35
750.267	51243.61
750.605	51105.08
750.944	51102.82
751.283	50918.87
751.621	51154.8
751.96	50900.79
752.298	50888.14
752.636	50934.92
752.975	50874.58
753.313	50689.05
753.651	50788.71
753.989	50559.11
754.327	50621.03
754.666	50334.26
755.004	50473.69
755.342	50396.85
755.679	50415.38
