Data from 485_FLMS001491_010.txt Node
Date: Thu Apr 19 16:32:28 BST 2018
User: hsy
Spectrometer: FLMS00149
Trigger mode: 0
Integration Time (sec): 1.000000E-2
Scans to average: 10
Electric dark correction enabled: true
Nonlinearity correction enabled: false
Boxcar width: 0
XAxis mode: Wavelengths
Number of Pixels in Spectrum: 2048
>>>>>Begin Spectral Data<<<<<
341.393	6.82
341.776	6.82
342.16	6.82
342.543	-51.48
342.927	-60.3
343.31	-80.41
343.693	-69.33
344.077	-61.2
344.46	-46.28
344.843	-53.29
345.226	-56.91
345.61	-32.95
345.993	-18.94
346.376	-5.83
346.759	-9.45
347.142	13.15
347.525	48.85
347.908	73.26
348.291	90.89
348.674	95.18
349.057	113.26
349.44	139.7
349.823	149.87
350.206	179.25
350.588	244.1
350.971	275.06
351.354	275.74
351.737	302.41
352.119	321.84
352.502	316.64
352.884	337.21
353.267	341.28
353.65	344.89
354.032	328.62
354.414	366.81
354.797	357.32
355.179	391.22
355.562	386.7
355.944	386.25
356.326	388.96
356.709	386.25
357.091	389.18
357.473	401.39
357.855	398.9
358.238	389.41
358.62	420.14
359.002	412.46
359.384	396.19
359.766	395.51
360.148	388.96
360.53	394.61
360.912	398.68
361.294	415.17
361.676	398.45
362.057	422.63
362.439	377.21
362.821	386.02
363.203	389.18
363.584	396.87
363.966	387.6
364.348	406.13
364.729	398
365.111	402.52
365.493	384.21
365.874	394.61
366.256	378.56
366.637	397.32
367.019	388.73
367.4	390.31
367.781	381.73
368.163	388.73
368.544	407.49
368.925	390.99
369.306	385.79
369.688	398.9
370.069	389.18
370.45	393.03
370.831	381.28
371.212	395.96
371.593	413.36
371.974	383.76
372.355	414.49
372.736	414.49
373.117	423.08
373.498	416.98
373.879	415.4
374.26	399.58
374.641	398.45
375.021	413.36
375.402	401.61
375.783	415.62
376.163	433.03
376.544	433.25
376.925	435.06
377.305	435.29
377.686	434.38
378.066	411.56
378.447	433.25
378.827	424.21
379.208	437.77
379.588	445.45
379.968	438.67
380.349	433.93
380.729	447.26
381.109	435.29
381.489	460.82
381.87	454.72
382.25	454.95
382.63	450.88
383.01	452.69
383.39	465.57
383.77	467.83
384.15	492.01
384.53	477.32
384.91	476.19
385.29	446.81
385.67	461.73
386.049	491.33
386.429	490.2
386.809	484.1
387.189	495.85
387.568	505.57
387.948	488.39
388.328	508.73
388.707	498.11
389.087	516.41
389.466	524.77
389.846	510.76
390.225	541.05
390.605	544.66
390.984	529.97
391.363	519.8
391.743	529.29
392.122	532.46
392.501	560.71
392.881	548.95
393.26	548.73
393.639	568.84
394.018	580.37
394.397	551.44
394.776	582.4
395.155	556.41
395.534	576.52
395.913	565.68
396.292	577.65
396.671	550.08
397.05	573.13
397.429	599.12
397.808	575.39
398.186	596.86
398.565	578.56
398.944	617.2
399.323	585.34
399.701	612.68
400.08	609.97
400.458	616.52
400.837	610.2
401.215	626.92
401.594	602.74
401.972	635.28
402.351	647.71
402.729	644.77
403.107	611.33
403.486	651.1
403.864	648.61
404.242	663.3
404.62	655.62
404.999	693.36
405.377	683.87
405.755	677.99
406.133	693.13
406.511	691.1
406.889	711.44
407.267	688.84
407.645	705.11
408.023	711.89
408.401	709.85
408.779	731.1
409.156	735.84
409.534	746.24
409.912	762.51
410.29	774.71
410.667	761.38
411.045	774.94
411.422	800.25
411.8	805.44
412.178	809.06
412.555	785.33
412.933	817.87
413.31	835.05
413.687	847.93
414.065	857.87
414.442	842.05
414.819	866.23
415.197	856.74
415.574	843.41
415.951	869.4
416.328	889.28
416.705	875.5
417.082	897.65
417.46	899.23
417.837	913.01
418.214	937.87
418.591	933.13
418.967	917.53
419.344	945.1
419.721	949.62
420.098	948.27
420.475	966.34
420.852	957.98
421.228	962.73
421.605	980.36
421.982	971.77
422.358	1017.42
422.735	1030.52
423.111	1017.42
423.488	1048.15
423.864	1031.2
424.241	1047.92
424.617	1060.58
424.994	1067.81
425.37	1070.75
425.746	1075.49
426.123	1076.4
426.499	1083.63
426.875	1113.46
427.251	1126.57
427.627	1133.35
428.003	1144.87
428.379	1162.72
428.756	1166.79
429.132	1202.27
429.507	1193.91
429.883	1235.49
430.259	1220.35
430.635	1235.94
431.011	1239.56
431.387	1274.81
431.763	1301.48
432.138	1273.23
432.514	1296.28
432.89	1306.67
433.265	1360.23
433.641	1362.72
434.016	1365.66
434.392	1385.54
434.767	1389.84
435.143	1395.49
435.518	1418.54
435.894	1443.85
436.269	1471.19
436.644	1482.72
437.02	1481.36
437.395	1493.56
437.77	1489.04
438.145	1533.79
438.52	1526.1
438.895	1534.24
439.271	1574.92
439.646	1576.95
440.021	1584.86
440.395	1605.88
440.77	1584.18
441.145	1579.66
441.52	1608.59
441.895	1607.91
442.27	1637.97
442.645	1647.68
443.019	1665.76
443.394	1665.76
443.769	1674.35
444.143	1675.48
444.518	1712.54
444.892	1700.56
445.267	1720.9
445.641	1708.47
446.016	1725.42
446.39	1743.5
446.764	1747.12
447.139	1769.26
447.513	1770.62
447.887	1765.87
448.262	1776.04
448.636	1791.63
449.01	1866.43
449.384	1853.55
449.758	1842.93
450.132	1872.08
450.506	1876.83
450.88	1902.37
451.254	1890.84
451.628	1924.96
452.002	1933.78
452.376	1965.64
452.75	1975.58
453.123	2006.09
453.497	1997.73
453.871	2001.12
454.244	2063.49
454.618	2075.24
454.992	2168.57
455.365	2146.2
455.739	2164.28
456.112	2204.28
456.486	2185.07
456.859	2206.54
457.232	2252.64
457.606	2282.92
457.979	2309.13
458.352	2377.38
458.725	2373.31
459.099	2380.54
459.472	2420.77
459.845	2451.05
460.218	2465.06
460.591	2487.21
460.964	2505.06
461.337	2567.43
461.71	2582.8
462.083	2622.35
462.456	2623.93
462.829	2674.32
463.201	2710.03
463.574	2710.71
463.947	2751.38
464.32	2791.61
464.692	2792.96
465.065	2815.34
465.438	2848.56
465.81	2875
466.183	2871.61
466.555	2965.61
466.928	3005.39
467.3	2992.73
467.672	3004.03
468.045	3055.1
468.417	3101.66
468.789	3120.19
469.161	3174.2
469.534	3190.92
469.906	3230.69
470.278	3242.44
470.65	3297.36
471.022	3354.08
471.394	3431.59
471.766	3436.11
472.138	3492.38
472.51	3546.16
472.882	3591.59
473.253	3673.62
473.625	3645.82
473.997	3717.01
474.369	3768.53
474.74	3837.91
475.112	3880.17
475.484	3928.75
475.855	3950.45
476.227	4015.98
476.598	4152.02
476.97	4158.35
477.341	4258.01
477.713	4333.49
478.084	4372.36
478.455	4509.98
478.827	4481.28
479.198	4643.31
479.569	4667.49
479.94	4751.78
480.311	4796.07
480.682	4891.21
481.053	5022.51
481.424	5065.45
481.795	5171.88
482.166	5194.03
482.537	5271.99
482.908	5435.15
483.279	5472.67
483.65	5556.96
484.021	5684.19
484.391	5748.14
484.762	5840.57
485.133	5872.66
485.503	5973.22
485.874	6130.5
486.244	6178.86
486.615	6344.28
486.985	6350.84
487.356	6492.08
487.726	6522.36
488.097	6690.49
488.467	6746.31
488.837	6897.26
489.207	6958.73
489.578	7091.16
489.948	7139.97
490.318	7321.43
490.688	7304.03
491.058	7483.24
491.428	7575.89
491.798	7631.03
492.168	7781.76
492.538	7833.06
492.908	7973.17
493.278	8062.43
493.648	8120.73
494.017	8299.94
494.387	8346.04
494.757	8406.83
495.126	8514.17
495.496	8583.09
495.866	8636.43
496.235	8728.85
496.605	8823.77
496.974	8876.19
497.344	8958
497.713	9083.42
498.082	9057.21
498.452	9248.16
498.821	9321.61
499.19	9315.05
499.559	9392.56
499.928	9504.88
500.298	9566.34
500.667	9703.06
501.036	9708.94
501.405	9744.19
501.774	9874.58
502.143	9874.36
502.512	10002.94
502.88	10047.01
503.249	10094.01
503.618	10185.54
503.987	10212.88
504.356	10308.25
504.724	10332.88
505.093	10411.07
505.462	10411.75
505.83	10534.45
506.199	10643.38
506.567	10716.37
506.936	10782.81
507.304	10901
507.672	10938.96
508.041	10949.81
508.409	11106.87
508.777	11166.98
509.145	11251.27
509.514	11201.1
509.882	11363.36
510.25	11400.19
510.618	11466.86
510.986	11484.49
511.354	11612.17
511.722	11725.61
512.09	11816.91
512.458	11754.99
512.826	11878.83
513.193	11919.28
513.561	12075.88
513.929	12113.85
514.297	12226.39
514.664	12292.37
515.032	12337.8
515.4	12447.4
515.767	12575.98
516.135	12565.59
516.502	12660.5
516.869	12755.87
517.237	12815.3
517.604	12819.14
517.972	13037.89
518.339	13004.9
518.706	13079.25
519.073	13189.98
519.44	13315.62
519.808	13478.11
520.175	13443.76
520.542	13633.36
520.909	13783.41
521.276	13798.1
521.643	13974.59
522.009	14026.11
522.376	14166
522.743	14285.09
523.11	14492.32
523.477	14545.42
523.843	14699.32
524.21	14864.51
524.577	14950.16
524.943	15020.89
525.31	15084.39
525.676	15267.21
526.043	15471.5
526.409	15507.88
526.776	15724.37
527.142	15813.41
527.508	15914.65
527.874	16011.37
528.241	16174.53
528.607	16271.48
528.973	16404.13
529.339	16455.43
529.705	16657.46
530.071	16857.68
530.437	16885.7
530.803	17081.4
531.169	17129.08
531.535	17147.61
531.901	17295.41
532.267	17323.88
532.632	17576.53
532.998	17568.85
533.364	17757.77
533.73	17735.62
534.095	17943.75
534.461	17982.17
534.826	18136.97
535.192	18318.2
535.557	18421.93
535.923	18372.21
536.288	18344.19
536.653	18599.78
537.019	18522.27
537.384	18665.77
537.749	18727.91
538.114	18870.51
538.479	18852.65
538.845	19032.54
539.21	18971.75
539.575	19056.26
539.94	19184.62
540.305	19273.43
540.67	19312.3
541.034	19470.49
541.399	19458.74
541.764	19578.06
542.129	19612.18
542.494	19727.43
542.858	19793.65
543.223	19701.22
543.587	20003.36
543.952	19876.13
544.316	19948.9
544.681	20009.46
545.045	20082
545.41	20196.12
545.774	20249.91
546.138	20213.75
546.503	20468.2
546.867	20448.09
547.231	20608.54
547.595	20630.46
547.959	20821.64
548.324	20757.91
548.688	20783.68
549.052	20936.44
549.416	20941.64
549.779	20985.48
550.143	20982.09
550.507	21249.65
550.871	21208.75
551.235	21260.27
551.599	21405.58
551.962	21556.09
552.326	21540.04
552.689	21710.21
553.053	21509.99
553.417	21675.63
553.78	21953.14
554.143	21947.49
554.507	21952.69
554.87	22057.77
555.234	22252.56
555.597	22258.21
555.96	22358.78
556.323	22508.38
556.686	22570.07
557.05	22730.52
557.413	22785.43
557.776	22896.62
558.139	23011.19
558.502	23092.32
558.865	23111.07
559.228	23390.61
559.59	23400.78
559.953	23490.05
560.316	23734.79
560.679	23717.61
561.041	23920.54
561.404	24009.58
561.767	24274.21
562.129	24183.14
562.492	24441.66
562.854	24543.13
563.217	24612.05
563.579	24661.77
563.941	24854.76
564.304	24968.65
564.666	25242.54
565.028	25165.03
565.39	25350.56
565.753	25686.15
566.115	25671.46
566.477	25764.11
566.839	25925.24
567.201	26317.99
567.563	26278.67
567.925	26455.84
568.287	26449.06
568.648	26726.35
569.01	26939
569.372	27115.94
569.734	27120.69
570.095	27288.59
570.457	27545.31
570.819	27513.22
571.18	27608.58
571.542	27942.58
571.903	27914.79
572.265	28110.26
572.626	28348
572.987	28463.02
573.349	28599.74
573.71	28715.67
574.071	28886.06
574.432	29072.5
574.794	29291.7
575.155	29183
575.516	29306.84
575.877	29520.85
576.238	29641.52
576.599	29715.42
576.96	29851.23
577.32	30013.26
577.681	30088.74
578.042	30462.07
578.403	30379.13
578.763	30496.87
579.124	30637.65
579.485	30951.32
579.845	31179.79
580.206	30982.96
580.566	31145.21
580.927	31210.3
581.287	31467.01
581.648	31566.67
582.008	31900.9
582.368	31971.86
582.728	32282.13
583.089	32210.49
583.449	32311.06
583.809	32600.99
584.169	32864.71
584.529	32952.62
584.889	33419.95
585.249	33452.27
585.609	33550.12
585.969	33971.58
586.329	34185.81
586.688	34506.93
587.048	34672.13
587.408	34852.23
587.768	35263.07
588.127	35630.07
588.487	35837.52
588.846	36563.15
589.206	36596.37
589.565	36951.39
589.925	37583.91
590.284	37834.3
590.643	38215.31
591.003	38788.4
591.362	39381.15
591.721	39677.19
592.08	40082.15
592.44	40725.3
592.799	41075.35
593.158	41524.6
593.517	41739.74
593.876	42379.04
594.235	42899.03
594.593	43355.51
594.952	43847.7
595.311	44251.99
595.67	44792.76
596.029	45339.87
596.387	45907.31
596.746	46393.4
597.104	46677.46
597.463	47214.17
597.822	47785.45
598.18	47900.03
598.538	48433.57
598.897	49154.68
599.255	49336.6
599.613	50149.23
599.972	50287.53
600.33	50668.77
600.688	51020.17
601.046	51410.67
601.404	51854.05
601.762	52220.59
602.12	52638.88
602.478	52870.29
602.836	53195.48
603.194	53317.51
603.552	53781.45
603.91	53933.54
604.268	54372.4
604.625	54632.28
604.983	54965.83
605.341	55024.58
605.698	55426.61
606.056	55818.01
606.413	55914.28
606.771	56219.13
607.128	56446.02
607.485	56608.95
607.843	56852.78
608.2	57125.77
608.557	57418.42
608.914	57534.57
609.272	57856.6
609.629	58046.65
609.986	58332.97
610.343	58400.77
610.7	58799.63
611.057	58832.85
611.414	59001.65
611.771	59274.64
612.127	59436.45
612.484	59577.23
612.841	59801.63
613.198	59873.95
613.554	59974.06
613.911	60286.37
614.267	60392.13
614.624	60531.78
614.98	60673.25
615.337	60897.2
615.693	60979.91
616.05	61087.48
616.406	61367.69
616.762	61391.42
617.118	61439.56
617.475	61510.97
617.831	61730.85
618.187	61864.86
618.543	61933.56
618.899	62145.53
619.255	62205.41
619.611	62263.49
619.967	62460.77
620.323	62533.54
620.678	62467.33
621.034	62538.74
621.39	62700.09
621.746	62741.9
622.101	63007.65
622.457	62846.07
622.812	63052.62
623.168	63116.12
623.523	63152.73
623.879	63310.02
624.234	63220.75
624.589	63325.38
624.945	63426.85
625.3	63507.98
625.655	63477.7
626.01	63525.38
626.365	63529.45
626.72	63526.06
627.075	63526.96
627.43	63522.44
627.785	63529.45
628.14	63529.45
628.495	63529.45
628.85	63529.45
629.205	63529.45
629.559	63529.45
629.914	63529.45
630.269	63529.45
630.623	63529.45
630.978	63529.45
631.332	63529.45
631.687	63529.45
632.041	63529.45
632.396	63529.45
632.75	63529.45
633.104	63529.45
633.459	63529.45
633.813	63529.45
634.167	63529.45
634.521	63529.45
634.875	63529.45
635.229	63529.45
635.583	63529.45
635.937	63529.45
636.291	63529.45
636.645	63529.45
636.999	63529.45
637.352	63529.45
637.706	63529.45
638.06	63529.45
638.413	63529.45
638.767	63529.45
639.121	63529.45
639.474	63529.45
639.828	63529.45
640.181	63529.45
640.534	63527.19
640.888	63529.45
641.241	63504.59
641.594	63529.45
641.947	63519.95
642.301	63514.53
642.654	63529.45
643.007	63527.64
643.36	63529.45
643.713	63529.45
644.066	63523.57
644.419	63487.86
644.771	63261.88
645.124	63055.11
645.477	63044.49
645.83	62978.95
646.182	62937.14
646.535	62911.38
646.888	62901.67
647.24	62862.8
647.593	62990.7
647.945	62879.07
648.298	62856.92
648.65	62731.27
649.002	62575.35
649.355	62573.76
649.707	62531.28
650.059	62573.31
650.411	62869.12
650.763	62978.5
651.115	63282.9
651.467	63159.06
651.819	63193.18
652.171	63160.42
652.523	63047.2
652.875	63138.72
653.227	63040.42
653.578	63213.52
653.93	63130.36
654.282	63053.3
654.633	62951.83
654.985	62996.35
655.337	62999.97
655.688	62982.57
656.039	63006.52
656.391	62815.34
656.742	62787.77
657.094	62811.05
657.445	62872.06
657.796	62854.89
658.147	62792.97
658.498	62831.38
658.849	62872.29
659.2	62746.42
659.551	62723.14
659.902	62875.9
660.253	62748.67
660.604	62808.33
660.955	62758.17
661.306	62760.2
661.656	62729.69
662.007	62747.77
662.358	62697.38
662.708	62735.12
663.059	62682.91
663.409	62547.78
663.76	62740.54
664.11	62718.85
664.461	62717.72
664.811	62678.62
665.161	62686.3
665.511	62626.64
665.862	62644.04
666.212	62634.55
666.562	62691.28
666.912	62665.29
667.262	62596.36
667.612	62585.29
667.962	62634.1
668.312	62500.55
668.662	62656.02
669.011	62618.06
669.361	62577.15
669.711	62568.57
670.06	62509.81
670.41	62530.15
670.76	62441.79
671.109	62564.05
671.459	62543.71
671.808	62497.83
672.157	62518.4
672.507	62369.25
672.856	62400.44
673.205	62438.17
673.554	62557.95
673.904	62438.17
674.253	62565.85
674.602	62437.04
674.951	62174.23
675.3	62052.65
675.649	62479.53
675.998	62427.55
676.346	62481.11
676.695	62477.5
677.044	62285.86
677.393	62378.52
677.741	62369.02
678.09	62362.02
678.438	62278.18
678.787	62402.24
679.135	62372.41
679.484	62158.63
679.832	62265.3
680.181	62215.13
680.529	62188.24
680.877	62147.11
681.225	62084.29
681.573	62298.07
681.922	62135.36
682.27	62058.52
682.618	62075.92
682.966	62006.1
683.314	62059.65
683.661	62038.19
684.009	61952.54
684.357	61927
684.705	61876.38
685.053	61889.71
685.4	61775.37
685.748	61770.17
686.095	61796.16
686.443	61619.21
686.79	61666.9
687.138	61719.1
687.485	61649.72
687.832	61595.03
688.18	61556.39
688.527	61472.32
688.874	61455.15
689.221	61435.04
689.568	61376.28
689.915	61349.62
690.262	61414.02
690.609	61316.17
690.956	61152.33
691.303	61234.14
691.65	61119.79
691.997	61116.63
692.344	60970.42
692.69	60986.69
693.037	60980.59
693.383	60753.93
693.73	60870.98
694.077	60775.39
694.423	60720.25
694.769	60655.17
695.116	60620.37
695.462	60606.58
695.808	60530.2
696.155	60538.56
696.501	60359.59
696.847	60373.6
697.193	60209.08
697.539	60256.09
697.885	60103.77
698.231	60026.71
698.577	60058.58
698.923	60043.44
699.269	59787.4
699.614	59814.29
699.96	59725.48
700.306	59744.91
700.651	59606.84
700.997	59578.36
701.342	59510.12
701.688	59471.7
702.033	59368.88
702.379	59353.06
702.724	59225.38
703.069	59269.9
703.415	59052.5
703.76	59155.32
704.105	59080.97
704.45	58976.57
704.795	58953.75
705.14	58793.75
705.485	58764.82
705.83	58720.31
706.175	58800.08
706.52	58626.3
706.865	58531.38
707.209	58516.92
707.554	58445.51
707.899	58429.47
708.243	58332.75
708.588	58344.27
708.932	58198.29
709.277	58237.83
709.621	58145.41
709.966	57957.39
710.31	58022.7
710.654	57802.59
710.998	57902.47
711.342	57889.82
711.687	57858.18
712.031	57729.37
712.375	57661.58
712.719	57596.72
713.063	57529.38
713.407	57711.97
713.75	57509.26
714.094	57474.24
714.438	57380.45
714.782	57336.39
715.125	57153.12
715.469	57316.5
715.812	57131.65
716.156	57067.69
716.499	57079.67
716.843	57106.56
717.186	56890.52
717.53	57027.47
717.873	56991.76
718.216	56929.62
718.559	56782.73
718.902	56687.14
719.246	56760.81
719.589	56625.67
719.932	56529.4
720.275	56512
720.617	56537.76
720.96	56497.99
721.303	56424.32
721.646	56493.25
721.989	56340.26
722.331	56361.95
722.674	56261.61
723.016	56238.56
723.359	56175.06
723.701	56206.7
724.044	56071.11
724.386	55962.86
724.729	56109.08
725.071	56050.55
725.413	55969.42
725.755	55928.52
726.097	55818.24
726.439	55752.02
726.782	55714.74
727.124	55851.68
727.465	55678.35
727.807	55594.96
728.149	55620.27
728.491	55528.53
728.833	55573.04
729.175	55506.83
729.516	55386.38
729.858	55369.66
730.199	55431.35
730.541	55395.42
730.882	55359.49
731.224	55342.32
731.565	55234.75
731.906	55187.29
732.248	55270.68
732.589	55023.23
732.93	55147.07
733.271	55166.05
733.612	55068.65
733.953	55110.68
734.294	54951.14
734.635	54922.67
734.976	55056.9
735.317	54934.42
735.658	54853.06
735.999	54841.99
736.339	54770.13
736.68	54796.57
737.021	54753.4
737.361	54610.36
737.702	54797.92
738.042	54629.34
738.383	54699.62
738.723	54687.19
739.063	54541.43
739.404	54598.61
739.744	54540.53
740.084	54443.58
740.424	54426.86
740.764	54292.4
741.104	54468.67
741.444	54202.91
741.784	54164.49
742.124	54234.32
742.464	54211.72
742.804	54152.06
743.143	54058.06
743.483	54119.3
743.823	54045.63
744.162	53995.68
744.502	54016.02
744.841	53864.39
745.181	53978.06
745.52	53853.99
745.86	53847.21
746.199	53815.35
746.538	53785.75
746.877	53833.2
747.216	53708.46
747.556	53636.6
747.895	53591.18
748.234	53499.43
748.573	53511.86
748.911	53426.43
749.25	53422.59
749.589	53312.09
749.928	53350.96
750.267	53380.79
750.605	53228.25
750.944	53245.65
751.283	53136.27
751.621	53206.1
751.96	53021.47
752.298	53005.88
752.636	53018.08
752.975	52837.07
753.313	52747.81
753.651	52887.01
753.989	52667.36
754.327	52699
754.666	52445.22
755.004	52528.15
