Data from 485_FLMS001491_006.txt Node
Date: Thu Apr 19 16:32:19 BST 2018
User: hsy
Spectrometer: FLMS00149
Trigger mode: 0
Integration Time (sec): 1.000000E-2
Scans to average: 10
Electric dark correction enabled: true
Nonlinearity correction enabled: false
Boxcar width: 0
XAxis mode: Wavelengths
Number of Pixels in Spectrum: 2048
>>>>>Begin Spectral Data<<<<<
341.393	-5
341.776	-5
342.16	-5
342.543	-57.43
342.927	-69.4
343.31	-69.63
343.693	-62.85
344.077	-61.5
344.46	-51.1
344.843	-57.88
345.226	-49.29
345.61	-34.15
345.993	-27.6
346.376	-8.62
346.759	18.05
347.142	29.8
347.525	47.43
347.908	51.5
348.291	74.32
348.674	85.85
349.057	115.67
349.44	99.18
349.823	163.58
350.206	192.96
350.588	251.26
350.971	271.83
351.354	264.82
351.737	282
352.119	293.52
352.502	287.42
352.884	311.15
353.267	343.69
353.65	329.68
354.032	352.5
354.414	368.55
354.797	350.02
355.179	364.71
355.562	390.24
355.944	386.63
356.326	387.08
356.709	373.3
357.091	394.76
357.473	396.57
357.855	410.13
358.238	412.39
358.62	419.17
359.002	404.03
359.384	393.63
359.766	390.24
360.148	400.64
360.53	389.34
360.912	388.89
361.294	397.25
361.676	399.28
362.057	393.18
362.439	414.88
362.821	410.58
363.203	411.94
363.584	379.85
363.966	387.08
364.348	386.63
364.729	402.22
365.111	399.06
365.493	392.96
365.874	363.13
366.256	402.22
366.637	390.7
367.019	392.5
367.4	385.95
367.781	387.31
368.163	393.41
368.544	397.25
368.925	384.59
369.306	407.87
369.688	386.85
370.069	413.29
370.45	419.85
370.831	403.8
371.212	412.39
371.593	382.33
371.974	378.72
372.355	416.01
372.736	405.61
373.117	393.63
373.498	413.52
373.879	395.67
374.26	380.98
374.641	393.41
375.021	394.31
375.402	402.45
375.783	425.05
376.163	418.94
376.544	412.39
376.925	445.38
377.305	418.72
377.686	420.98
378.066	425.95
378.447	437.93
378.827	456.91
379.208	432.5
379.588	438.6
379.968	427.31
380.349	424.82
380.729	445.84
381.109	434.76
381.489	449
381.87	440.64
382.25	466.17
382.63	448.55
383.01	464.14
383.39	465.27
383.77	444.71
384.15	476.57
384.53	462.78
384.91	466.63
385.29	464.82
385.67	489
386.049	494.2
386.429	493.74
386.809	482.22
387.189	495.78
387.568	473.63
387.948	494.87
388.328	498.94
388.707	510.01
389.087	503.69
389.466	526.51
389.846	517.47
390.225	509.79
390.605	503.46
390.984	516.34
391.363	530.81
391.743	538.49
392.122	526.51
392.501	519.73
392.881	543.69
393.26	554.99
393.639	551.6
394.018	536.68
394.397	537.13
394.776	544.82
395.155	545.72
395.534	536
395.913	545.95
396.292	591.37
396.671	576
397.05	576.68
397.429	580.3
397.808	596.34
398.186	569
398.565	598.37
398.944	576.91
399.323	592.05
399.701	595.66
400.08	623.23
400.458	599.73
400.837	631.37
401.215	619.62
401.594	605.83
401.972	604.7
402.351	615.55
402.729	644.93
403.107	636.11
403.486	618.49
403.864	649.45
404.242	675.66
404.62	646.51
404.999	680.63
405.377	656.9
405.755	680.18
406.133	686.73
406.511	669.56
406.889	662.78
407.267	687.19
407.645	728.77
408.023	721.53
408.401	685.15
408.779	721.53
409.156	732.83
409.534	737.35
409.912	745.26
410.29	749.56
410.667	751.82
411.045	801.31
411.422	790.91
411.8	769.67
412.178	794.3
412.555	827.52
412.933	809.22
413.31	810.57
413.687	841.98
414.065	820.74
414.442	830.68
414.819	835.43
415.197	861.87
415.574	894.19
415.951	863.45
416.328	870.23
416.705	893.96
417.082	901.42
417.46	901.87
417.837	913.39
418.214	925.6
418.591	912.72
418.967	914.07
419.344	903.22
419.721	924.69
420.098	935.99
420.475	941.42
420.852	959.27
421.228	960.85
421.605	989.55
421.982	991.81
422.358	1001.98
422.735	967.18
423.111	1003.34
423.488	1015.31
423.864	1048.53
424.241	1049.66
424.617	1037.23
424.994	1031.36
425.37	1056.44
425.746	1068.19
426.123	1064.58
426.499	1056.22
426.875	1094.41
427.251	1106.38
427.627	1096.89
428.003	1127.63
428.379	1130.79
428.756	1156.1
429.132	1168.75
429.507	1177.12
429.883	1202.2
430.259	1213.27
430.635	1233.61
431.011	1222.99
431.387	1233.84
431.763	1253.27
432.138	1256.21
432.514	1279.94
432.89	1280.39
433.265	1301.41
433.641	1319.03
434.016	1354.51
434.392	1368.98
434.767	1404.68
435.143	1376.43
435.518	1398.81
435.894	1422.53
436.269	1415.08
436.644	1430.22
437.02	1458.24
437.395	1441.52
437.77	1481.97
438.145	1507.95
438.52	1509.99
438.895	1543.66
439.271	1529.65
439.646	1547.05
440.021	1537.56
440.395	1587.27
440.77	1548.18
441.145	1568.52
441.52	1579.37
441.895	1597.67
442.27	1642.64
442.645	1618.91
443.019	1617.1
443.394	1620.27
443.769	1639.02
444.143	1621.17
444.518	1633.38
444.892	1661.85
445.267	1648.97
445.641	1693.03
446.016	1719.25
446.39	1730.32
446.764	1702.98
447.139	1716.54
447.513	1733.49
447.887	1733.03
448.262	1753.6
448.636	1752.69
449.01	1786.14
449.384	1800.15
449.758	1801.51
450.132	1829.08
450.506	1833.82
450.88	1851.67
451.254	1847.83
451.628	1876.08
452.002	1916.76
452.376	1931.9
452.75	1959.92
453.123	1964.67
453.497	1998.56
453.871	1995.63
454.244	2040.37
454.618	2044.44
454.992	2063.42
455.365	2059.8
455.739	2090.09
456.112	2133.25
456.486	2154.72
456.859	2191.1
457.232	2222.74
457.606	2265.45
457.979	2247.37
458.352	2269.06
458.725	2324.88
459.099	2346.35
459.472	2363.75
459.845	2393.58
460.218	2410.08
460.591	2435.39
460.964	2485.78
461.337	2485.1
461.71	2522.84
462.083	2560.13
462.456	2543.63
462.829	2570.75
463.201	2654.59
463.574	2622.95
463.947	2659.11
464.32	2714.93
464.692	2743.63
465.065	2752.89
465.438	2767.58
465.81	2817.75
466.183	2855.49
466.555	2890.74
466.928	2916.96
467.3	2921.25
467.672	2948.14
468.045	3004.86
468.417	3009.84
468.789	3072.43
469.161	3078.08
469.534	3135.03
469.906	3169.15
470.278	3195.37
470.65	3249.6
471.022	3289.6
471.394	3333.44
471.766	3389.26
472.138	3405.98
472.51	3469.71
472.882	3531.4
473.253	3548.35
473.625	3612.08
473.997	3675.58
474.369	3676.49
474.74	3709.7
475.112	3814.11
475.484	3828.12
475.855	3868.57
476.227	3931.62
476.598	4059.3
476.97	4063.82
477.341	4183.14
477.713	4232.85
478.084	4221.56
478.455	4339.74
478.827	4402.57
479.198	4490.25
479.569	4559.4
479.94	4607.99
480.311	4690.02
480.682	4808.43
481.053	4904.7
481.424	4960.97
481.795	5047.75
482.166	5135.88
482.537	5147.41
482.908	5268.31
483.279	5347.63
483.65	5493.61
484.021	5526.15
484.391	5604.12
484.762	5709.65
485.133	5710.33
485.503	5854.73
485.874	5967.05
486.244	5976.99
486.615	6134.95
486.985	6280.94
487.356	6350.54
487.726	6356.64
488.097	6571.1
488.467	6613.36
488.837	6729.96
489.207	6819.23
489.578	6963.4
489.948	7022.16
490.318	7191.65
490.688	7188.03
491.058	7339.21
491.428	7401.36
491.798	7461.7
492.168	7717.73
492.538	7692.88
492.908	7815.59
493.278	7931.06
493.648	7889.93
494.017	8028.69
494.387	8151.4
494.757	8201.11
495.126	8299.87
495.496	8471.61
495.866	8449.47
496.235	8583.47
496.605	8594.55
496.974	8717.71
497.344	8785.05
497.713	8861.21
498.082	8930.81
498.452	9001.09
498.821	9083.8
499.19	9105.72
499.559	9247.41
499.928	9285.15
500.298	9348.43
500.667	9425.03
501.036	9474.75
501.405	9522.21
501.774	9569.66
502.143	9717.68
502.512	9775.08
502.88	9840.16
503.249	9864.35
503.618	9952.7
503.987	9985.25
504.356	10113.15
504.724	10085.81
505.093	10116.32
505.462	10199.7
505.83	10277.44
506.199	10349.98
506.567	10459.58
506.936	10458.91
507.304	10598.79
507.672	10643.08
508.041	10798.33
508.409	10772.8
508.777	10815.73
509.145	10930.76
509.514	10918.1
509.882	11044.43
510.25	11036.97
510.618	11193.35
510.986	11210.07
511.354	11287.81
511.722	11393.34
512.09	11486.45
512.458	11444.64
512.826	11542.72
513.193	11620.23
513.561	11647.58
513.929	11751.75
514.297	11928.47
514.664	11996.27
515.032	12054.34
515.4	12084.17
515.767	12143.16
516.135	12191.52
516.502	12207.79
516.869	12410.27
517.237	12505.63
517.604	12496.82
517.972	12755.12
518.339	12746.53
518.706	12791.27
519.073	12851.61
519.44	12974.32
519.808	13157.59
520.175	13192.85
520.542	13310.58
520.909	13332.95
521.276	13456.57
521.643	13611.14
522.009	13727.52
522.376	13742.21
522.743	13868.99
523.11	13986.95
523.477	14137.91
523.843	14278.69
524.21	14361.63
524.577	14532.02
524.943	14588.29
525.31	14662.41
525.676	14916.19
526.043	15059.69
526.409	15103.98
526.776	15221.72
527.142	15286.8
527.508	15356.18
527.874	15546.68
528.241	15649.96
528.607	15778.31
528.973	15866.9
529.339	15932.21
529.705	16156.16
530.071	16148.47
530.437	16323.84
530.803	16412.2
531.169	16505.98
531.535	16631.4
531.901	16719.53
532.267	16839.98
532.632	16902.35
532.998	17003.59
533.364	17124.95
533.73	17225.51
534.095	17400.42
534.461	17364.26
534.826	17442.9
535.192	17609
535.557	17754.31
535.923	17736.23
536.288	17863.46
536.653	17953.62
537.019	18025.71
537.384	18074.07
537.749	18180.51
538.114	18107.74
538.479	18202.88
538.845	18343.9
539.21	18361.75
539.575	18412.59
539.94	18573.72
540.305	18655.53
540.67	18704.11
541.034	18758.8
541.399	18811.23
541.764	18862.98
542.129	19023.88
542.494	19030.88
542.858	19161.28
543.223	19078.79
543.587	19210.54
543.952	19268.39
544.316	19285.57
544.681	19257.09
545.045	19522.17
545.41	19518.78
545.774	19659.79
546.138	19654.14
546.503	19684.65
546.867	19746.8
547.231	19855.49
547.595	19963.97
547.959	20032.89
548.324	20139.33
548.688	20075.6
549.052	20194.69
549.416	20248.03
549.779	20199.67
550.143	20314.47
550.507	20527.57
550.871	20548.81
551.235	20571.63
551.599	20711.74
551.962	20650.05
552.326	20741.12
552.689	20818.63
553.053	20825.64
553.417	20979.53
553.78	21104.73
554.143	21220.88
554.507	21175.69
554.87	21255.91
555.234	21555.56
555.597	21470.37
555.96	21558.95
556.323	21692.73
556.686	21664.71
557.05	21765.05
557.413	21971.37
557.776	21998.04
558.139	22179.05
558.502	22297.69
558.865	22251.14
559.228	22521.19
559.59	22586.04
559.953	22645.03
560.316	22835.3
560.679	22896.54
561.041	22979.25
561.404	23244.56
561.767	23341.5
562.129	23213.37
562.492	23456.76
562.854	23563.65
563.217	23683.42
563.579	23716.64
563.941	23995.72
564.304	24096.06
564.666	24312.78
565.028	24292.44
565.39	24428.26
565.753	24652.43
566.115	24740.79
566.477	24925.64
566.839	24859.21
567.201	25179.2
567.563	25163.38
567.925	25463.71
568.287	25491.05
568.648	25754.55
569.01	25937.37
569.372	26126.74
569.734	26133.52
570.095	26255.78
570.457	26563.34
570.819	26515.43
571.18	26624.13
571.542	26906.61
571.903	26930.11
572.265	27193.16
572.626	27322.42
572.987	27347.05
573.349	27491.9
573.71	27728.51
574.071	27802.86
574.432	28105.9
574.794	28276.74
575.155	28267.48
575.516	28339.79
575.877	28537.98
576.238	28543.18
576.599	28860
576.96	28762.38
577.32	29033.78
577.681	29032.43
578.042	29301.8
578.403	29301.12
578.763	29388.35
579.124	29605.75
579.485	29856.81
579.845	30004.61
580.206	30049.58
580.566	30059.07
580.927	30285.73
581.287	30440.53
581.648	30544.25
582.008	30992.15
582.368	30946.5
582.728	31074.63
583.089	31210.22
583.449	31497.45
583.809	31595.75
584.169	31935.18
584.529	31843.88
584.889	32401.38
585.249	32468.27
585.609	32461.49
585.969	32976.73
586.329	33080.68
586.688	33554.8
587.048	33704.85
587.408	34121.11
587.768	34295.12
588.127	34613.52
588.487	34851.48
588.846	35526.5
589.206	35474.52
589.565	35986.82
589.925	36498.22
590.284	36780.93
590.643	37109.05
591.003	37835.81
591.362	38325.52
591.721	38629.24
592.08	39130.92
592.44	39676.67
592.799	40052.25
593.158	40506.03
593.517	40889.29
593.876	41491.54
594.235	41802.49
594.593	42349.82
594.952	42862.8
595.311	43183.24
595.67	43775.77
596.029	44425.02
596.387	45072.91
596.746	45633.57
597.104	45868.37
597.463	46297.74
597.822	46847.33
598.18	47280.08
598.538	47670.36
598.897	48306.05
599.255	48565.93
599.613	49469.86
599.972	49408.39
600.33	49991.43
600.688	50367.01
601.046	50718.19
601.404	51345.29
601.762	51539.41
602.12	52074.08
602.478	52285.15
602.836	52688.98
603.194	52765.82
603.552	53182.08
603.91	53381.17
604.268	53745.23
604.625	54070.41
604.983	54461.36
605.341	54558.31
605.698	54977.96
606.056	55326.88
606.413	55470.38
606.771	55855.68
607.128	56013.64
607.485	56245.72
607.843	56482.33
608.2	56805.03
608.557	57104.23
608.914	57201.86
609.272	57477.78
609.629	57799.36
609.986	57999.58
610.343	58101.49
610.7	58423.75
611.057	58495.16
611.414	58573.8
611.771	58926.33
612.127	59053.11
612.484	59246.32
612.841	59443.61
613.198	59533.55
613.554	59583.26
613.911	59942.12
614.267	60068.67
614.624	60142.35
614.98	60346.86
615.337	60602.22
615.693	60676.34
616.05	60749.33
616.406	60929.9
616.762	61008.76
617.118	61201.07
617.475	61211.7
617.831	61450.79
618.187	61570.1
618.543	61594.74
618.899	61865.46
619.255	61858.91
619.611	61895.07
619.967	62062.97
620.323	62243.08
620.678	62178.68
621.034	62286.02
621.39	62350.87
621.746	62381.38
622.101	62738.44
622.457	62610.53
622.812	62755.84
623.168	62875.15
623.523	62867.47
623.879	63031.99
624.234	62994.25
624.589	63074.47
624.945	63178.42
625.3	63250.29
625.655	63205.32
626.01	63253.9
626.365	63357.4
626.72	63263.39
627.075	63368.93
627.43	63444.41
627.785	63419.1
628.14	63453.44
628.495	63499.09
628.85	63520.56
629.205	63500.67
629.559	63523.95
629.914	63525.76
630.269	63525.76
630.623	63509.26
630.978	63519.43
631.332	63525.76
631.687	63525.76
632.041	63525.76
632.396	63525.76
632.75	63525.76
633.104	63525.76
633.459	63525.76
633.813	63525.76
634.167	63525.76
634.521	63525.76
634.875	63525.76
635.229	63525.76
635.583	63525.76
635.937	63525.76
636.291	63525.76
636.645	63523.95
636.999	63513.1
637.352	63525.76
637.706	63508.36
638.06	63525.76
638.413	63518.3
638.767	63489.15
639.121	63525.76
639.474	63433.56
639.828	63452.31
640.181	63428.59
640.534	63483.27
640.888	63431.07
641.241	63366.89
641.594	63326.44
641.947	63424.97
642.301	63332.32
642.654	63393.11
643.007	63332.32
643.36	63342.26
643.713	63355.37
644.066	63444.41
644.419	63182.27
644.771	62997.19
645.124	62809.39
645.477	62779.56
645.83	62735.95
646.182	62665.22
646.535	62642.62
646.888	62695.5
647.24	62622.51
647.593	62704.31
647.945	62561.04
648.298	62570.08
648.65	62474.04
649.002	62398.11
649.355	62347.48
649.707	62301.16
650.059	62295.28
650.411	62580.02
650.763	62743.63
651.115	63023.17
651.467	62899.33
651.819	62920.13
652.171	62846.91
652.523	62779.11
652.875	62859.11
653.227	62721.26
653.578	62849.17
653.93	62847.81
654.282	62717.19
654.633	62718.77
654.985	62712.9
655.337	62693.01
655.688	62682.17
656.039	62774.14
656.391	62547.93
656.742	62564.2
657.094	62614.37
657.445	62673.58
657.796	62660.47
658.147	62549.74
658.498	62545.45
658.849	62688.04
659.2	62538.89
659.551	62470.65
659.902	62603.3
660.253	62513.81
660.604	62596.97
660.955	62473.58
661.306	62565.33
661.656	62452.34
662.007	62482.17
662.358	62535.73
662.708	62439.91
663.059	62478.33
663.409	62371.89
663.76	62483.75
664.11	62468.16
664.461	62547.25
664.811	62413.25
665.161	62445.56
665.511	62351.1
665.862	62367.37
666.212	62392.91
666.562	62385
666.912	62375.96
667.262	62298.45
667.612	62330.54
667.962	62301.61
668.312	62302.06
668.662	62419.35
669.011	62360.59
669.361	62274.27
669.711	62328.5
670.06	62258.67
670.41	62180.48
670.76	62201.27
671.109	62311.1
671.459	62212.35
671.808	62241.05
672.157	62301.38
672.507	62150.43
672.856	62134.61
673.205	62173.03
673.554	62161.95
673.904	62096.42
674.253	62346.58
674.602	62147.72
674.951	61859.81
675.3	61709.08
675.649	62158.34
675.998	62057.78
676.346	62107.72
676.695	62115.4
677.044	62015.52
677.393	62084.89
677.741	62086.02
678.09	62024.56
678.438	61944.56
678.787	61975.07
679.135	62037.21
679.484	61934.39
679.832	61974.84
680.181	61897.33
680.529	61921.96
680.877	61853.94
681.225	61852.81
681.573	62048.51
681.922	61846.26
682.27	61779.14
682.618	61788.63
682.966	61769.65
683.314	61758.8
683.661	61768.97
684.009	61733.72
684.357	61616.66
684.705	61565.81
685.053	61595.19
685.4	61519.94
685.748	61512.25
686.095	61465.47
686.443	61441.07
686.79	61371.24
687.138	61512.03
687.485	61464.57
687.832	61329.43
688.18	61379.15
688.527	61301.41
688.874	61292.82
689.221	61221.19
689.568	61140.74
689.915	61114.07
690.262	61152.94
690.609	61081.3
690.956	60954.53
691.303	60976.9
691.65	60858.03
691.997	60887.41
692.344	60788.88
692.69	60745.04
693.037	60772.84
693.383	60548.89
693.73	60657.59
694.077	60496.01
694.423	60493.07
694.769	60409
695.116	60387.31
695.462	60286.3
695.808	60197.94
696.155	60343.47
696.501	60114.78
696.847	60176.02
697.193	60010.6
697.539	60060.31
697.885	59879.75
698.231	59862.35
698.577	59819.19
698.923	59835.69
699.269	59616.71
699.614	59586.2
699.96	59442.7
700.306	59504.17
700.651	59432.08
700.997	59335.13
701.342	59272.99
701.688	59281.58
702.033	59188.47
702.379	59191.41
702.724	59054.69
703.069	59051.07
703.415	58807.69
703.76	58725.89
704.105	58808.37
704.45	58697.19
704.795	58630.75
705.14	58512.78
705.485	58543.52
705.83	58351.21
706.175	58438.66
706.52	58412
706.865	58284.09
707.209	58287.7
707.554	58230.31
707.899	58150.99
708.243	58054.26
708.588	57972.01
708.932	57904.89
709.277	57916.87
709.621	57816.3
709.966	57715.06
710.31	57692.69
710.654	57565.24
710.998	57598.23
711.342	57606.14
711.687	57469.42
712.031	57432.13
712.375	57327.73
712.719	57299.48
713.063	57234.85
713.407	57354.4
713.75	57209.99
714.094	57119.15
714.438	56994.63
714.782	57094.29
715.125	56962.77
715.469	57041.64
715.812	56827.4
716.156	56826.05
716.499	56764.58
716.843	56828.08
717.186	56665.6
717.53	56847.06
717.873	56805.03
718.216	56667.86
718.559	56502.89
718.902	56444.59
719.246	56437.58
719.589	56345.61
719.932	56154.65
720.275	56217.93
720.617	56226.74
720.96	56152.39
721.303	56250.02
721.646	56291.6
721.989	56031.27
722.331	56135.22
722.674	55962.12
723.016	56010.02
723.359	55908.11
723.701	55949.24
724.044	55787.21
724.386	55688
724.729	55766.42
725.071	55716.47
725.413	55624.5
725.755	55625.4
726.097	55509.92
726.439	55470.15
726.782	55389.25
727.124	55538.62
727.465	55383.83
727.807	55315.35
728.149	55338.86
728.491	55229.93
728.833	55301.79
729.175	55219.31
729.516	55171.63
729.858	55181.12
730.199	55172.98
730.541	55078.07
730.882	54985.19
731.224	55067.45
731.565	54874.69
731.906	54920.79
732.248	54967.11
732.589	54797.17
732.93	54713.11
733.271	54765.76
733.612	54655.03
733.953	54693.67
734.294	54608.71
734.635	54574.36
734.976	54742.71
735.317	54480.35
735.658	54508.6
735.999	54387.69
736.339	54493.68
736.68	54408.48
737.021	54369.39
737.361	54303.85
737.702	54385.43
738.042	54298.88
738.383	54332.55
738.723	54307.24
739.063	54095.05
739.404	54165.33
739.744	54117.64
740.084	54090.75
740.424	54104.76
740.764	54008.95
741.104	54060.02
741.444	53888.95
741.784	53838.56
742.124	53963.75
742.464	53779.8
742.804	53846.47
743.143	53622.06
743.483	53748.16
743.823	53624.32
744.162	53664.1
744.502	53683.53
744.841	53609.64
745.181	53581.16
745.52	53409.41
745.86	53489.64
746.199	53379.13
746.538	53420.71
746.877	53452.35
747.216	53409.64
747.556	53274.05
747.895	53262.07
748.234	53198.57
748.573	53149.08
748.911	53100.04
749.25	53037.45
749.589	52979.14
749.928	52935.53
750.267	53012.36
750.605	52939.37
750.944	52906.83
751.283	52761.52
751.621	52779.83
751.96	52625.25
752.298	52688.76
752.636	52657.12
752.975	52520.62
753.313	52459.16
753.651	52511.81
753.989	52343.23
754.327	52308.2
754.666	52156.79
755.004	52182.55
755.342	52142.1
