Data from 5405_FLMS001491_009.txt Node
Date: Thu Apr 19 16:38:29 BST 2018
User: hsy
Spectrometer: FLMS00149
Trigger mode: 0
Integration Time (sec): 1.000000E-2
Scans to average: 10
Electric dark correction enabled: true
Nonlinearity correction enabled: false
Boxcar width: 0
XAxis mode: Wavelengths
Number of Pixels in Spectrum: 2048
>>>>>Begin Spectral Data<<<<<
341.393	9.24
341.776	9.24
342.16	9.24
342.543	-54.04
342.927	-73.92
343.31	-62.17
343.693	-82.29
344.077	-76.18
344.46	-59.91
344.843	-39.58
345.226	-43.64
345.61	-35.73
345.993	-17.43
346.376	6.3
346.759	6.98
347.142	6.53
347.525	53.76
347.908	47.88
348.291	72.96
348.674	103.92
349.057	118.61
349.44	133.08
349.823	146.63
350.206	167.42
350.588	217.59
350.971	215.79
351.354	269.34
351.737	255.56
352.119	273.86
352.502	267.76
352.884	300.3
353.267	295.11
353.65	335.56
354.032	324.03
354.414	334.65
354.797	329
355.179	336.23
355.562	343.69
355.944	360.87
356.326	366.52
356.709	350.92
357.091	340.98
357.473	349.34
357.855	369
358.238	367.87
358.62	369.45
359.002	380.75
359.384	362.22
359.766	362
360.148	380.75
360.53	355.22
360.912	366.06
361.294	363.58
361.676	371.71
362.057	376.69
362.439	366.97
362.821	370.13
363.203	353.86
363.584	375.78
363.966	370.36
364.348	370.58
364.729	371.71
365.111	332.39
365.493	366.29
365.874	351.83
366.256	353.18
366.637	345.27
367.019	363.35
367.4	366.29
367.781	365.16
368.163	362
368.544	365.84
368.925	335.33
369.306	362.22
369.688	364.48
370.069	362.9
370.45	347.08
370.831	380.07
371.212	354.31
371.593	362.45
371.974	361.54
372.355	340.3
372.736	346.86
373.117	365.39
373.498	369
373.879	367.42
374.26	365.84
374.641	371.71
375.021	360.64
375.402	375.56
375.783	376.23
376.163	401.09
376.544	386.18
376.925	387.53
377.305	383.92
377.686	400.41
378.066	370.81
378.447	384.37
378.827	421.66
379.208	390.92
379.588	395.22
379.968	413.29
380.349	385.27
380.729	417.36
381.109	400.87
381.489	412.62
381.87	406.29
382.25	419.4
382.63	405.16
383.01	440.41
383.39	387.08
383.77	430.69
384.15	420.53
384.53	431.15
384.91	440.64
385.29	418.27
385.67	426.4
386.049	419.4
386.429	427.31
386.809	437.7
387.189	444.93
387.568	450.58
387.948	449
388.328	451.94
388.707	487.19
389.087	487.42
389.466	472.28
389.846	460.98
390.225	482.67
390.605	481.54
390.984	459.62
391.363	485.83
391.743	476.8
392.122	471.82
392.501	482.9
392.881	493.07
393.26	496
393.639	510.92
394.018	493.52
394.397	500.07
394.776	529.45
395.155	517.7
395.534	514.31
395.913	545.49
396.292	522.67
396.671	538.71
397.05	522.67
397.429	534.87
397.808	549.79
398.186	539.39
398.565	540.97
398.944	559.51
399.323	567.41
399.701	558.83
400.08	564.48
400.458	580.97
400.837	592.95
401.215	565.15
401.594	572.16
401.972	585.95
402.351	588.2
402.729	595.44
403.107	613.51
403.486	588.88
403.864	612.84
404.242	620.52
404.62	621.65
404.999	606.28
405.377	623.68
405.755	636.11
406.133	648.54
406.511	664.14
406.889	671.14
407.267	654.87
407.645	664.14
408.023	694.64
408.401	694.42
408.779	695.32
409.156	712.72
409.534	706.39
409.912	732.61
410.29	734.42
410.667	704.81
411.045	764.7
411.422	730.12
411.8	758.82
412.178	768.77
412.555	761.99
412.933	799.5
413.31	792.27
413.687	794.75
414.065	830.01
414.442	821.65
414.819	853.28
415.197	808.09
415.574	862.1
415.951	840.4
416.328	872.04
416.705	864.13
417.082	857.58
417.46	869.33
417.837	873.17
418.214	889.89
418.591	899.16
418.967	872.72
419.344	922.21
419.721	907.52
420.098	899.84
420.475	901.42
420.852	937.8
421.228	971.92
421.605	958.82
421.982	965.82
422.358	971.7
422.735	990
423.111	1038.14
423.488	1037.68
423.864	1016.44
424.241	1023.67
424.617	1033.62
424.994	1048.08
425.37	1043.79
425.746	1062.32
426.123	1071.81
426.499	1111.35
426.875	1094.86
427.251	1129.66
427.627	1127.63
428.003	1155.65
428.379	1145.93
428.756	1148.64
429.132	1183.44
429.507	1190.45
429.883	1201.07
430.259	1224.57
430.635	1247.4
431.011	1254.85
431.387	1268.41
431.763	1306.83
432.138	1279.03
432.514	1276.1
432.89	1318.58
433.265	1334.4
433.641	1366.72
434.016	1369.43
434.392	1388.86
434.767	1411.46
435.143	1406.71
435.518	1425.7
435.894	1450.1
436.269	1481.06
436.644	1484
437.02	1507.28
437.395	1530.78
437.77	1545.24
438.145	1554.06
438.52	1578.91
438.895	1587.5
439.271	1548.18
439.646	1615.07
440.021	1639.7
440.395	1648.29
440.77	1650.32
441.145	1645.35
441.52	1681.28
441.895	1686.26
442.27	1698.46
442.645	1694.39
443.019	1714.5
443.394	1730.55
443.769	1702.07
444.143	1735.97
444.518	1756.76
444.892	1747.04
445.267	1780.72
445.641	1797.66
446.016	1816.87
446.39	1815.07
446.764	1829.53
447.139	1826.82
447.513	1847.83
447.887	1846.02
448.262	1888.28
448.636	1870.21
449.01	1925.57
449.384	1931.67
449.758	1927.38
450.132	1959.24
450.506	1925.8
450.88	1974.38
451.254	1961.05
451.628	2017.32
452.002	1995.17
452.376	2088.5
452.75	2099.13
453.123	2061.84
453.497	2117.2
453.871	2109.75
454.244	2169.86
454.618	2166.92
454.992	2196.98
455.365	2197.65
455.739	2257.54
456.112	2272
456.486	2300.25
456.859	2310.42
457.232	2386.58
457.606	2386.58
457.979	2408.5
458.352	2441.94
458.725	2493.24
459.099	2476.52
459.472	2514.93
459.845	2574.82
460.218	2571.43
460.591	2625.67
460.964	2658.66
461.337	2671.99
461.71	2718.54
462.083	2743.4
462.456	2763.06
462.829	2781.59
463.201	2825.43
463.574	2834.7
463.947	2847.35
464.32	2926.22
464.692	2942.04
465.065	2980.46
465.438	2997.86
465.81	3052.32
466.183	3032.89
466.555	3105.43
466.928	3134.13
467.3	3104.52
467.672	3174.58
468.045	3236.5
468.417	3231.75
468.789	3296.38
469.161	3297.51
469.534	3355.82
469.906	3439.88
470.278	3408.7
470.65	3458.86
471.022	3582.25
471.394	3586.32
471.766	3621.57
472.138	3629.25
472.51	3727.11
472.882	3770.27
473.253	3806.43
473.625	3865.18
473.997	3933.65
474.369	3953.09
474.74	4012.3
475.112	4065.63
475.484	4091.62
475.855	4161.9
476.227	4215.45
476.598	4372.74
476.97	4393.08
477.341	4500.87
477.713	4521.43
478.084	4532.28
478.455	4637.36
478.827	4715.1
479.198	4830.81
479.569	4848.43
479.94	4958.26
480.311	5000.74
480.682	5098.59
481.053	5267.86
481.424	5312.6
481.795	5353.05
482.166	5435.76
482.537	5507.62
482.908	5574.97
483.279	5662.87
483.65	5788.75
484.021	5898.35
484.391	5885.01
484.762	6064.22
485.133	6106.93
485.503	6124.1
485.874	6308.73
486.244	6372.46
486.615	6470.08
486.985	6566.58
487.356	6650.64
487.726	6692.45
488.097	6848.38
488.467	6863.75
488.837	6993.69
489.207	7099.67
489.578	7215.83
489.948	7314.36
490.318	7379.66
490.688	7456.5
491.058	7587.79
491.428	7651.3
491.798	7748.69
492.168	7862.82
492.538	7913.89
492.908	8028.24
493.278	8169.7
493.648	8162.24
494.017	8269.36
494.387	8326.53
494.757	8404.72
495.126	8510.03
495.496	8638.39
495.866	8632.74
496.235	8736.92
496.605	8819.17
496.974	8895.56
497.344	8954.54
497.713	9019.62
498.082	9011.71
498.452	9140.07
498.821	9195.21
499.19	9279.05
499.559	9275.43
499.928	9480.85
500.298	9388.65
500.667	9536.67
501.036	9529.66
501.405	9613.05
501.774	9636.33
502.143	9729.43
502.512	9740.51
502.88	9843.78
503.249	9867.28
503.618	9985.47
503.987	9955.87
504.356	9996.32
504.724	10129.65
505.093	10172.36
505.462	10218.46
505.83	10298.01
506.199	10375.52
506.567	10489.19
506.936	10435.86
507.304	10564.67
507.672	10661.39
508.041	10700.93
508.409	10768.05
508.777	10884.43
509.145	10981.6
509.514	10933.92
509.882	10953.81
510.25	11032.68
510.618	11112.22
510.986	11186.34
511.354	11304.76
511.722	11410.52
512.09	11535.71
512.458	11508.37
512.826	11626.11
513.193	11554.7
513.561	11683.73
513.929	11821.58
514.297	11894.8
514.664	11896.83
515.032	12013.44
515.4	12108.58
515.767	12191.52
516.135	12274
516.502	12215.47
516.869	12385.63
517.237	12459.08
517.604	12423.83
517.972	12748.56
518.339	12755.57
518.706	12762.12
519.073	12814.55
519.44	12920.08
519.808	13097.71
520.175	13118.5
520.542	13237.59
520.909	13378.38
521.276	13387.42
521.643	13528.88
522.009	13591.93
522.376	13652.95
522.743	13765.94
523.11	13981.98
523.477	14055.87
523.843	14132.71
524.21	14357.56
524.577	14424
524.943	14457.44
525.31	14609.76
525.676	14726.59
526.043	14837.77
526.409	14929.52
526.776	15120.48
527.142	15096.75
527.508	15197.09
527.874	15340.59
528.241	15421.94
528.607	15499.23
528.973	15655.38
529.339	15612.44
529.705	15901.93
530.071	15996.84
530.437	16092.66
530.803	16134.69
531.169	16247.91
531.535	16303.27
531.901	16328.58
532.267	16375.81
532.632	16488.58
532.998	16633.21
533.364	16711.17
533.73	16752.98
534.095	16846.53
534.461	16897.61
534.826	16987.55
535.192	17126.08
535.557	17097.15
535.923	17179.86
536.288	17326.97
536.653	17338.72
537.019	17422.79
537.384	17422.79
537.749	17531.49
538.114	17445.84
538.479	17498.27
538.845	17621.43
539.21	17580.07
539.575	17722.22
539.94	17756.12
540.305	17884.02
540.67	17971.7
541.034	17902.55
541.399	17987.52
541.764	17986.17
542.129	18012.38
542.494	18129.66
542.858	18246.5
543.223	18119.27
543.587	18227.29
543.952	18271.13
544.316	18370.56
544.681	18297.34
545.045	18430.67
545.41	18457.11
545.774	18463.22
546.138	18513.16
546.503	18542.08
546.867	18502.76
547.231	18622.98
547.595	18713.6
547.959	18792.02
548.324	18780.04
548.688	18764.45
549.052	18854.84
549.416	18825.01
549.779	18909.98
550.143	18892.36
550.507	19036.76
550.871	19140.03
551.235	19072.01
551.599	19304.55
551.962	19228.39
552.326	19300.48
552.689	19356.98
553.053	19227.26
553.417	19429.52
553.78	19596.97
554.143	19604.88
554.507	19639.91
554.87	19608.95
555.234	19780.02
555.597	19666.35
555.96	19836.96
556.323	19890.97
556.686	19982.72
557.05	20102.72
557.413	20140.01
557.776	20114.92
558.139	20293
558.502	20290.06
558.865	20338.19
559.228	20488.02
559.59	20542.71
559.953	20679.65
560.316	20857.73
560.679	20869.25
561.041	21014.56
561.404	21081.9
561.767	21248.45
562.129	21098.63
562.492	21295.23
562.854	21411.84
563.217	21507.65
563.579	21444.38
563.941	21702
564.304	21842.11
564.666	22141.54
565.028	22163.68
565.39	22185.83
565.753	22363.68
566.115	22467.4
566.477	22645.93
566.839	22755.31
567.201	23073.72
567.563	23067.16
567.925	23189.87
568.287	23268.74
568.648	23348.06
569.01	23514.16
569.372	23789.85
569.734	23879.34
570.095	23986.01
570.457	24154.14
570.819	24196.85
571.18	24362.5
571.542	24493.11
571.903	24598.42
572.265	24757.96
572.626	25029.37
572.987	25015.36
573.349	25257.16
573.71	25489.02
574.071	25476.14
574.432	25726.98
574.794	25960.87
575.155	26023.69
575.516	26120.19
575.877	26354.08
576.238	26260.98
576.599	26370.35
576.96	26520.86
577.32	26636.79
577.681	26757.23
578.042	26999.26
578.403	27078.81
578.763	27058.7
579.124	27134.85
579.485	27243.32
579.845	27446.48
580.206	27465.69
580.566	27645.8
580.927	27474.05
581.287	27760.6
581.648	27659.13
582.008	27804.89
582.368	27879.92
582.728	27897.32
583.089	27838.34
583.449	27887.83
583.809	27974.15
584.169	28027.48
584.529	27949.97
584.889	28257.53
585.249	28142.06
585.609	28026.13
585.969	28204.43
586.329	28164.88
586.688	28265.67
587.048	28284.2
587.408	28275.61
587.768	28235.84
588.127	28378.66
588.487	28250.08
588.846	28516.06
589.206	28250.98
589.565	28357.19
589.925	28540.92
590.284	28341.6
590.643	28354.25
591.003	28449.62
591.362	28551.09
591.721	28535.04
592.08	28523.52
592.44	28703.4
592.799	28620.01
593.158	28624.3
593.517	28624.3
593.876	28649.16
594.235	28667.69
594.593	28629.95
594.952	28734.13
595.311	28758.76
595.67	28828.37
596.029	28847.8
596.387	28952.43
596.746	28967.57
597.104	28871.53
597.463	28912.43
597.822	28995.59
598.18	28973.67
598.538	28958.31
598.897	29067.46
599.255	28999.44
599.613	29274.91
599.972	29141.8
600.33	29280.33
600.688	29213.44
601.046	29269.03
601.404	29498.18
601.762	29259.32
602.12	29458.86
602.478	29492.98
602.836	29554.67
603.194	29326.21
603.552	29566.88
603.91	29510.61
604.268	29624.5
604.625	29713.31
604.983	29838.28
605.341	29629.48
605.698	29749.47
606.056	29809.58
606.413	29792.63
606.771	29946.53
607.128	29909.92
607.485	29884.84
607.843	29912.86
608.2	30060.2
608.557	30149.46
608.914	30042.12
609.272	30257.03
609.629	30339.96
609.986	30470.81
610.343	30321.43
610.7	30618.83
611.057	30490.47
611.414	30484.14
611.771	30502.67
612.127	30657.02
612.484	30713.06
612.841	30715.32
613.198	30697.24
613.554	30697.24
613.911	30899.95
614.267	30825.6
614.624	30831.48
614.98	30862.21
615.337	31226.04
615.693	31181.52
616.05	31040.06
616.406	31300.84
616.762	31233.73
617.118	31298.13
617.475	31155.76
617.831	31345.59
618.187	31388.52
618.543	31450.67
618.899	31534.06
619.255	31502.19
619.611	31440.28
619.967	31705.8
620.323	31727.05
620.678	31617.22
621.034	31574.96
621.39	31592.14
621.746	31571.12
622.101	31889.08
622.457	31707.84
622.812	31785.35
623.168	31825.8
623.523	31909.19
623.879	31962.07
624.234	31753.71
624.589	31820.6
624.945	31856.08
625.3	31939.7
625.655	31997.77
626.01	31861.51
626.365	32052.91
626.72	31881.39
627.075	31838.23
627.43	31719.14
627.785	31940.6
628.14	31844.11
628.495	31787.61
628.85	32010.88
629.205	31892.01
629.559	31874.61
629.914	31805.01
630.269	31910.77
630.623	31720.95
630.978	31664.9
631.332	31989.19
631.687	31802.75
632.041	31792.13
632.396	31786.03
632.75	31591.46
633.104	31716.65
633.459	31450.22
633.813	31517.11
634.167	31515.98
634.521	31402.54
634.875	31536.77
635.229	31277.79
635.583	31341.29
635.937	31213.39
636.291	31176.55
636.645	31226.27
636.999	31089.55
637.352	31212.26
637.706	31001.64
638.06	31140.85
638.413	30996.9
638.767	30975.65
639.121	31178.81
639.474	30939.95
639.828	30954.64
640.181	30852.95
640.534	30966.39
640.888	30864.47
641.241	30657.47
641.594	30666.28
641.947	30775.89
642.301	30669.45
642.654	30670.35
643.007	30552.16
643.36	30700.63
643.713	30654.08
644.066	30756
644.419	30471.03
644.771	30205.96
645.124	29842.58
645.477	29899.52
645.83	29863.14
646.182	29752.41
646.535	29671.51
646.888	29785.18
647.24	29810.94
647.593	29837.38
647.945	29793.76
648.298	29669.25
648.65	29505.64
649.002	29390.84
649.355	29224.29
649.707	29088.25
650.059	29167.57
650.411	29565.07
650.763	29738.62
651.115	30274.2
651.467	30091.16
651.819	30089.35
652.171	29978.17
652.523	30022.23
652.875	30056.36
653.227	29836.48
653.578	30156.47
653.93	29989.24
654.282	29977.94
654.633	29891.16
654.985	29944.95
655.337	29843.03
655.688	29853.42
656.039	30008.22
656.391	29683.03
656.742	29853.65
657.094	29736.14
657.445	29726.2
657.796	29754.44
658.147	29737.27
658.498	29805.52
658.849	29783.6
659.2	29713.31
659.551	29721
659.902	29846.64
660.253	29784.5
660.604	29816.81
660.955	29808
661.306	29950.14
661.656	29820.2
662.007	29696.14
662.358	29728.68
662.708	29900.43
663.059	29712.64
663.409	29664.73
663.76	29841.22
664.11	29935.23
664.461	29945.85
664.811	29928.9
665.161	29859.53
665.511	29885.29
665.862	29804.84
666.212	29784.05
666.562	29918.73
666.912	29709.25
667.262	29796.02
667.612	29929.13
667.962	29853.2
668.312	29772.52
668.662	30104.94
669.011	29788.57
669.361	29869.02
669.711	29790.37
670.06	29783.37
670.41	29712.64
670.76	29726.2
671.109	29850.94
671.459	29859.3
671.808	29775.91
672.157	29749.92
672.507	29646.88
672.856	29487.56
673.205	29690.72
673.554	29757.83
673.904	29509.03
674.253	29894.55
674.602	29517.84
674.951	29154.91
675.3	28993.33
675.649	29519.2
675.998	29467.45
676.346	29535.24
676.695	29532.53
677.044	29370.5
677.393	29577.27
677.741	29416.15
678.09	29476.03
678.438	29350.39
678.787	29403.94
679.135	29293.66
679.484	29265.87
679.832	29273.33
680.181	29189.03
680.529	29274.46
680.877	29178.64
681.225	29085.31
681.573	29262.93
681.922	29081.02
682.27	28976.61
682.618	28954.69
682.966	28880.79
683.314	28935.48
683.661	28900.45
684.009	28714.47
684.357	28606.68
684.705	28523.52
685.053	28621.37
685.4	28423.63
685.748	28508.6
686.095	28551.31
686.443	28328.94
686.79	28250.98
687.138	28327.59
687.485	28336.63
687.832	28159.68
688.18	28141.83
688.527	27888.96
688.874	27908.39
689.221	27948.62
689.568	27775.29
689.915	27790.43
690.262	27702.97
690.609	27683.09
690.956	27448.52
691.303	27511.34
691.65	27445.35
691.997	27337.56
692.344	27069.32
692.69	27083.33
693.037	27115.42
693.383	26884.91
693.73	26780.06
694.077	26693.06
694.423	26652.6
694.769	26532.38
695.116	26683.34
695.462	26472.27
695.808	26357.02
696.155	26293.52
696.501	26091.26
696.847	26311.14
697.193	25968.1
697.539	26059.63
697.885	25768.33
698.231	25631.16
698.577	25761.55
698.923	25613.08
699.269	25417.83
699.614	25338.97
699.96	25313.43
700.306	25383.94
700.651	25144.17
700.997	25077.05
701.342	25004.74
701.688	24916.83
702.033	24751.19
702.379	24824.86
702.724	24597.29
703.069	24746.67
703.415	24495.82
703.76	24448.14
704.105	24386.45
704.45	24343.29
704.795	24138.32
705.14	24107.13
705.485	23977.42
705.83	23864.65
706.175	23929.29
706.52	23861.04
706.865	23761.83
707.209	23735.17
707.554	23653.81
707.899	23636.19
708.243	23588.28
708.588	23532.69
708.932	23349.64
709.277	23468.06
709.621	23317.1
709.966	23126.37
710.31	23167.5
710.654	23045.92
710.998	23099.7
711.342	23042.76
711.687	23045.02
712.031	22977.9
712.375	22876.66
712.719	22847.05
713.063	22843.66
713.407	22981.06
713.75	22785.36
714.094	22808.41
714.438	22569.77
714.782	22676.89
715.125	22567.97
715.469	22775.64
715.812	22512.6
716.156	22494.97
716.499	22511.7
716.843	22505.82
717.186	22388.76
717.53	22568.64
717.873	22489.55
718.216	22456.1
718.559	22287.97
718.902	22133.4
719.246	22168.2
719.589	22195.09
719.932	22026.96
720.275	22142.44
720.617	22144.25
720.96	22068.32
721.303	22173.85
721.646	22146.96
721.989	22132.95
722.331	22073.74
722.674	21956.23
723.016	22147.64
723.359	21899.96
723.701	21926.63
724.044	21999.62
724.386	21906.06
724.729	21959.39
725.071	21999.17
725.413	21841.88
725.755	21827.42
726.097	21826.52
726.439	21764.6
726.782	21862.22
727.124	21905.84
727.465	21908.55
727.807	21783.13
728.149	21868.32
728.491	21752.62
728.833	21779.29
729.175	21799.85
729.516	21708.55
729.858	21706.07
730.199	21710.81
730.541	21573.19
730.882	21631.49
731.224	21700.64
731.565	21658.16
731.906	21720.08
732.248	21675.79
732.589	21585.17
732.93	21623.58
733.271	21615.9
733.612	21599.63
733.953	21677.37
734.294	21716.69
734.635	21652.28
734.976	21885.95
735.317	21789.46
735.658	21700.42
735.999	21597.82
736.339	21679.85
736.68	21798.27
737.021	21751.72
737.361	21727.54
737.702	21869.45
738.042	21774.77
738.383	21845.5
738.723	21840.3
739.063	21812.51
739.404	21913.75
739.744	21936.8
740.084	21822.22
740.424	21906.74
740.764	21847.08
741.104	21995.1
741.444	21937.25
741.784	21864.93
742.124	21992.16
742.464	22071.71
742.804	21998.72
743.143	22084.36
743.483	22136.79
743.823	22087.98
744.162	22108.32
744.502	22117.36
744.841	22210.01
745.181	22388.99
745.52	22237.81
745.86	22340.4
746.199	22370.01
746.538	22426.95
746.877	22558.7
747.216	22481.19
747.556	22478.93
747.895	22702.65
748.234	22705.82
748.573	22760.96
748.911	22660.62
749.25	22845.02
749.589	22683.22
749.928	22824.68
750.267	22984.45
750.605	23026.94
750.944	23135.41
751.283	23047.95
751.621	23296.76
751.96	23248.85
752.298	23221.28
752.636	23313.94
752.975	23256.31
753.313	23383.31
753.651	23463.54
753.989	23534.27
754.327	23567.04
754.666	23454.04
755.004	23791.66
755.342	23751.66
755.679	23767.26
