Data from 5405_FLMS001491_008.txt Node
Date: Thu Apr 19 16:38:27 BST 2018
User: hsy
Spectrometer: FLMS00149
Trigger mode: 0
Integration Time (sec): 1.000000E-2
Scans to average: 10
Electric dark correction enabled: true
Nonlinearity correction enabled: false
Boxcar width: 0
XAxis mode: Wavelengths
Number of Pixels in Spectrum: 2048
>>>>>Begin Spectral Data<<<<<
341.393	-30.89
341.776	-30.89
342.16	-30.89
342.543	-62.3
342.927	-66.82
343.31	-73.6
343.693	-66.37
344.077	-65.01
344.46	-58.46
344.843	-52.36
345.226	-40.38
345.61	-18.23
345.993	-25.69
346.376	-10.55
346.759	8.21
347.142	28.77
347.525	40.3
347.908	71.26
348.291	85.27
348.674	83.23
349.057	93.63
349.44	127.75
349.823	154.19
350.206	185.38
350.588	217.69
350.971	240.74
351.354	259.05
351.737	274.19
352.119	282.55
352.502	285.71
352.884	297.69
353.267	325.03
353.65	333.4
354.032	339.5
354.414	326.84
354.797	322.32
355.179	346.05
355.562	364.58
355.944	363.68
356.326	340.63
356.709	351.7
357.091	354.86
357.473	346.95
357.855	367.97
358.238	372.49
358.62	374.75
359.002	392.38
359.384	383.56
359.766	393.28
360.148	362.55
360.53	383.11
360.912	384.69
361.294	363.45
361.676	374.75
362.057	381.3
362.439	351.02
362.821	371.59
363.203	363.68
363.584	352.83
363.966	358.71
364.348	379.95
364.729	348.54
365.111	362.77
365.493	379.5
365.874	360.29
366.256	370.68
366.637	352.15
367.019	361.87
367.4	363.9
367.781	352.38
368.163	340.85
368.544	361.19
368.925	346.73
369.306	362.55
369.688	349.89
370.069	352.38
370.45	341.98
370.831	351.02
371.212	369.78
371.593	354.86
371.974	356.22
372.355	353.73
372.736	355.77
373.117	377.24
373.498	365.71
373.879	372.04
374.26	363.9
374.641	356.45
375.021	395.31
375.402	365.03
375.783	375.2
376.163	379.04
376.544	387.18
376.925	379.27
377.305	390.79
377.686	391.02
378.066	373.85
378.447	413.39
378.827	402.55
379.208	406.61
379.588	418.36
379.968	411.59
380.349	421.53
380.729	409.78
381.109	433.05
381.489	408.42
381.87	407.07
382.25	417.69
382.63	400.74
383.01	420.62
383.39	412.49
383.77	430.57
384.15	435.09
384.53	429.44
384.91	437.12
385.29	445.71
385.67	450.23
386.049	460.4
386.429	447.97
386.809	446.16
387.189	471.24
387.568	461.3
387.948	467.4
388.328	483.22
388.707	451.58
389.087	474.18
389.466	457.69
389.846	465.6
390.225	473.73
390.605	474.63
390.984	486.84
391.363	473.28
391.743	492.94
392.122	499.49
392.501	480.06
392.881	497.46
393.26	489.78
393.639	506.5
394.018	480.06
394.397	481.19
394.776	513.96
395.155	504.92
395.534	529.32
395.913	533.62
396.292	502.2
396.671	539.04
397.05	540.85
397.429	541.53
397.808	542.2
398.186	534.29
398.565	529.77
398.944	562.54
399.323	558.25
399.701	572.71
400.08	594.63
400.458	565.48
400.837	578.59
401.215	581.75
401.594	582.43
401.972	581.98
402.351	611.35
402.729	584.46
403.107	589.21
403.486	586.27
403.864	600.51
404.242	599.15
404.62	614.29
404.999	600.96
405.377	629.66
405.755	649.09
406.133	641.41
406.511	638.47
406.889	650.45
407.267	680.73
407.645	685.25
408.023	656.78
408.401	680.28
408.779	676.21
409.156	724.57
409.534	694.52
409.912	725.25
410.29	717.57
410.667	734.29
411.045	750.56
411.422	764.34
411.8	732.93
412.178	791.24
412.555	783.78
412.933	761.18
413.31	793.72
413.687	795.76
414.065	785.13
414.442	819.71
414.819	827.39
415.197	836.66
415.574	852.48
415.951	877.11
416.328	854.74
416.705	847.05
417.082	856.09
417.46	876.88
417.837	892.02
418.214	874.85
418.591	876.66
418.967	908.07
419.344	912.14
419.721	934.06
420.098	912.59
420.475	918.92
420.852	932.02
421.228	951.23
421.605	944.9
421.982	944.45
422.358	982.19
422.735	988.75
423.111	1014.28
423.488	979.48
423.864	1010.44
424.241	1012.93
424.617	1026.48
424.994	1018.8
425.37	1034.39
425.746	1078.91
426.123	1066.48
426.499	1052.92
426.875	1078.23
427.251	1123.43
427.627	1138.35
428.003	1111
428.379	1150.32
428.756	1142.64
429.132	1180.83
429.507	1173.15
429.883	1184.45
430.259	1211.11
430.635	1217.44
431.011	1229.87
431.387	1253.6
431.763	1292.69
432.138	1285.01
432.514	1310.32
432.89	1316.19
433.265	1323.65
433.641	1340.83
434.016	1340.6
434.392	1386.02
434.767	1394.84
435.143	1387.38
435.518	1394.38
435.894	1436.87
436.269	1466.92
436.644	1495.85
437.02	1493.59
437.395	1466.02
437.77	1541.5
438.145	1541.5
438.52	1542.63
438.895	1552.12
439.271	1563.65
439.646	1600.48
440.021	1598.9
440.395	1623.98
440.77	1593.02
441.145	1609.97
441.52	1683.87
441.895	1643.64
442.27	1675.96
442.645	1699.01
443.019	1675.73
443.394	1698.78
443.769	1700.14
444.143	1699.91
444.518	1719.35
444.892	1716.86
445.267	1723.19
445.641	1734.26
446.016	1781.72
446.39	1788.05
446.764	1789.63
447.139	1774.71
447.513	1786.24
447.887	1817.88
448.262	1804.99
448.636	1819.91
449.01	1870.53
449.384	1847.93
449.758	1874.15
450.132	1920.92
450.506	1901.49
450.88	1917.53
451.254	1950.75
451.628	1946.01
452.002	2003.86
452.376	2007.02
452.75	2012.45
453.123	2019
453.497	2034.14
453.871	2098.09
454.244	2105.1
454.618	2105.55
454.992	2139
455.365	2196.85
455.739	2218.77
456.112	2248.37
456.486	2255.38
456.859	2290.41
457.232	2330.63
457.606	2318.2
457.979	2358.88
458.352	2383.06
458.725	2410.18
459.099	2447.01
459.472	2434.36
459.845	2504.64
460.218	2500.8
460.591	2566.1
460.964	2558.65
461.337	2661.47
461.71	2631.41
462.083	2681.36
462.456	2667.8
462.829	2669.83
463.201	2783.95
463.574	2719.1
463.947	2834.12
464.32	2826.66
464.692	2857.62
465.065	2883.84
465.438	2878.19
465.81	2918.86
466.183	2971.07
466.555	3024.62
466.928	3055.58
467.3	3049.93
467.672	3054.23
468.045	3123.6
468.417	3184.17
468.789	3180.78
469.161	3185.75
469.534	3256.71
469.906	3310.49
470.278	3330.83
470.65	3367.67
471.022	3452.18
471.394	3509.13
471.766	3506.65
472.138	3567.66
472.51	3623.25
472.882	3667.54
473.253	3715.68
473.625	3750.48
473.997	3803.59
474.369	3852.62
474.74	3900.08
475.112	3969.46
475.484	3993.41
475.855	4091.04
476.227	4095.1
476.598	4240.41
476.97	4259.85
477.341	4316.12
477.713	4379.39
478.084	4450.58
478.455	4523.79
478.827	4533.96
479.198	4663.22
479.569	4696.22
479.94	4822.77
480.311	4873.39
480.682	4913.16
481.053	5026.83
481.424	5144.57
481.795	5216.88
482.166	5289.88
482.537	5323.32
482.908	5394.73
483.279	5528.96
483.65	5616.87
484.021	5704.55
484.391	5747.72
484.762	5814.83
485.133	5846.02
485.503	5922.63
485.874	6056.63
486.244	6145.9
486.615	6247.36
486.985	6320.36
487.356	6463.86
487.726	6478.77
488.097	6610.07
488.467	6684.19
488.837	6821.13
489.207	6915.37
489.578	6951.75
489.948	7076.04
490.318	7152.42
490.688	7166.21
491.058	7311.74
491.428	7387
491.798	7477.16
492.168	7649.36
492.538	7680.32
492.908	7850.26
493.278	7825.85
493.648	7956.47
494.017	8031.05
494.387	8071.04
494.757	8158.73
495.126	8254.99
495.496	8245.5
495.866	8413.41
496.235	8489.34
496.605	8513.97
496.974	8630.13
497.344	8679.39
497.713	8728.43
498.082	8788.54
498.452	8890.46
498.821	8917.12
499.19	8928.42
499.559	9009.55
499.928	9065.14
500.298	9197.57
500.667	9216.1
501.036	9244.8
501.405	9291.35
501.774	9348.07
502.143	9484.12
502.512	9536.32
502.88	9566.15
503.249	9582.87
503.618	9668.52
503.987	9727.95
504.356	9832.81
504.724	9862.86
505.093	9876.65
505.462	9916.87
505.83	9965.68
506.199	10058.79
506.567	10173.36
506.936	10169.97
507.304	10332.68
507.672	10401.83
508.041	10394.15
508.409	10505.78
508.777	10579.68
509.145	10681.6
509.514	10608.83
509.882	10708.94
510.25	10725.89
510.618	10866.68
510.986	10845.66
511.354	10954.13
511.722	11079.78
512.09	11122.49
512.458	11186.22
512.826	11272.09
513.193	11340.79
513.561	11409.94
513.929	11484.29
514.297	11556.83
514.664	11651.52
515.032	11727.67
515.4	11799.53
515.767	11887.44
516.135	11970.83
516.502	11953.65
516.869	12132.41
517.237	12159.3
517.604	12167.43
517.972	12451.27
518.339	12453.98
518.706	12526.52
519.073	12614.65
519.44	12660.08
519.808	12781.43
520.175	12803.58
520.542	12977.13
520.909	13092.83
521.276	13064.59
521.643	13243.56
522.009	13304.35
522.376	13492.15
522.743	13533.5
523.11	13644.68
523.477	13749.31
523.843	13890.33
524.21	14148.4
524.577	14155.18
524.943	14233.82
525.31	14324.21
525.676	14473.81
526.043	14601.95
526.409	14640.59
526.776	14849.17
527.142	14927.81
527.508	14999.45
527.874	15167.13
528.241	15195.15
528.607	15354.92
528.973	15455.94
529.339	15485.99
529.705	15660
530.071	15789.03
530.437	15915.58
530.803	16041.91
531.169	16081
531.535	16113.09
531.901	16218.18
532.267	16348.79
532.632	16548.34
532.998	16521.67
533.364	16551.05
533.73	16722.34
534.095	16930.92
534.461	16865.62
534.826	16930.47
535.192	17059.51
535.557	17238.04
535.923	17219.28
536.288	17284.81
536.653	17298.82
537.019	17366.85
537.384	17480.51
537.749	17498.82
538.114	17548.54
538.479	17543.79
538.845	17687.74
539.21	17656.1
539.575	17870.79
539.94	17860.84
540.305	17869.21
540.67	17989.2
541.034	18087.5
541.399	18018.81
541.764	18110.33
542.129	18217.67
542.494	18278.01
542.858	18320.72
543.223	18308.06
543.587	18381.51
543.952	18419.02
544.316	18518.23
544.681	18443.65
545.045	18687.71
545.41	18624.21
545.774	18585.57
546.138	18688.84
546.503	18854.72
546.867	18734.95
547.231	18961.38
547.595	18951.21
547.959	18990.31
548.324	19068.72
548.688	19085.67
549.052	19132.45
549.416	19148.04
549.779	19145.33
550.143	19304.42
550.507	19341.26
550.871	19394.59
551.235	19318.88
551.599	19452.21
551.962	19516.17
552.326	19629.84
552.689	19759.78
553.053	19607.92
553.417	19663.96
553.78	19846.33
554.143	19847.46
554.507	19931.3
554.87	20119.09
555.234	20212.42
555.597	20093.78
555.96	20277.05
556.323	20287.67
556.686	20388.01
557.05	20574.22
557.413	20588.23
557.776	20564.05
558.139	20799.3
558.502	20849.92
558.865	20912.74
559.228	21122.68
559.59	21117.48
559.953	21202.68
560.316	21353.63
560.679	21424.82
561.041	21505.95
561.404	21700.97
561.767	21917.01
562.129	21842.66
562.492	22166.49
562.854	22208.53
563.217	22238.36
563.579	22419.59
563.941	22591.34
564.304	22661.85
564.666	22888.06
565.028	22987.71
565.39	23023.65
565.753	23271.1
566.115	23395.16
566.477	23530.3
566.839	23728.03
567.201	24007.8
567.563	24038.31
567.925	24306.1
568.287	24316.27
568.648	24454.12
569.01	24782.7
569.372	25054.1
569.734	24947.66
570.095	25302.91
570.457	25483.69
570.819	25488.67
571.18	25776.79
571.542	26009.78
571.903	26076.22
572.265	26356.44
572.626	26432.6
572.987	26615.42
573.349	26816.77
573.71	26976.31
574.071	27211.78
574.432	27417.65
574.794	27594.37
575.155	27840.02
575.516	27755.27
575.877	28079.33
576.238	28201.14
576.599	28261.02
576.96	28464.18
577.32	28579.88
577.681	28576.49
578.042	28924.06
578.403	28993.88
578.763	28951.17
579.124	29100.55
579.485	29247.21
579.845	29480.43
580.206	29383.03
580.566	29472.97
580.927	29511.61
581.287	29742.79
581.648	29631.83
582.008	29885.61
582.368	29871.15
582.728	30067.3
583.089	29978.04
583.449	30104.59
583.809	30030.92
584.169	30287.64
584.529	30160.18
584.889	30359.27
585.249	30135.32
585.609	30181.88
585.969	30299.61
586.329	30218.49
586.688	30406.5
587.048	30211.93
587.408	30338.03
587.768	30305.26
588.127	30251.03
588.487	30241.76
588.846	30607.18
589.206	30243.34
589.565	30349.78
589.925	30477.69
590.284	30505.48
590.643	30417.58
591.003	30473.62
591.362	30578.02
591.721	30635.42
592.08	30473.85
592.44	30764.46
592.799	30649.89
593.158	30576.44
593.517	30667.29
593.876	30702.09
594.235	30702.99
594.593	30679.94
594.952	30749.54
595.311	30725.82
595.67	30816.44
596.029	30873.61
596.387	31014.85
596.746	30999.03
597.104	30861.18
597.463	30979.6
597.822	31063.89
598.18	31012.59
598.538	30917.22
598.897	31173.49
599.255	31025.47
599.613	31292.36
599.972	31092.81
600.33	31190.89
600.688	31060.95
601.046	31239.02
601.404	31430.66
601.762	31410.09
602.12	31441.96
602.478	31495.74
602.836	31618.22
603.194	31413.26
603.552	31497.1
603.91	31491.45
604.268	31575.06
604.625	31555.4
604.983	31714.72
605.341	31502.52
605.698	31761.72
606.056	31802.17
606.413	31689.18
606.771	31876.07
607.128	31811.44
607.485	31868.16
607.843	31819.57
608.2	31960.81
608.557	32105.89
608.914	31959.68
609.272	32193.35
609.629	32260.24
609.986	32326.9
610.343	32364.87
610.7	32550.85
611.057	32457.75
611.414	32436.28
611.771	32585.2
612.127	32603.51
612.484	32549.72
612.841	32683.05
613.198	32741.58
613.554	32675.6
613.911	32892.99
614.267	32777.51
614.624	32848.02
614.98	32827.46
615.337	33114.23
615.693	32970.96
616.05	33010.05
616.406	33125.98
616.762	33031.97
617.118	32998.3
617.475	33094.12
617.831	33280.33
618.187	33316.48
618.543	33405.29
618.899	33653.65
619.255	33508.34
619.611	33421.56
619.967	33697.04
620.323	33689.13
620.678	33402.36
621.034	33538.4
621.39	33544.27
621.746	33503.6
622.101	33860.65
622.457	33543.37
622.812	33735.68
623.168	33903.36
623.523	33737.04
623.879	33928.22
624.234	33762.8
624.589	33830.59
624.945	33825.62
625.3	33868.33
625.655	33855.68
626.01	33974.77
626.365	34013.41
626.72	33688.68
627.075	33819.52
627.43	33823.81
627.785	33817.94
628.14	33834.21
628.495	33682.57
628.85	33845.96
629.205	33786.07
629.559	33953.08
629.914	33634.89
630.269	33616.81
630.623	33675.8
630.978	33485.97
631.332	33673.54
631.687	33769.58
632.041	33571.17
632.396	33562.13
632.75	33451.85
633.104	33645.51
633.459	33372.98
633.813	33353.32
634.167	33451.39
634.521	33311.06
634.875	33417.27
635.229	33225.64
635.583	33041.01
635.937	33077.39
636.291	33064.29
636.645	33118.75
636.999	32933.67
637.352	33100.9
637.706	32905.87
638.06	33015.02
638.413	32923.27
638.767	32821.58
639.121	32898.87
639.474	32658.42
639.828	32761.47
640.181	32667.91
640.534	32703.84
640.888	32605.09
641.241	32384.08
641.594	32566.45
641.947	32660.23
642.301	32491.87
642.654	32527.35
643.007	32336.62
643.36	32463.62
643.713	32451.65
644.066	32415.94
644.419	32277.19
644.771	32050.3
645.124	31593.82
645.477	31706.36
645.83	31686.02
646.182	31611.89
646.535	31587.71
646.888	31662.51
647.24	31505.23
647.593	31737.09
647.945	31559.47
648.298	31498.23
648.65	31295.07
649.002	31029.31
649.355	30927.62
649.707	30691.69
650.059	30815.31
650.411	31247.84
650.763	31468.62
651.115	32009.4
651.467	31907.25
651.819	31867.48
652.171	31824.09
652.523	31763.76
652.875	31830.19
653.227	31595.17
653.578	31894.37
653.93	31880.36
654.282	31688.05
654.633	31700.03
654.985	31612.35
655.337	31598.56
655.688	31511.56
656.039	31780.25
656.391	31417.55
656.742	31549.07
657.094	31483.31
657.445	31546.36
657.796	31642.4
658.147	31510.88
658.498	31670.2
658.849	31722.63
659.2	31592.01
659.551	31340.49
659.902	31759.69
660.253	31546.13
660.604	31560.14
660.955	31425.91
661.306	31690.99
661.656	31541.84
662.007	31468.4
662.358	31538.68
662.708	31575.29
663.059	31612.8
663.409	31563.99
663.76	31669.52
664.11	31746.35
664.461	31563.99
664.811	31808.95
665.161	31630.88
665.511	31638.33
665.862	31618.67
666.212	31683.31
666.562	31646.92
666.912	31685.79
667.262	31547.94
667.612	31563.08
667.962	31639.24
668.312	31468.62
668.662	31694.83
669.011	31544.78
669.361	31474.72
669.711	31524.67
670.06	31343.43
670.41	31405.35
670.76	31430.88
671.109	31582.07
671.459	31467.04
671.808	31374.84
672.157	31490.77
672.507	31294.39
672.856	31130.78
673.205	31377.55
673.554	31362.86
673.904	31248.51
674.253	31595.17
674.602	31256.42
674.951	30935.98
675.3	30716.78
675.649	31342.98
675.998	31212.13
676.346	31102.76
676.695	31332.58
677.044	31060.72
677.393	30982.98
677.741	31199.48
678.09	31014.62
678.438	30961.29
678.787	31112.92
679.135	30960.84
679.484	30915.42
679.832	31061.85
680.181	30827.73
680.529	30891.01
680.877	30763.78
681.225	30722.2
681.573	31053.49
681.922	30772.37
682.27	30627.29
682.618	30632.26
682.966	30601.07
683.314	30642.2
683.661	30534.41
684.009	30411.47
684.357	30350.46
684.705	30247.41
685.053	30345.49
685.4	30162.67
685.748	29989.34
686.095	30009.23
686.443	29998.6
686.79	29851.49
687.138	29826.41
687.485	29893.52
687.832	29726.52
688.18	29839.74
688.527	29655.56
688.874	29487.88
689.221	29468
689.568	29255.35
689.915	29287.44
690.262	29314.1
690.609	29268.91
690.956	29058.29
691.303	28915.24
691.65	28826.21
691.997	28799.09
692.344	28693.1
692.69	28582.82
693.037	28573.56
693.383	28427.35
693.73	28420.11
694.077	28297.18
694.423	28286.33
694.769	28094.93
695.116	28114.36
695.462	27976.06
695.808	27881.15
696.155	27898.32
696.501	27495.84
696.847	27698.1
697.193	27366.81
697.539	27609.06
697.885	27298.56
698.231	27315.06
698.577	27161.84
698.923	27094.27
699.269	26881.85
699.614	26852.02
699.96	26678.92
700.306	26744
700.651	26581.52
700.997	26539.94
701.342	26411.13
701.688	26396.89
702.033	26246.16
702.379	26207.07
702.724	25988.31
703.069	26217.01
703.415	25989.9
703.76	25896.79
704.105	25790.35
704.45	25684.82
704.795	25610.24
705.14	25440.98
705.485	25565.05
705.83	25400.76
706.175	25442.34
706.52	25402.34
706.865	25285.06
707.209	25166.64
707.554	25124.38
707.899	25151.5
708.243	24976.36
708.588	24954.22
708.932	24786.54
709.277	24780.21
709.621	24730.72
709.966	24577.73
710.31	24630.38
710.654	24491.86
710.998	24563.27
711.342	24420.9
711.687	24449.6
712.031	24349.71
712.375	24319.88
712.719	24336.61
713.063	24169.38
713.407	24291.64
713.75	24242.6
714.094	24235.82
714.438	24135.93
714.782	24015.71
715.125	23924.87
715.469	24127.12
715.812	23856.17
716.156	23813.46
716.499	23919.22
716.843	23890.97
717.186	23643.06
717.53	23820.91
717.873	23944.07
718.216	23825.66
718.559	23698.43
718.902	23539.56
719.246	23539.56
719.589	23501.6
719.932	23456.4
720.275	23521.26
720.617	23420.92
720.96	23338.89
721.303	23548.38
721.646	23504.99
721.989	23365.11
722.331	23425.9
722.674	23297.54
723.016	23364.65
723.359	23265
723.701	23323.53
724.044	23142.51
724.386	23174.15
724.729	23282.62
725.071	23215.05
725.413	23242.62
725.755	23190.42
726.097	23145.68
726.439	23143.87
726.782	23062.97
727.124	23237.65
727.465	23080.14
727.807	23022.52
728.149	23062.74
728.491	23038.56
728.833	23053.02
729.175	23242.85
729.516	23164.21
729.858	23093.7
730.199	23161.95
730.541	23054.38
730.882	23129.41
731.224	23165.79
731.565	23048.73
731.906	23097.32
732.248	23237.65
732.589	22999.47
732.93	22980.94
733.271	23124.89
733.612	23072.23
733.953	23140.48
734.294	23075.17
734.635	22975.96
734.976	23129.86
735.317	23097.99
735.658	22969.86
735.999	23064.32
736.339	23026.58
736.68	23026.58
737.021	23052.57
737.361	23094.15
737.702	23210.31
738.042	23110.88
738.383	23124.89
738.723	23260.7
739.063	23109.29
739.404	23176.41
739.744	23173.25
740.084	23133.02
740.424	23342.06
740.764	23234.94
741.104	23391.55
741.444	23301.6
741.784	23233.81
742.124	23368.5
742.464	23262.06
742.804	23419.34
743.143	23373.24
743.483	23576.85
743.823	23462.5
744.162	23534.14
744.502	23528.04
744.841	23615.95
745.181	23618.21
745.52	23708.83
745.86	23655.49
746.199	23728.94
746.538	23763.29
746.877	23920.35
747.216	23928.26
747.556	23909.27
747.895	24010.96
748.234	23973
748.573	23984.07
748.911	23932.77
749.25	24128.02
749.589	24074.01
749.928	24232.43
750.267	24341.8
750.605	24232.43
750.944	24387
751.283	24403.27
751.621	24507.45
751.96	24468.58
752.298	24544.28
752.636	24526.43
752.975	24624.06
753.313	24657.28
753.651	24764.62
753.989	24753.09
754.327	24850.94
754.666	24718.52
755.004	24914.67
