Data from 5405_FLMS001491_001.txt Node
Date: Thu Apr 19 16:38:00 BST 2018
User: hsy
Spectrometer: FLMS00149
Trigger mode: 0
Integration Time (sec): 1.000000E-2
Scans to average: 10
Electric dark correction enabled: true
Nonlinearity correction enabled: false
Boxcar width: 0
XAxis mode: Wavelengths
Number of Pixels in Spectrum: 2048
>>>>>Begin Spectral Data<<<<<
341.393	-12.58
341.776	-12.58
342.16	-12.58
342.543	-72.7
342.927	-67.95
343.31	-75.18
343.693	-65.92
344.077	-47.16
344.46	-57.55
344.843	-53.71
345.226	-43.54
345.61	-34.96
345.993	-14.84
346.376	-7.84
346.759	13.63
347.142	32.84
347.525	35.55
347.908	58.6
348.291	70.13
348.674	91.37
349.057	98.6
349.44	147.19
349.823	130.91
350.206	165.04
350.588	217.24
350.971	237.58
351.354	254.75
351.737	276.22
352.119	286.84
352.502	290.01
352.884	304.92
353.267	290.46
353.65	338.82
354.032	326.16
354.414	324.36
354.797	358.25
355.179	350.34
355.562	353.06
355.944	355.09
356.326	354.86
356.709	357.12
357.091	370.68
357.473	380.17
357.855	368.87
358.238	362.55
358.62	365.94
359.002	394.86
359.384	382.21
359.766	367.97
360.148	386.95
360.53	362.77
360.912	381.3
361.294	372.94
361.676	379.95
362.057	359.16
362.439	378.59
362.821	370.91
363.203	374.07
363.584	353.96
363.966	341.3
364.348	364.13
364.729	362.32
365.111	357.35
365.493	364.35
365.874	369.1
366.256	359.16
366.637	359.16
367.019	352.15
367.4	349.89
367.781	369.78
368.163	383.34
368.544	377.01
368.925	376.33
369.306	354.86
369.688	372.72
370.069	370.46
370.45	376.33
370.831	370.68
371.212	361.87
371.593	359.61
371.974	378.37
372.355	356.67
372.736	368.65
373.117	368.42
373.498	367.52
373.879	377.46
374.26	356.9
374.641	357.35
375.021	371.59
375.402	372.94
375.783	389.21
376.163	380.63
376.544	403
376.925	374.07
377.305	386.95
377.686	408.42
378.066	410.91
378.447	394.41
378.827	395.09
379.208	395.54
379.588	390.34
379.968	406.16
380.349	413.39
380.729	401.87
381.109	419.72
381.489	422.88
381.87	396.22
382.25	425.37
382.63	413.17
383.01	419.49
383.39	439.61
383.77	408.2
384.15	424.47
384.53	414.3
384.91	428.08
385.29	451.58
385.67	428.76
386.049	449.55
386.429	446.61
386.809	453.39
387.189	451.13
387.568	473.5
387.948	450.45
388.328	467.4
388.707	470.11
389.087	481.87
389.466	481.64
389.846	468.08
390.225	512.15
390.605	478.25
390.984	506.72
391.363	481.87
391.743	518.93
392.122	499.72
392.501	490.23
392.881	521.41
393.26	511.02
393.639	506.5
394.018	534.07
394.397	534.29
394.776	517.8
395.155	532.94
395.534	532.94
395.913	527.97
396.292	537.46
396.671	540.85
397.05	541.98
397.429	537.91
397.808	550.11
398.186	554.18
398.565	591.02
398.944	568.19
399.323	580.39
399.701	580.62
400.08	583.78
400.458	570.45
400.837	593.95
401.215	593.5
401.594	607.29
401.972	636.21
402.351	622.65
402.729	607.51
403.107	627.62
403.486	649.55
403.864	619.04
404.242	626.95
404.62	635.76
404.999	655.42
405.377	667.85
405.755	620.85
406.133	654.52
406.511	664.69
406.889	650
407.267	675.99
407.645	681.41
408.023	682.76
408.401	681.18
408.779	701.3
409.156	716.89
409.534	729.09
409.912	735.87
410.29	760.73
410.667	771.58
411.045	763.44
411.422	760.05
411.8	793.27
412.178	767.51
412.555	801.86
412.933	804.57
413.31	833.04
413.687	813.16
414.065	814.29
414.442	851.35
414.819	838.69
415.197	825.36
415.574	874.17
415.951	883.44
416.328	865.13
416.705	898.58
417.082	899.71
417.46	917.56
417.837	910.56
418.214	923.89
418.591	939.03
418.967	901.52
419.344	944.45
419.721	943.32
420.098	948.07
420.475	966.6
420.852	970.89
421.228	960.72
421.605	959.82
421.982	987.39
422.358	1021.51
422.735	1007.95
423.111	1015.64
423.488	1054.05
423.864	1035.98
424.241	1053.83
424.617	1059.7
424.994	1071
425.37	1095.86
425.746	1098.57
426.123	1111.45
426.499	1132.7
426.875	1122.3
427.251	1158.23
427.627	1173.37
428.003	1191.45
428.379	1183.09
428.756	1215.18
429.132	1244.56
429.507	1220.6
429.883	1223.32
430.259	1255.18
430.635	1284.1
431.011	1247.95
431.387	1287.72
431.763	1319.58
432.138	1353.48
432.514	1347.83
432.89	1343.76
433.265	1425.12
433.641	1391.45
434.016	1377.89
434.392	1471.67
434.767	1471.67
435.143	1446.81
435.518	1500.6
435.894	1506.7
436.269	1511.22
436.644	1541.05
437.02	1522.29
437.395	1567.94
437.77	1599.35
438.145	1588.96
438.52	1614.94
438.895	1654.72
439.271	1639.8
439.646	1656.75
440.021	1699.46
440.395	1658.78
440.77	1685.22
441.145	1706.24
441.52	1709.4
441.895	1741.04
442.27	1762.74
442.645	1733.58
443.019	1769.52
443.394	1761.83
443.769	1784.2
444.143	1766.8
444.518	1808.38
444.892	1773.13
445.267	1802.96
445.641	1816.52
446.016	1832.56
446.39	1844.09
446.764	1884.99
447.139	1871.66
447.513	1913.24
447.887	1867.59
448.262	1903.52
448.636	1920.25
449.01	1920.7
449.384	1941.94
449.758	1989.4
450.132	1962.5
450.506	2012.45
450.88	2000.47
451.254	2044.08
451.628	2050.86
452.002	2079.79
452.376	2077.53
452.75	2117.76
453.123	2122.5
453.497	2145.32
453.871	2176.51
454.244	2221.93
454.618	2249.73
454.992	2263.51
455.365	2264.87
455.739	2309.84
456.112	2325.43
456.486	2360.23
456.859	2382.83
457.232	2432.1
457.606	2455.37
457.979	2438.65
458.352	2521.59
458.725	2538.99
459.099	2597.97
459.472	2596.61
459.845	2650.62
460.218	2628.25
460.591	2672.77
460.964	2726.55
461.337	2698.3
461.71	2796.61
462.083	2806.1
462.456	2805.19
462.829	2835.93
463.201	2892.65
463.574	2872.54
463.947	2939.43
464.32	2979.2
464.692	3006.77
465.065	3005.19
465.438	3040.22
465.81	3047.22
466.183	3126.77
466.555	3130.16
466.928	3175.81
467.3	3212.19
467.672	3243.6
468.045	3320.89
468.417	3295.13
468.789	3339.19
469.161	3387.33
469.534	3446.08
469.906	3519.3
470.278	3493.99
470.65	3551.16
471.022	3583.93
471.394	3638.39
471.766	3689.69
472.138	3720.88
472.51	3819.63
472.882	3818.5
473.253	3853.53
473.625	3924.71
473.997	4054.2
474.369	4034.09
474.74	4086.52
475.112	4132.84
475.484	4223.91
475.855	4265.5
476.227	4315.66
476.598	4426.62
476.97	4442.89
477.341	4515.43
477.713	4596.79
478.084	4665.26
478.455	4724.69
478.827	4785.48
479.198	4910.9
479.569	4894.86
479.94	5029.99
480.311	5139.6
480.682	5242.64
481.053	5304.11
481.424	5392.92
481.795	5420.04
482.166	5560.6
482.537	5622.07
482.908	5718.56
483.279	5811.67
483.65	5893.47
484.021	5942.74
484.391	6073.13
484.762	6090.31
485.133	6159.91
485.503	6293.46
485.874	6383.63
486.244	6471.99
486.615	6615.72
486.985	6619.56
487.356	6819.33
487.726	6825.2
488.097	7004.86
488.467	7057.29
488.837	7208.02
489.207	7207.56
489.578	7372.08
489.948	7422.25
490.318	7551.96
490.688	7596.03
491.058	7730.04
491.428	7848.45
491.798	7882.35
492.168	8016.81
492.538	8028.33
492.908	8191.95
493.278	8295.9
493.648	8286.41
494.017	8417.25
494.387	8467.64
494.757	8574.53
495.126	8626.51
495.496	8791.7
495.866	8812.04
496.235	8873.96
496.605	9014.52
496.974	9059.95
497.344	9135.2
497.713	9133.39
498.082	9235.76
498.452	9332.03
498.821	9433.49
499.19	9429.2
499.559	9522.76
499.928	9607.05
500.298	9609.31
500.667	9738.35
501.036	9775.41
501.405	9744.9
501.774	9832.35
502.143	9868.74
502.512	9958
502.88	10139.47
503.249	10047.94
503.618	10233.25
503.987	10193.25
504.356	10249.29
504.724	10284.32
505.093	10369.97
505.462	10372.45
505.83	10511.21
506.199	10616.97
506.567	10716.62
506.936	10723.63
507.304	10856.96
507.672	10825.77
508.041	10947.35
508.409	11036.62
508.777	11091.53
509.145	11161.36
509.514	11177.4
509.882	11277.74
510.25	11400.9
510.618	11459.66
510.986	11536.49
511.354	11578.98
511.722	11708.92
512.09	11809.7
512.458	11716.37
512.826	11868.46
513.193	11918.18
513.561	12076.14
513.929	12098.51
514.297	12186.42
514.664	12229.35
515.032	12356.13
515.4	12461.44
515.767	12473.87
516.135	12649.91
516.502	12551.15
516.869	12843.35
517.237	12877.47
517.604	12759.06
517.972	13034.53
518.339	13128.54
518.706	13180.29
519.073	13233.17
519.44	13298.48
519.808	13441.07
520.175	13436.1
520.542	13614.4
520.909	13745.47
521.276	13795.64
521.643	13942.98
522.009	13994.05
522.376	14153.82
522.743	14252.13
523.11	14385.91
523.477	14571.89
523.843	14604.21
524.21	14774.15
524.577	14983.18
524.943	15005.78
525.31	15036.96
525.676	15277.18
526.043	15324.19
526.409	15449.16
526.776	15652.77
527.142	15724.4
527.508	15749.49
527.874	15884.62
528.241	16030.61
528.607	16099.76
528.973	16363.93
529.339	16363.48
529.705	16544.49
530.071	16653.42
530.437	16720.99
530.803	16875.33
531.169	17011.37
531.535	16975.67
531.901	17028.55
532.267	17134.76
532.632	17342.67
532.998	17341.99
533.364	17398.48
533.73	17544.47
534.095	17756.44
534.461	17765.25
534.826	17831.69
535.192	17974.29
535.557	18084.57
535.923	18031.46
536.288	18065.13
536.653	18254.73
537.019	18235.07
537.384	18323.66
537.749	18301.74
538.114	18471.45
538.479	18427.83
538.845	18587.83
539.21	18565.68
539.575	18618.34
539.94	18699.47
540.305	18828.28
540.67	18783.08
541.034	18939.69
541.399	18820.37
541.764	18993.47
542.129	19069.63
542.494	19167.48
542.858	19164.76
543.223	19114.82
543.587	19293.57
543.952	19242.73
544.316	19252.67
544.681	19364.99
545.045	19464.87
545.41	19442.95
545.774	19456.51
546.138	19610.18
546.503	19586.45
546.867	19642.72
547.231	19841.36
547.595	19866.67
547.959	19860.57
548.324	19943.28
548.688	19966.1
549.052	20061.92
549.416	20025.31
549.779	20066.44
550.143	20127
550.507	20315.24
550.871	20232.08
551.235	20228.92
551.599	20439.99
551.962	20559.53
552.326	20578.74
552.689	20596.82
553.053	20561.79
553.417	20694.44
553.78	20879.52
554.143	20893.98
554.507	21027.77
554.87	21020.31
555.234	21206.74
555.597	21162.23
555.96	21254.43
556.323	21274.09
556.686	21386.85
557.05	21475.66
557.413	21635.21
557.776	21618.71
558.139	21792.27
558.502	21812.38
558.865	21853.06
559.228	22111.58
559.59	22159.71
559.953	22228.64
560.316	22419.14
560.679	22519.48
561.041	22612.13
561.404	22768.06
561.767	22888.06
562.129	22923.08
562.492	23224.77
562.854	23202.17
563.217	23196.07
563.579	23352.22
563.941	23643.06
564.304	23825.21
564.666	24067.01
565.028	24080.79
565.39	24260
565.753	24414.57
566.115	24477.17
566.477	24697.95
566.839	24869.02
567.201	25131.61
567.563	25115.79
567.925	25447.31
568.287	25530.7
568.648	25630.36
569.01	25931.59
569.372	26110.34
569.734	26274.63
570.095	26500.39
570.457	26688.18
570.819	26857.44
571.18	26885.92
571.542	27225.8
571.903	27341.27
572.265	27612.68
572.626	27899.9
572.987	28013.8
573.349	28184.41
573.71	28321.36
574.071	28548.7
574.432	28854.68
574.794	28976.94
575.155	29101.9
575.516	29159.98
575.877	29452.86
576.238	29447.66
576.599	29853.75
576.96	29786.41
577.32	30032.73
577.681	30074.76
578.042	30400.18
578.403	30339.61
578.763	30447.63
579.124	30529.21
579.485	30738.7
579.845	30942.99
580.206	30882.2
580.566	31018.46
580.927	31042.19
581.287	31200.38
581.648	31132.36
582.008	31497.55
582.368	31332.35
582.728	31449.64
583.089	31514.04
583.449	31499.81
583.809	31671.78
584.169	31758.56
584.529	31609.41
584.889	31941.6
585.249	31647.15
585.609	31672.68
585.969	31790.65
586.329	31712.91
586.688	31852.11
587.048	31788.16
587.408	31878.33
587.768	31803.75
588.127	31762.17
588.487	31813.25
588.846	32085.55
589.206	31709.29
589.565	31760.37
589.925	31958.55
590.284	31853.47
590.643	31966.46
591.003	32072.45
591.362	32083.75
591.721	32140.24
592.08	32068.15
592.44	32321.48
592.799	32145.89
593.158	32161.48
593.517	32049.17
593.876	32180.69
594.235	32290.3
594.593	32076.74
594.952	32207.13
595.311	32124.2
595.67	32248.49
596.029	32415.04
596.387	32431.53
596.746	32430.4
597.104	32278.77
597.463	32273.35
597.822	32583.85
598.18	32272.89
598.538	32440.57
598.897	32593.34
599.255	32354.02
599.613	32771.19
599.972	32561.93
600.33	32462.27
600.688	32558.76
601.046	32624.3
601.404	32766.67
601.762	32765.08
602.12	32832.88
602.478	32901.58
602.836	32951.07
603.194	32816.38
603.552	32955.36
603.91	32983.38
604.268	33108.58
604.625	32997.17
604.983	33172.08
605.341	33059.77
605.698	33181.57
606.056	33393.32
606.413	33165.98
606.771	33440.32
607.128	33333.43
607.485	33259.31
607.843	33358.29
608.2	33526.42
608.557	33626.08
608.914	33588.57
609.272	33819.75
609.629	33778.62
609.986	33881.67
610.343	33735.23
610.7	34006.41
611.057	33814.32
611.414	33861.1
611.771	34120.76
612.127	34238.72
612.484	34200.3
612.841	34234.65
613.198	34021.1
613.554	34091.6
613.911	34336.34
614.267	34345.16
614.624	34339.96
614.98	34415.89
615.337	34605.26
615.693	34639.16
616.05	34599.61
616.406	34766.61
616.762	34448.43
617.118	34637.58
617.475	34669.89
617.831	34759.83
618.187	34804.81
618.543	34798.48
618.899	35026.72
619.255	35080.28
619.611	34985.14
619.967	35181.29
620.323	35216.32
620.678	35139.26
621.034	35104.23
621.39	35138.58
621.746	35137.9
622.101	35421.74
622.457	35183.78
622.812	35385.13
623.168	35336.54
623.523	35321.85
623.879	35462.64
624.234	35270.33
624.589	35485.92
624.945	35374.28
625.3	35507.61
625.655	35560.94
626.01	35539.25
626.365	35547.61
626.72	35363.21
627.075	35416.99
627.43	35446.6
627.785	35450.21
628.14	35456.54
628.495	35507.16
628.85	35538.12
629.205	35440.27
629.559	35436.65
629.914	35401.63
630.269	35393.26
630.623	35100.84
630.978	35059.49
631.332	35343.77
631.687	35275.98
632.041	35241.63
632.396	35261.74
632.75	35130.9
633.104	35353.49
633.459	35073.72
633.813	35014.97
634.167	35007.06
634.521	35050.9
634.875	34950.11
635.229	34879.61
635.583	34794.18
635.937	34667.18
636.291	34804.35
636.645	34715.09
636.999	34435.1
637.352	34699.05
637.706	34423.8
638.06	34643.91
638.413	34448.2
638.767	34432.84
639.121	34397.36
639.474	34382.44
639.828	34371.82
640.181	34248.21
640.534	34279.17
640.888	34142.9
641.241	33882.34
641.594	33925.05
641.947	34228.32
642.301	33965.28
642.654	33911.04
643.007	33937.48
643.36	33946.52
643.713	33989.01
644.066	33902
644.419	33744.95
644.771	33372.3
645.124	33024.51
645.477	33135.02
645.83	33019.99
646.182	33024.06
646.535	32981.58
646.888	33019.32
647.24	33057.28
647.593	33147.9
647.945	32989.26
648.298	32898.19
648.65	32710.17
649.002	32409.16
649.355	32310.18
649.707	32291.88
650.059	32306.11
650.411	32647.57
650.763	32850.73
651.115	33498.4
651.467	33213.66
651.819	33268.8
652.171	33161.01
652.523	33022.48
652.875	33210.04
653.227	33004.85
653.578	33283.72
653.93	33150.16
654.282	33012.99
654.633	32998.07
654.985	33036.49
655.337	33107.67
655.688	33025.64
656.039	33100.9
656.391	32898.64
656.742	32975.47
657.094	32955.81
657.445	33143.61
657.796	33135.7
658.147	33036.94
658.498	33037.39
658.849	33063.38
659.2	32926.21
659.551	32900.22
659.902	33002.14
660.253	32846.89
660.604	33055.25
660.955	32834.01
661.306	33132.98
661.656	32945.65
662.007	33042.59
662.358	32962.59
662.708	32980.45
663.059	32962.37
663.409	32752.43
663.76	33035.59
664.11	32976.83
664.461	33065.64
664.811	32981.12
665.161	33047.11
665.511	32852.09
665.862	32978.64
666.212	33077.84
666.562	33101.8
666.912	33014.12
667.262	32940.67
667.612	33049.15
667.962	32965.98
668.312	32837.85
668.662	33069.71
669.011	33020.45
669.361	32993.55
669.711	32926.21
670.06	32869.94
670.41	32818.87
670.76	32895.93
671.109	33058.86
671.459	32918.3
671.808	32934.12
672.157	32958.98
672.507	32818.64
672.856	32715.14
673.205	32792.88
673.554	32852.54
673.904	32731.64
674.253	32932.99
674.602	32763.05
674.951	32286.68
675.3	32210.75
675.649	32788.81
675.998	32664.52
676.346	32742.71
676.695	32795.14
677.044	32543.4
677.393	32652.77
677.741	32521.02
678.09	32464.75
678.438	32396.28
678.787	32517.41
679.135	32459.1
679.484	32237.87
679.832	32384.08
680.181	32199.45
680.529	32294.81
680.877	32243.29
681.225	32152.22
681.573	32345.43
681.922	32116.06
682.27	31978.66
682.618	32045.33
682.966	31886.46
683.314	31889.18
683.661	31771.21
684.009	31641.05
684.357	31692.12
684.705	31529.41
685.053	31723.76
685.4	31414.39
685.748	31450.32
686.095	31282.41
686.443	31114.05
686.79	31243.09
687.138	31206.03
687.485	31145.24
687.832	30956.54
688.18	30960.39
688.527	30796.1
688.874	30715.65
689.221	30866.83
689.568	30604.46
689.915	30556.33
690.262	30503.45
690.609	30468.65
690.956	30344.81
691.303	30286.73
691.65	30188.88
691.997	30020.75
692.344	29904.14
692.69	29884.26
693.037	29701.44
693.383	29591.83
693.73	29762.45
694.077	29498.5
694.423	29469.13
694.769	29371.28
695.116	29190.94
695.462	29076.59
695.808	29136.03
696.155	29146.42
696.501	28922.47
696.847	28966.31
697.193	28595.25
697.539	28737.85
697.885	28468.7
698.231	28401.58
698.577	28296.95
698.923	28363.62
699.269	28163.62
699.614	28126.56
699.96	28005.21
700.306	27831.88
700.651	27817.19
700.997	27708.95
701.342	27598.44
701.688	27581.49
702.033	27315.51
702.379	27494.49
702.724	27412.23
703.069	27270.77
703.415	27005.46
703.76	26998.23
704.105	27073.94
704.45	26904.22
704.795	26874.84
705.14	26933.6
705.485	26745.81
705.83	26527.73
706.175	26717.56
706.52	26582.42
706.865	26335.65
707.209	26497.68
707.554	26227.86
707.899	26368.42
708.243	26177.91
708.588	26089.78
708.932	25901.76
709.277	26043.68
709.621	25941.99
709.966	25741.09
710.31	25792.84
710.654	25757.36
710.998	25758.26
711.342	25705.84
711.687	25428.55
712.031	25508.33
712.375	25322.12
712.719	25400.98
713.063	25272.17
713.407	25409.8
713.75	25288.22
714.094	25305.62
714.438	25119.18
714.782	25073.76
715.125	24955.8
715.469	25156.47
715.812	25010.49
716.156	24984.72
716.499	24894.78
716.843	24898.62
717.186	24772.98
717.53	24977.49
717.873	24874.67
718.216	24753.32
718.559	24693.88
718.902	24618.63
719.246	24631.29
719.589	24624.73
719.932	24497.73
720.275	24551.06
720.617	24581.57
720.96	24627.9
721.303	24648.01
721.646	24608.92
721.989	24384.74
722.331	24568.92
722.674	24551.06
723.016	24511.97
723.359	24335.48
723.701	24393.33
724.044	24280.79
724.386	24247.12
724.729	24371.86
725.071	24297.06
725.413	24304.29
725.755	24211.86
726.097	24088.02
726.439	24079.44
726.782	23991.98
727.124	24269.04
727.465	24178.87
727.807	24171.19
728.149	24187.46
728.491	24176.84
728.833	24285.53
729.175	24101.13
729.516	24014.13
729.858	24037.18
730.199	24263.61
730.541	24107.01
730.882	24150.85
731.224	24136.16
731.565	24046.9
731.906	24059.1
732.248	24160.34
732.589	23973
732.93	24003.06
733.271	24123.96
733.612	23973.68
733.953	24187.91
734.294	23974.58
734.635	23956.95
734.976	24165.54
735.317	23947.46
735.658	24037.86
735.999	24009.38
736.339	23960.34
736.68	24149.72
737.021	23989.72
737.361	23939.33
737.702	24172.09
738.042	24199.66
738.383	24257.51
738.723	24135.71
739.063	23997.86
739.404	24182.71
739.744	24092.09
740.084	24174.35
740.424	24272.2
740.764	24176.61
741.104	24323.05
741.444	24236.04
741.784	24208.7
742.124	24299.77
742.464	24346.1
742.804	24310.62
743.143	24247.34
743.483	24391.75
743.823	24455.02
744.162	24388.58
744.502	24422.93
744.841	24423.38
745.181	24582.02
745.52	24431.97
745.86	24494.12
746.199	24572.53
746.538	24601.01
746.877	24809.36
747.216	24717.16
747.556	24645.75
747.895	24762.58
748.234	24725.52
748.573	24887.33
748.911	24846.65
749.25	24859.76
749.589	24866.76
749.928	25104.5
750.267	25040.32
750.605	25105.17
750.944	25086.64
751.283	25154.66
751.621	25400.98
751.96	25259.75
752.298	25332.06
752.636	25469.01
752.975	25427.42
753.313	25348.56
753.651	25633.07
753.989	25512.39
754.327	25617.02
754.666	25563.47
755.004	25701.77
