Data from 5405_FLMS001491_002.txt Node
Date: Thu Apr 19 16:38:11 BST 2018
User: hsy
Spectrometer: FLMS00149
Trigger mode: 0
Integration Time (sec): 1.000000E-2
Scans to average: 10
Electric dark correction enabled: true
Nonlinearity correction enabled: false
Boxcar width: 0
XAxis mode: Wavelengths
Number of Pixels in Spectrum: 2048
>>>>>Begin Spectral Data<<<<<
341.393	-11.19
341.776	-11.19
342.16	-11.19
342.543	-41.47
342.927	-79.88
343.31	-64.29
343.693	-69.94
344.077	-72.43
344.46	-61.81
344.843	-52.99
345.226	-25.88
345.61	-5.08
345.993	-2.6
346.376	-3.05
346.759	-3.5
347.142	15.25
347.525	20.9
347.908	38.53
348.291	87.34
348.674	105.42
349.057	94.12
349.44	126.89
349.823	129.15
350.206	200.33
350.588	217.51
350.971	215.7
351.354	246.21
351.737	263.16
352.119	248.24
352.502	290.95
352.884	299.09
353.267	280.11
353.65	308.81
354.032	323.49
354.414	343.83
354.797	344.28
355.179	332.99
355.562	348.35
355.944	362.59
356.326	347.22
356.709	363.72
357.091	375.24
357.473	376.6
357.855	356.94
358.238	369.14
358.62	364.4
359.002	375.92
359.384	380.89
359.766	376.83
360.148	365.3
360.53	377.96
360.912	366.21
361.294	355.58
361.676	351.97
362.057	392.65
362.439	364.85
362.821	359.43
363.203	369.14
363.584	356.26
363.966	368.01
364.348	386.77
364.729	359.2
365.111	346.32
365.493	345.41
365.874	360.33
366.256	347.22
366.637	361.91
367.019	354.45
367.4	348.13
367.781	363.49
368.163	340.22
368.544	351.06
368.925	375.02
369.306	363.72
369.688	361.91
370.069	346.09
370.45	344.28
370.831	354.68
371.212	344.28
371.593	356.26
371.974	387
372.355	369.82
372.736	372.08
373.117	371.4
373.498	352.65
373.879	377.28
374.26	353.78
374.641	356.71
375.021	377.73
375.402	372.53
375.783	361.23
376.163	387.22
376.544	371.4
376.925	384.06
377.305	381.8
377.686	399.2
378.066	399.2
378.447	395.58
378.827	381.12
379.208	417.28
379.588	394.68
379.968	387.67
380.349	400.78
380.729	413.44
381.109	413.66
381.489	407.56
381.87	395.58
382.25	418.86
382.63	426.77
383.01	428.58
383.39	416.37
383.77	428.35
384.15	418.63
384.53	430.84
384.91	432.87
385.29	432.42
385.67	443.04
386.049	456.82
386.429	440.1
386.809	437.39
387.189	449.82
387.568	472.87
387.948	459.76
388.328	451.4
388.707	475.35
389.087	466.32
389.466	484.39
389.846	467.45
390.225	476.71
390.605	449.59
390.984	462.7
391.363	478.29
391.743	479.87
392.122	495.69
392.501	505.41
392.881	491.4
393.26	521.23
393.639	508.8
394.018	512.64
394.397	528.46
394.776	509.03
395.155	533.21
395.534	511.06
395.913	528.69
396.292	535.47
396.671	527.33
397.05	544.51
397.429	541.34
397.808	552.41
398.186	550.38
398.565	563.71
398.944	558.29
399.323	574.79
399.701	563.94
400.08	562.81
400.458	564.62
400.837	584.96
401.215	594.22
401.594	597.84
401.972	586.09
402.351	577.72
402.729	590.38
403.107	596.48
403.486	609.14
403.864	603.71
404.242	604.16
404.62	612.07
404.999	621.57
405.377	618.85
405.755	631.96
406.133	663.37
406.511	648.23
406.889	661.11
407.267	661.34
407.645	691.17
408.023	683.26
408.401	683.94
408.779	708.57
409.156	708.12
409.534	709.47
409.912	722.58
410.29	721.22
410.667	776.82
411.045	770.94
411.422	779.75
411.8	745.18
412.178	785.4
412.555	800.54
412.933	778.17
413.31	794.89
413.687	799.87
414.065	811.84
414.442	824.72
414.819	845.29
415.197	827.44
415.574	868.56
415.951	871.5
416.328	872.41
416.705	869.24
417.082	865.4
417.46	890.94
417.837	902.91
418.214	903.59
418.591	918.05
418.967	913.54
419.344	926.19
419.721	921.44
420.098	952.86
420.475	945.17
420.852	947.88
421.228	975.45
421.605	976.81
421.982	988.34
422.358	1001.44
422.735	1008.9
423.111	1019.52
423.488	1019.52
423.864	997.15
424.241	1010.26
424.617	1056.13
424.994	1065.62
425.37	1072.4
425.746	1076.69
426.123	1098.62
426.499	1089.12
426.875	1112.85
427.251	1113.53
427.627	1137.26
428.003	1148.33
428.379	1198.27
428.756	1161.66
429.132	1195.34
429.507	1219.06
429.883	1190.59
430.259	1226.97
430.635	1288.44
431.011	1240.76
431.387	1282.34
431.763	1329.34
432.138	1314.88
432.514	1339.96
432.89	1336.58
433.265	1377.48
433.641	1412.28
434.016	1395.56
434.392	1425.61
434.767	1450.47
435.143	1441.43
435.518	1440.98
435.894	1498.15
436.269	1484.59
436.644	1503.58
437.02	1533.63
437.395	1515.1
437.77	1542.22
438.145	1560.3
438.52	1599.62
438.895	1626.06
439.271	1593.29
439.646	1638.71
440.021	1655.89
440.395	1680.52
440.77	1617.02
441.145	1657.47
441.52	1683.01
441.895	1705.38
442.27	1725.04
442.645	1728.66
443.019	1743.57
443.394	1739.5
443.769	1731.59
444.143	1744.47
444.518	1762.1
444.892	1755.77
445.267	1816.79
445.641	1828.09
446.016	1780.63
446.39	1830.12
446.764	1831.03
447.139	1833.96
447.513	1859.5
447.887	1869.22
448.262	1865.37
448.636	1859.05
449.01	1909.22
449.384	1964.13
449.758	1921.19
450.132	1992.6
450.506	1970
450.88	1970.68
451.254	1974.07
451.628	2016.78
452.002	2042.77
452.376	2049.32
452.75	2080.51
453.123	2106.5
453.497	2125.25
453.871	2132.03
454.244	2191.69
454.618	2210.9
454.992	2232.6
455.365	2254.52
455.739	2266.72
456.112	2303.56
456.486	2327.06
456.859	2355.31
457.232	2392.14
457.606	2392.59
457.979	2415.19
458.352	2496.09
458.725	2505.36
459.099	2517.79
459.472	2551.46
459.845	2595.07
460.218	2617.67
460.591	2624.9
460.964	2640.04
461.337	2649.53
461.71	2740.38
462.083	2726.82
462.456	2803.43
462.829	2811.56
463.201	2825.12
463.574	2849.76
463.947	2848.17
464.32	2918.91
464.692	2963.42
465.065	2970.43
465.438	3026.02
465.81	3065.8
466.183	3055.63
466.555	3102.4
466.928	3159.13
467.3	3162.52
467.672	3169.07
468.045	3298.78
468.417	3289.52
468.789	3305.11
469.161	3325
469.534	3399.57
469.906	3407.26
470.278	3471.21
470.65	3522.96
471.022	3577.19
471.394	3635.95
471.766	3664.88
472.138	3679.56
472.51	3742.61
472.882	3769.28
473.253	3896.28
473.625	3902.38
473.997	3955.49
474.369	3965.88
474.74	4003.62
475.112	4104.64
475.484	4138.54
475.855	4258.76
476.227	4308.25
476.598	4390.51
476.97	4394.57
477.341	4524.29
477.713	4562.48
478.084	4580.33
478.455	4671.4
478.827	4743.94
479.198	4874.11
479.569	4923.6
479.94	4943.71
480.311	5031.62
480.682	5122.69
481.053	5255.57
481.424	5300.54
481.795	5380.08
482.166	5453.53
482.537	5539.85
482.908	5647.87
483.279	5743.69
483.65	5807.87
484.021	5980.75
484.391	5988.88
484.762	6105.49
485.133	6096.45
485.503	6202.44
485.874	6307.52
486.244	6412.15
486.615	6523.56
486.985	6599.04
487.356	6683.78
487.726	6814.85
488.097	6998.35
488.467	7002.64
488.837	7141.85
489.207	7171
489.578	7303.42
489.948	7378.68
490.318	7504.1
490.688	7522.85
491.058	7684.2
491.428	7830.42
491.798	7853.47
492.168	8012.78
492.538	8049.84
492.908	8141.59
493.278	8202.84
493.648	8325.54
494.017	8384.07
494.387	8506.33
494.757	8586.33
495.126	8644.86
495.496	8691.86
495.866	8789.26
496.235	8915.36
496.605	8941.12
496.974	8941.12
497.344	9096.82
497.713	9166.2
498.082	9185.86
498.452	9266.76
498.821	9360.54
499.19	9417.72
499.559	9467.43
499.928	9515.12
500.298	9644.61
500.667	9675.56
501.036	9684.15
501.405	9776.35
501.774	9782.91
502.143	9922.79
502.512	10000.98
502.88	10078.49
503.249	10102.9
503.618	10188.09
503.987	10229.9
504.356	10282.55
504.724	10338.6
505.093	10353.74
505.462	10449.78
505.83	10439.61
506.199	10613.39
506.567	10789.43
506.936	10708.53
507.304	10816.1
507.672	10849.09
508.041	10944.46
508.409	11049.31
508.777	11084.79
509.145	11219.7
509.514	11236.65
509.882	11297.22
510.25	11412.24
510.618	11480.49
510.986	11495.4
511.354	11561.62
511.722	11704.21
512.09	11733.14
512.458	11787.6
512.826	11941.95
513.193	11988.95
513.561	12018.33
513.929	12111.66
514.297	12192.11
514.664	12221.49
515.032	12374.02
515.4	12467.36
515.767	12554.36
516.135	12597.3
516.502	12588.26
516.869	12752.55
517.237	12765.88
517.604	12806.33
517.972	12978.75
518.339	13071.86
518.706	13124.97
519.073	13144.85
519.44	13242.93
519.808	13364.28
520.175	13452.41
520.542	13663.93
520.909	13697.38
521.276	13823.48
521.643	13962.91
522.009	14031.61
522.376	14146.86
522.743	14226.41
523.11	14373.75
523.477	14573.74
523.843	14514.76
524.21	14784.81
524.577	14893.05
524.943	14942.32
525.31	15001.75
525.676	15306.6
526.043	15358.58
526.409	15415.3
526.776	15521.96
527.142	15627.95
527.508	15771.22
527.874	15892.35
528.241	16027.49
528.607	16047.83
528.973	16158.33
529.339	16250.53
529.705	16484.88
530.071	16570.3
530.437	16652.1
530.803	16810.07
531.169	16878.77
531.535	16917.86
531.901	17016.61
532.267	17084.64
532.632	17272.2
532.998	17289.6
533.364	17412.54
533.73	17381.35
534.095	17567.56
534.461	17600.1
534.826	17802.36
535.192	17772.75
535.557	17903.15
535.923	17957.83
536.288	17975.69
536.653	18110.37
537.019	18117.83
537.384	18181.56
537.749	18225.17
538.114	18277.82
538.479	18309.01
538.845	18440.53
539.21	18377.26
539.575	18522.56
539.94	18553.3
540.305	18570.7
540.67	18650.92
541.034	18657.7
541.399	18643.92
541.764	18891.59
542.129	18815.44
542.494	18897.7
542.858	18920.52
543.223	18892.27
543.587	19089.1
543.952	19078.48
544.316	19180.17
544.681	19150.57
545.045	19224.47
545.41	19230.12
545.774	19275.54
546.138	19296.33
546.503	19456.78
546.867	19453.84
547.231	19534.97
547.595	19504.91
547.959	19522.54
548.324	19734.74
548.688	19708.97
549.052	19798.46
549.416	19774.51
549.779	19833.49
550.143	19802.98
550.507	19859.25
550.871	20070.55
551.235	19956.2
551.599	20205.46
551.962	20252.91
552.326	20224.67
552.689	20271.67
553.053	20191.67
553.417	20307.15
553.78	20625.33
554.143	20585.33
554.507	20535.39
554.87	20766.8
555.234	20881.37
555.597	20707.14
555.96	20842.5
556.323	20914.82
556.686	21016.74
557.05	21143.74
557.413	21193.68
557.776	21240.46
558.139	21359.1
558.502	21409.95
558.865	21483.16
559.228	21759.99
559.59	21784.85
559.953	21782.37
560.316	22009.48
560.679	22063.94
561.041	22188.23
561.404	22249.25
561.767	22426.87
562.129	22248.12
562.492	22701.89
562.854	22649.91
563.217	22756.58
563.579	22924.26
563.941	23159.96
564.304	23270.01
564.666	23423.23
565.028	23449.21
565.39	23589.55
565.753	23782.54
566.115	23914.74
566.477	24109.08
566.839	24218.23
567.201	24462.75
567.563	24420.94
567.925	24759.24
568.287	24858.22
568.648	24961.04
569.01	25164.65
569.372	25618.65
569.734	25476.05
570.095	25626.33
570.457	25953.1
570.819	26104.96
571.18	26171.63
571.542	26430.6
571.903	26505.86
572.265	26854.55
572.626	26887.54
572.987	27019.97
573.349	27293.41
573.71	27457.92
574.071	27617.92
574.432	27803.45
574.794	28101.97
575.155	28141.07
575.516	28186.49
575.877	28438.24
576.238	28518.69
576.599	28750.09
576.96	28751
577.32	28923.87
577.681	29042.29
578.042	29276.86
578.403	29446.57
578.763	29383.07
579.124	29600.92
579.485	29654.7
579.845	29874.58
580.206	29805.88
580.566	29764.3
580.927	29995.93
581.287	30120
581.648	30077.97
582.008	30296.72
582.368	30469.59
582.728	30300.33
583.089	30366.09
583.449	30405.42
583.809	30428.24
584.169	30490.84
584.529	30437.28
584.889	30650.15
585.249	30526.99
585.609	30553.66
585.969	30683.83
586.329	30577.61
586.688	30787.1
587.048	30726.08
587.408	30788.23
587.768	30748.46
588.127	30717.72
588.487	30615.13
588.846	30984.38
589.206	30636.6
589.565	30692.19
589.925	30874.56
590.284	30873.2
590.643	30903.26
591.003	30805.86
591.362	31074.55
591.721	30954.33
592.08	31122.91
592.44	31110.03
592.799	30899.64
593.158	30929.92
593.517	30984.84
593.876	31160.65
594.235	31021.22
594.593	30959.07
594.952	31119.52
595.311	31088.11
595.67	30972.63
596.029	31301.66
596.387	31348.44
596.746	31256.24
597.104	31066.19
597.463	31207.65
597.822	31431.6
598.18	31320.19
598.538	31237.26
598.897	31500.3
599.255	31331.49
599.613	31749.79
599.972	31439.51
600.33	31484.26
600.688	31460.98
601.046	31541.88
601.404	31762.44
601.762	31635.67
602.12	31715.89
602.478	31726.74
602.836	31829.33
603.194	31652.16
603.552	31677.02
603.91	31775.1
604.268	31785.49
604.625	31817.36
604.983	31950.01
605.341	31727.87
605.698	32040.85
606.056	32260.06
606.413	32093.05
606.771	32201.75
607.128	32212.6
607.485	32086.05
607.843	32269.32
608.2	32379.83
608.557	32365.36
608.914	32413.95
609.272	32558.58
609.629	32679.25
609.986	32754.96
610.343	32638.8
610.7	32945.46
611.057	32838.12
611.414	32823.66
611.771	32955.18
612.127	33064.55
612.484	33035.4
612.841	33044.67
613.198	32932.81
613.554	32950.43
613.911	33354.26
614.267	33166.25
614.624	33192.46
614.98	33359.69
615.337	33516.29
615.693	33494.6
616.05	33502.51
616.406	33589.29
616.762	33451.89
617.118	33502.73
617.475	33411.89
617.831	33748.15
618.187	33654.6
618.543	33787.7
618.899	33959.9
619.255	33878.54
619.611	33930.29
619.967	34040.8
620.323	34118.76
620.678	34048.94
621.034	33871.09
621.39	34001.48
621.746	34216.16
622.101	34280.57
622.457	34038.77
622.812	34257.29
623.168	34255.71
623.523	34158.08
623.879	34246.44
624.234	34173
624.589	34188.82
624.945	34269.72
625.3	34221.81
625.655	34265.2
626.01	34302.94
626.365	34165.77
626.72	34210.96
627.075	34254.81
627.43	34227.69
627.785	34259.55
628.14	34177.97
628.495	34335.71
628.85	34253.45
629.205	34365.99
629.559	34349.94
629.914	34116.28
630.269	34152.66
630.623	34035.38
630.978	33965.77
631.332	34168.71
631.687	34121.7
632.041	34066.11
632.396	34097.3
632.75	34107.01
633.104	33987.47
633.459	33902.05
633.813	33897.75
634.167	33831.99
634.521	33894.36
634.875	33821.82
635.229	33804.87
635.583	33565.56
635.937	33561.72
636.291	33606.91
636.645	33589.96
636.999	33443.75
637.352	33503.64
637.706	33253.25
638.06	33525.56
638.413	33464.54
638.767	33243.98
639.121	33317.88
639.474	33122.41
639.828	33065.91
640.181	33157.66
640.534	33283.08
640.888	33085.8
641.241	32888.74
641.594	32909.98
641.947	32988.17
642.301	32954.73
642.654	32873.82
643.007	32934.84
643.36	33045.8
643.713	32810.78
644.066	32839.93
644.419	32739.59
644.771	32392.48
645.124	32078.59
645.477	32128.53
645.83	32058.03
646.182	31853.51
646.535	31884.25
646.888	32122.43
647.24	31980.29
647.593	32049.44
647.945	32008.99
648.298	31819.62
648.65	31649.9
649.002	31492.17
649.355	31392.51
649.707	31161.78
650.059	31134.66
650.411	31580.3
650.763	31880.86
651.115	32580.73
651.467	32295.08
651.819	32255.54
652.171	32159.49
652.523	32119.27
652.875	32074.52
653.227	31940.52
653.578	32240.62
653.93	32121.3
654.282	32065.94
654.633	32000.4
654.985	31983.68
655.337	32065.48
655.688	32008.76
656.039	32083.56
656.391	31786.85
656.742	31867.98
657.094	31910.69
657.445	31895.77
657.796	32044.92
658.147	31835.43
658.498	31899.84
658.849	31920.4
659.2	31863.91
659.551	31952.72
659.902	32122.66
660.253	31878.6
660.604	31958.82
660.955	31867.98
661.306	32074.98
661.656	31962.44
662.007	32025.71
662.358	32029.33
662.708	31996.33
663.059	31942.78
663.409	31911.36
663.76	32104.58
664.11	32008.08
664.461	32083.56
664.811	32026.62
665.161	32111.81
665.511	31916.34
665.862	32024.36
666.212	31998.82
666.562	32097.57
666.912	32071.13
667.262	31967.63
667.612	31869.78
667.962	31924.02
668.312	31937.13
668.662	32000.85
669.011	31965.15
669.361	32004.24
669.711	32003.34
670.06	31777.81
670.41	31790.92
670.76	31873.4
671.109	32026.39
671.459	31977.8
671.808	31869.33
672.157	31949.1
672.507	31698.49
672.856	31776.23
673.205	31837.02
673.554	31813.06
673.904	31681.54
674.253	32044.02
674.602	31751.37
674.951	31429.8
675.3	31154.1
675.649	31631.15
675.998	31685.38
676.346	31594.31
676.695	31784.14
677.044	31516.35
677.393	31534.88
677.741	31626.63
678.09	31485.39
678.438	31435.44
678.787	31494.88
679.135	31452.17
679.484	31208.78
679.832	31312.28
680.181	31177.6
680.529	31326.75
680.877	31161.78
681.225	31116.36
681.573	31326.52
681.922	31085.85
682.27	31000.2
682.618	31024.83
682.966	31017.15
683.314	30887.89
683.661	30866.87
684.009	30711.62
684.357	30746.65
684.705	30609.48
685.053	30594.79
685.4	30435.7
685.748	30461.46
686.095	30283.16
686.443	30269.83
686.79	30209.26
687.138	30334.46
687.485	30181.47
687.832	30032.54
688.18	29982.15
688.527	29931.53
688.874	29914.13
689.221	29933.56
689.568	29669.84
689.915	29567.7
690.262	29659.22
690.609	29512.56
690.956	29392.11
691.303	29366.8
691.65	29248.16
691.997	29203.64
692.344	29042.29
692.69	29060.82
693.037	28989.18
693.383	28746.25
693.73	28983.98
694.077	28575.18
694.423	28619.02
694.769	28499.48
695.116	28374.73
695.462	28247.05
695.808	28224.23
696.155	28222.65
696.501	28027.4
696.847	28046.16
697.193	27733.17
697.539	27803.45
697.885	27633.28
698.231	27578.14
698.577	27494.76
698.923	27509.45
699.269	27170.47
699.614	27258.15
699.96	27039.4
700.306	27163.47
700.651	26881.44
700.997	26817.49
701.342	26807.09
701.688	26708.11
702.033	26590.37
702.379	26596.02
702.724	26464.28
703.069	26517.38
703.415	26173.44
703.76	26178.63
704.105	26148.13
704.45	26066.77
704.795	25948.36
705.14	25867.68
705.485	25842.37
705.83	25610.74
706.175	25791.98
706.52	25606.22
706.865	25576.84
707.209	25448.71
707.554	25472.44
707.899	25392.21
708.243	25254.36
708.588	25262.73
708.932	25075.84
709.277	25063.18
709.621	24985.9
709.966	24935.5
710.31	24900.02
710.654	24806.47
710.998	24861.38
711.342	24880.36
711.687	24698.67
712.031	24631.33
712.375	24609.86
712.719	24597.66
713.063	24572.35
713.407	24624.55
713.75	24414.61
714.094	24375.29
714.438	24278.34
714.782	24386.14
715.125	24087.62
715.469	24376.65
715.812	24181.62
716.156	24131.91
716.499	24089.42
716.843	24243.54
717.186	24017.33
717.53	24071.57
717.873	24121.51
718.216	23999.93
718.559	23957.9
718.902	23853.72
719.246	23877.23
719.589	23854.85
719.932	23822.09
720.275	23756.1
720.617	23735.76
720.96	23764.69
721.303	23693.5
721.646	23855.3
721.989	23689.43
722.331	23739.6
722.674	23649.89
723.016	23707.74
723.359	23451.93
723.701	23609.44
724.044	23477.69
724.386	23453.96
724.729	23607.85
725.071	23493.05
725.413	23450.8
725.755	23544.58
726.097	23496.67
726.439	23417.12
726.782	23425.26
727.124	23430.91
727.465	23447.63
727.807	23290.35
728.149	23385.49
728.491	23405.15
728.833	23333.06
729.175	23378.26
729.516	23360.18
729.858	23336
730.199	23368.31
730.541	23362.44
730.882	23381.42
731.224	23431.14
731.565	23269.11
731.906	23334.41
732.248	23418.48
732.589	23295.77
732.93	23374.87
733.271	23279.95
733.612	23208.99
733.953	23398.14
734.294	23339.61
734.635	23321.76
734.976	23431.14
735.317	23324.02
735.658	23344.36
735.999	23306.62
736.339	23389.1
736.68	23435.43
737.021	23418.48
737.361	23367.41
737.702	23524.01
738.042	23387.07
738.383	23488.08
738.723	23536.67
739.063	23414.41
739.404	23610.34
739.744	23507.29
740.084	23406.5
740.424	23661.64
740.764	23491.7
741.104	23703.44
741.444	23510.23
741.784	23594.07
742.124	23605.14
742.464	23677.68
742.804	23647.17
743.143	23657.34
743.483	23752.93
743.823	23621.64
744.162	23700.05
744.502	23874.97
744.841	23847.17
745.181	23973.72
745.52	23882.65
745.86	23936.66
746.199	24003.55
746.538	23954.51
746.877	24211.68
747.216	24141.85
747.556	24138.01
747.895	24267.27
748.234	24187.73
748.573	24277.44
748.911	24346.59
749.25	24326.48
749.589	24322.86
749.928	24414.16
750.267	24496.87
750.605	24499.13
750.944	24563.31
751.283	24533.93
751.621	24580.48
751.96	24647.15
752.298	24787.26
752.636	24741.38
752.975	24856.41
753.313	24803.98
753.651	25136.18
753.989	25006.46
754.327	25106.57
754.666	25123.97
755.004	25240.13
