Data from 5405_FLMS001491_003.txt Node
Date: Thu Apr 19 16:38:14 BST 2018
User: hsy
Spectrometer: FLMS00149
Trigger mode: 0
Integration Time (sec): 1.000000E-2
Scans to average: 10
Electric dark correction enabled: true
Nonlinearity correction enabled: false
Boxcar width: 0
XAxis mode: Wavelengths
Number of Pixels in Spectrum: 2048
>>>>>Begin Spectral Data<<<<<
341.393	-14.87
341.776	-14.87
342.16	-14.87
342.543	-46.06
342.927	-67.98
343.31	-57.36
343.693	-65.49
344.077	-73.18
344.46	-69.11
344.843	-61.2
345.226	-46.06
345.61	-25.72
345.993	-21.88
346.376	-13.52
346.759	17.44
347.142	14.28
347.525	50.21
347.908	57.22
348.291	78.68
348.674	92.02
349.057	123.65
349.44	120.72
349.823	133.15
350.206	174.73
350.588	222.86
350.971	239.36
351.354	251.56
351.737	247.72
352.119	289.98
352.502	293.82
352.884	310.77
353.267	305.12
353.65	299.47
354.032	334.27
354.414	343.76
354.797	335.17
355.179	341.73
355.562	367.26
355.944	377.66
356.326	349.64
356.709	366.13
357.091	382.41
357.473	377.21
357.855	370.43
358.238	367.26
358.62	368.17
359.002	379.92
359.384	358.23
359.766	369.07
360.148	398
360.53	383.54
360.912	358.9
361.294	367.49
361.676	375.63
362.057	356.64
362.439	388.05
362.821	367.49
363.203	384.44
363.584	365.23
363.966	372.24
364.348	370.88
364.729	365.68
365.111	362.97
365.493	367.94
365.874	348.28
366.256	359.81
366.637	354.38
367.019	395.29
367.4	388.96
367.781	333.37
368.163	369.52
368.544	374.5
368.925	351.45
369.306	370.2
369.688	358
370.069	359.35
370.45	353.25
370.831	376.98
371.212	352.35
371.593	362.97
371.974	387.38
372.355	353.48
372.736	381.73
373.117	383.08
373.498	393.7
373.879	374.27
374.26	371.56
374.641	355.51
375.021	380.37
375.402	386.25
375.783	370.65
376.163	389.18
376.544	397.55
376.925	374.5
377.305	394.38
377.686	403.2
378.066	405.46
378.447	388.73
378.827	405
379.208	419.24
379.588	420.82
379.968	414.95
380.349	410.2
380.729	403.65
381.109	417.21
381.489	433.48
381.87	435.06
382.25	419.01
382.63	436.19
383.01	422.63
383.39	412.69
383.77	457.43
384.15	432.57
384.53	442.97
384.91	461.27
385.29	430.31
385.67	440.71
386.049	458.34
386.429	455.62
386.809	468.28
387.189	454.04
387.568	464.21
387.948	482.52
388.328	471.22
388.707	465.34
389.087	500.14
389.466	484.32
389.846	471.44
390.225	520.25
390.605	486.13
390.984	492.46
391.363	497.2
391.743	506.47
392.122	511.44
392.501	510.99
392.881	517.32
393.26	505.79
393.639	538.11
394.018	504.66
394.397	533.36
394.776	529.97
395.155	536.3
395.534	545.11
395.913	560.25
396.292	530.65
396.671	560.71
397.05	547.82
397.429	544.89
397.808	571.55
398.186	565
398.565	579.91
398.944	580.59
399.323	586.69
399.701	610.87
400.08	602.29
400.458	588.73
400.837	625.11
401.215	614.04
401.594	605.22
401.972	628.05
402.351	617.65
402.729	630.31
403.107	632.57
403.486	639.8
403.864	652.91
404.242	656.52
404.62	673.47
404.999	671.66
405.377	647.26
405.755	659.46
406.133	670.53
406.511	682.28
406.889	696.07
407.267	703.98
407.645	717.99
408.023	729.51
408.401	741.04
408.779	707.37
409.156	741.72
409.534	735.16
409.912	729.97
410.29	758.89
410.667	771.32
411.045	809.06
411.422	780.36
411.8	788.5
412.178	804.32
412.555	828.27
412.933	839.79
413.31	805.9
413.687	861.04
414.065	873.01
414.442	848.83
414.819	881.38
415.197	898.32
415.574	916.4
415.951	907.82
416.328	912.33
416.705	912.33
417.082	910.3
417.46	967.47
417.837	931.32
418.214	954.37
418.591	964.31
418.967	991.43
419.344	961.6
419.721	979.9
420.098	994.59
420.475	984.42
420.852	991.43
421.228	1038.66
421.605	1032.33
421.982	1063.07
422.358	1071.2
422.735	1060.13
423.111	1051.54
423.488	1071.88
423.864	1066.68
424.241	1086.57
424.617	1107.58
424.994	1123.85
425.37	1138.54
425.746	1146
426.123	1149.62
426.499	1169.73
426.875	1175.83
427.251	1195.72
427.627	1217.41
428.003	1229.84
428.379	1223.74
428.756	1248.82
429.132	1274.13
429.507	1283.17
429.883	1307.8
430.259	1288.6
430.635	1334.02
431.011	1346
431.387	1378.09
431.763	1375.37
432.138	1394.81
432.514	1422.83
432.89	1470.51
433.265	1472.55
433.641	1485.43
434.016	1492.21
434.392	1513.45
434.767	1508.03
435.143	1549.61
435.518	1545.09
435.894	1578.31
436.269	1574.24
436.644	1580.79
437.02	1623.95
437.395	1619.21
437.77	1664.63
438.145	1687.68
438.52	1682.94
438.895	1706.21
439.271	1703.05
439.646	1714.57
440.021	1745.99
440.395	1809.94
440.77	1736.27
441.145	1754.57
441.52	1787.79
441.895	1826.89
442.27	1803.16
442.645	1788.47
443.019	1834.8
443.394	1876.38
443.769	1869.6
444.143	1845.42
444.518	1873.44
444.892	1862.82
445.267	1901.69
445.641	1921.8
446.016	1935.36
446.39	1978.97
446.764	1984.85
447.139	1958.63
447.513	2004.28
447.887	1960.44
448.262	1955.92
448.636	1990.95
449.01	2013.77
449.384	2041.34
449.758	2060.78
450.132	2075.02
450.506	2097.61
450.88	2122.92
451.254	2130.61
451.628	2135.81
452.002	2155.01
452.376	2178.06
452.75	2230.49
453.123	2233.88
453.497	2264.84
453.871	2272.3
454.244	2338.51
454.618	2320.21
454.992	2356.59
455.365	2380.09
455.739	2421
456.112	2463.93
456.486	2468
456.859	2506.64
457.232	2538.96
457.606	2559.75
457.979	2600.65
458.352	2663.93
458.725	2626.87
459.099	2679.75
459.472	2694.43
459.845	2780.08
460.218	2782.12
460.591	2767.2
460.964	2848.33
461.337	2853.75
461.71	2938.95
462.083	2959.51
462.456	2969.46
462.829	2971.72
463.201	3047.65
463.574	3062.33
463.947	3083.13
464.32	3140.75
464.692	3166.96
465.065	3172.39
465.438	3261.2
465.81	3259.39
466.183	3306.85
466.555	3320.18
466.928	3365.38
467.3	3387.75
467.672	3402.89
468.045	3503.45
468.417	3488.76
468.789	3561.3
469.161	3550.46
469.534	3618.48
469.906	3701.41
470.278	3703.67
470.65	3772.37
471.022	3839.49
471.394	3923.78
471.766	3945.25
472.138	3945.25
472.51	4020.05
472.882	4053.72
473.253	4102.08
473.625	4182.08
473.997	4305.47
474.369	4245.35
474.74	4324
475.112	4374.16
475.484	4446.25
475.855	4514.95
476.227	4524.22
476.598	4676.98
476.97	4723.53
477.341	4808.28
477.713	4898.67
478.084	4905
478.455	5062.28
478.827	5136.18
479.198	5206.69
479.569	5220.47
479.94	5374.36
480.311	5467.7
480.682	5550.86
481.053	5687.35
481.424	5681.93
481.795	5729.16
482.166	5869.04
482.537	5929.6
482.908	6073.78
483.279	6153.33
483.65	6234.91
484.021	6397.16
484.391	6420.44
484.762	6491.62
485.133	6548.12
485.503	6625.86
485.874	6787.66
486.244	6897.94
486.615	6992.17
486.985	7035.79
487.356	7236.01
487.726	7280.98
488.097	7475.78
488.467	7488.66
488.837	7647.52
489.207	7724.13
489.578	7883
489.948	7916.67
490.318	7995.09
490.688	8087.74
491.058	8189.66
491.428	8376.55
491.798	8438.69
492.168	8587.84
492.538	8636.43
492.908	8646.37
493.278	8844.33
493.648	8849.98
494.017	8945.12
494.387	9124.1
494.757	9163.64
495.126	9262.4
495.496	9276.86
495.866	9388.95
496.235	9457.42
496.605	9607.25
496.974	9588.26
497.344	9790.07
497.713	9720.92
498.082	9834.36
498.452	9890.4
498.821	9955.26
499.19	10103.51
499.559	10072.32
499.928	10156.16
500.298	10220.56
500.667	10352.99
501.036	10375.36
501.405	10428.24
501.774	10489.26
502.143	10624.62
502.512	10667.56
502.88	10810.83
503.249	10742.13
503.618	10819.42
503.987	10877.5
504.356	10969.25
504.724	11042.24
505.093	11067.1
505.462	11114.1
505.83	11190.71
506.199	11309.58
506.567	11407.88
506.936	11403.13
507.304	11492.62
507.672	11612.39
508.041	11554.09
508.409	11689.45
508.777	11844.02
509.145	11970.12
509.514	11886.74
509.882	12047.18
510.25	12106.39
510.618	12192.26
510.986	12134.41
511.354	12405.37
511.722	12412.15
512.09	12555.19
512.458	12507.28
512.826	12719.48
513.193	12738.24
513.561	12775.75
513.929	12812.81
514.297	12971.45
514.664	13080.6
515.032	13126.25
515.4	13306.59
515.767	13384.1
516.135	13393.36
516.502	13315.4
516.869	13554.04
517.237	13645.79
517.604	13606.01
517.972	13873.58
518.339	13946.34
518.706	14008.49
519.073	14041.93
519.44	14180.01
519.808	14330.96
520.175	14314.47
520.542	14556.5
520.909	14604.18
521.276	14731.18
521.643	14887.11
522.009	14984.06
522.376	15073.77
522.743	15199.19
523.11	15370.03
523.477	15513.31
523.843	15520.09
524.21	15714.66
524.577	15987.42
524.943	16039.62
525.31	16027.19
525.676	16174.76
526.043	16393.96
526.409	16412.04
526.776	16669.43
527.142	16730.45
527.508	16826.04
527.874	16946.49
528.241	17135.64
528.607	17119.82
528.973	17364.11
529.339	17417.66
529.705	17620.82
530.071	17678.22
530.437	17767.94
530.803	17894.71
531.169	18005.22
531.535	18044.31
531.901	18191.88
532.267	18269.39
532.632	18393.91
532.998	18424.42
533.364	18654.02
533.73	18646.33
534.095	18806.1
534.461	18837.06
534.826	18930.17
535.192	18991.18
535.557	19177.17
535.923	19184.85
536.288	19225.3
536.653	19366.54
537.019	19333.09
537.384	19507.1
537.749	19608.57
538.114	19636.36
538.479	19525.18
538.845	19689.69
539.21	19662.35
539.575	19859.41
539.94	19837.26
540.305	20026.18
540.67	19872.97
541.034	20079.51
541.399	20039.06
541.764	20103.92
542.129	20190.7
542.494	20227.08
542.858	20180.53
543.223	20174.43
543.587	20386.85
543.952	20422.56
544.316	20511.37
544.681	20485.15
545.045	20629.33
545.41	20598.82
545.774	20646.28
546.138	20671.36
546.503	20769.44
546.867	20869.55
547.231	20976.67
547.595	21017.79
547.959	21201.29
548.324	21174.4
548.688	21098.02
549.052	21225.02
549.416	21168.75
549.779	21168.98
550.143	21200.16
550.507	21399.93
550.871	21523.09
551.235	21546.37
551.599	21694.39
551.962	21585.46
552.326	21709.3
552.689	21803.76
553.053	21729.19
553.417	21800.6
553.78	22187.03
554.143	22103.64
554.507	22131.89
554.87	22189.06
555.234	22346.57
555.597	22296.41
555.96	22455.72
556.323	22460.47
556.686	22493.46
557.05	22788.14
557.413	22811.65
557.776	22706.11
558.139	22968.7
558.502	23075.59
558.865	23042.6
559.228	23239.43
559.59	23149.26
559.953	23324.85
560.316	23668.12
560.679	23606.88
561.041	23750.15
561.404	23948.11
561.767	24114.89
562.129	23983.59
562.492	24274.88
562.854	24274.66
563.217	24426.97
563.579	24555.1
563.941	24806.85
564.304	24983.57
564.666	25138.14
565.028	25146.05
565.39	25260.17
565.753	25476.89
566.115	25589.43
566.477	25719.82
566.839	25810.44
567.201	26221.05
567.563	26213.82
567.925	26548.5
568.287	26543.53
568.648	26760.47
569.01	26796.85
569.372	27129.27
569.734	27098.31
570.095	27387.8
570.457	27719.31
570.819	27804.06
571.18	27810.61
571.542	28123.37
571.903	28274.1
572.265	28461.67
572.626	28649.46
572.987	28937.59
573.349	28904.37
573.71	29163.57
574.071	29355.88
574.432	29558.81
574.794	29739.6
575.155	29846.94
575.516	29839.94
575.877	30062.75
576.238	30227.04
576.599	30356.31
576.96	30521.73
577.32	30625.9
577.681	30791.55
578.042	31008.49
578.403	31003.97
578.763	31072.67
579.124	31192.44
579.485	31368.94
579.845	31567.35
580.206	31493.45
580.566	31627.46
580.927	31722.37
581.287	31863.16
581.648	31808.47
582.008	32026.32
582.368	32042.36
582.728	32091.4
583.089	32132.53
583.449	32098.86
583.809	32252.08
584.169	32176.15
584.529	32177.28
584.889	32468.79
585.249	32254.56
585.609	32135.02
585.969	32325.29
586.329	32288.01
586.688	32482.58
587.048	32382.69
587.408	32461.56
587.768	32410.49
588.127	32502.01
588.487	32475.8
588.846	32630.37
589.206	32464.5
589.565	32553.76
589.925	32671.27
590.284	32624.27
590.643	32575.23
591.003	32728
591.362	32824.72
591.721	32713.76
592.08	32682.12
592.44	32871.49
592.799	32915.79
593.158	32858.84
593.517	32782.46
593.876	32924.37
594.235	32834.21
594.593	32793.98
594.952	32953.07
595.311	32800.76
595.67	33026.07
596.029	33127.08
596.387	33110.58
596.746	33229.9
597.104	33158.72
597.463	33024.26
597.822	33393.51
598.18	33080.75
598.538	33035.56
598.897	33453.17
599.255	33081.21
599.613	33581.98
599.972	33265.61
600.33	33316.23
600.688	33265.83
601.046	33444.81
601.404	33676.67
601.762	33560.52
602.12	33761.87
602.478	33675.99
602.836	33830.11
603.194	33559.61
603.552	33633.96
603.91	33614.75
604.268	33817.01
604.625	33760.74
604.983	33898.13
605.341	33572.27
605.698	33984.46
606.056	34095.42
606.413	33982.2
606.771	34161.18
607.128	34178.35
607.485	34051.35
607.843	34096.55
608.2	34200.05
608.557	34362.08
608.914	34317.78
609.272	34513.94
609.629	34587.38
609.986	34633.71
610.343	34514.39
610.7	34754.83
611.057	34700.15
611.414	34665.12
611.771	34887.71
612.127	34906.24
612.484	34844.32
612.841	34941.27
613.198	34903.98
613.554	34976.98
613.911	35233.01
614.267	35181.26
614.624	35199.34
614.98	35197.76
615.337	35516.62
615.693	35372.45
616.05	35374.25
616.406	35595.49
616.762	35310.75
617.118	35449.51
617.475	35476.62
617.831	35717.75
618.187	35759.33
618.543	35728.37
618.899	35989.38
619.255	35883.84
619.611	35939.66
619.967	35940.57
620.323	36063.73
620.678	35892.88
621.034	35938.76
621.39	35941.7
621.746	35851.76
622.101	36378.75
622.457	35896.73
622.812	36146.21
623.168	36169.71
623.523	36159.77
623.879	36264.4
624.234	36134.69
624.589	36210.62
624.945	36230.05
625.3	36283.16
625.655	36292.42
626.01	36286.55
626.365	36375.36
626.72	36145.31
627.075	36251.74
627.43	36163.16
627.785	36268.24
628.14	36255.13
628.495	36274.79
628.85	36205.42
629.205	36171.07
629.559	36245.19
629.914	36137.4
630.269	36160
630.623	35948.93
630.978	35755.03
631.332	36161.58
631.687	36122.93
632.041	35948.48
632.396	35996.84
632.75	35930.17
633.104	36035.25
633.459	35809.04
633.813	35779.67
634.167	35783.28
634.521	35747.8
634.875	35704.19
635.229	35680.01
635.583	35491.76
635.937	35567.47
636.291	35481.37
636.645	35440.69
636.999	35247.7
637.352	35313.46
637.706	35190.98
638.06	35544.42
638.413	35361.82
638.767	35186.24
639.121	35220.36
639.474	34994.15
639.828	35112.57
640.181	35031.44
640.534	35060.36
640.888	34808.84
641.241	34749.41
641.594	34820.14
641.947	34894.04
642.301	34869.63
642.654	34687.27
643.007	34702.41
643.36	34745.8
643.713	34748.96
644.066	34792.8
644.419	34585.12
644.771	34214.74
645.124	33908.76
645.477	33992.82
645.83	33807.52
646.182	33927.51
646.535	33751.02
646.888	33828.98
647.24	33653.85
647.593	34029.2
647.945	33785.59
648.298	33647.97
648.65	33412.72
649.002	33356.23
649.355	33169.34
649.707	33062.68
650.059	33024.48
650.411	33525.26
650.763	33780.17
651.115	34313.94
651.467	33962.99
651.819	34116.43
652.171	33993.27
652.523	33911.24
652.875	34006.15
653.227	33858.59
653.578	34046.83
653.93	34050.22
654.282	33845.25
654.633	33947.62
654.985	33831.92
655.337	33955.31
655.688	33883.22
656.039	33973.16
656.391	33828.98
656.742	33701.08
657.094	33650.46
657.445	33763.67
657.796	33910.34
658.147	33784.46
658.498	33736.1
658.849	33903.56
659.2	33793.5
659.551	33686.61
659.902	33995.08
660.253	33701.3
660.604	33888.19
660.955	33691.59
661.306	33859.27
661.656	33748.31
662.007	33727.97
662.358	33743.34
662.708	33785.59
663.059	33647.07
663.409	33652.04
663.76	33852.71
664.11	33763.67
664.461	33820.4
664.811	33778.36
665.161	33859.04
665.511	33715.99
665.862	33774.07
666.212	33833.96
666.562	33850.68
666.912	33836.21
667.262	33708.99
667.612	33623.11
667.962	33775.65
668.312	33626.5
668.662	34007.28
669.011	33797.12
669.361	33803
669.711	33806.61
670.06	33652.94
670.41	33605.03
670.76	33742.66
671.109	33857.01
671.459	33613.62
671.808	33735.88
672.157	33676.45
672.507	33470.35
672.856	33427.19
673.205	33553.74
673.554	33536.34
673.904	33585.15
674.253	33797.8
674.602	33484.36
674.951	33179.73
675.3	33031.49
675.649	33430.35
675.998	33545.83
676.346	33620.63
676.695	33513.74
677.044	33367.75
677.393	33390.12
677.741	33421.31
678.09	33243.69
678.438	33280.07
678.787	33434.64
679.135	33241.43
679.484	33059.74
679.832	33242.11
680.181	33078.27
680.529	33018.61
680.877	32955.11
681.225	32990.14
681.573	33285.04
681.922	32948.55
682.27	32886.18
682.618	32828.33
682.966	32706.08
683.314	32839.86
683.661	32614.1
684.009	32570.94
684.357	32495.01
684.705	32318.06
685.053	32495.69
685.4	32244.62
685.748	32195.81
686.095	32191.29
686.443	31863.16
686.79	31825.87
687.138	32045.75
687.485	32027.45
687.832	31824.52
688.18	31813.22
688.527	31676.27
688.874	31599.44
689.221	31530.06
689.568	31366.9
689.915	31265.89
690.262	31235.83
690.609	31209.62
690.956	31104.76
691.303	31034.03
691.65	30977.53
691.997	30819.35
692.344	30655.73
692.69	30616.64
693.037	30566.24
693.383	30319.7
693.73	30408.28
694.077	30261.62
694.423	30185.01
694.769	29892.36
695.116	30053.04
695.462	29815.98
695.808	29843.33
696.155	29840.84
696.501	29482.88
696.847	29750.22
697.193	29365.15
697.539	29500.06
697.885	29187.3
698.231	29043.57
698.577	29095.32
698.923	29014.42
699.269	28824.14
699.614	28662.79
699.96	28555.9
700.306	28631.15
700.651	28494.43
700.997	28379.86
701.342	28281.56
701.688	28300.99
702.033	28068.23
702.379	28082.92
702.724	27899.87
703.069	28000.66
703.415	27725.87
703.76	27730.84
704.105	27677.73
704.45	27550.28
704.795	27422.15
705.14	27392.99
705.485	27309.61
705.83	27239.55
706.175	27401.36
706.52	27146
706.865	27082.27
707.209	27089.73
707.554	26908.71
707.899	26946.9
708.243	26773.12
708.588	26756.4
708.932	26627.14
709.277	26612.45
709.621	26420.59
709.966	26336.53
710.31	26397.09
710.654	26227.6
710.998	26291.55
711.342	26254.49
711.687	26099.7
712.031	26026.48
712.375	25974.73
712.719	25967.95
713.063	25944.22
713.407	26068.74
713.75	25877.78
714.094	25842.75
714.438	25689.08
714.782	25667.62
715.125	25584.68
715.469	25684.79
715.812	25478.69
716.156	25500.61
716.499	25480.95
716.843	25523.44
717.186	25346.95
717.53	25515.98
717.873	25380.17
718.216	25429.2
718.559	25279.38
718.902	25238.25
719.246	25302.65
719.589	25147.4
719.932	25171.58
720.275	25132.49
720.617	25186.5
720.96	25028.76
721.303	25077.8
721.646	25126.16
721.989	25086.16
722.331	25064.47
722.674	25097.91
723.016	25068.31
723.359	24904.92
723.701	24967.75
724.044	24879.16
724.386	24690.69
724.729	24939.73
725.071	24858.6
725.413	24824.02
725.755	24710.58
726.097	24795.32
726.439	24688.43
726.782	24698.38
727.124	24765.72
727.465	24720.75
727.807	24628.1
728.149	24671.94
728.491	24639.17
728.833	24778.37
729.175	24703.57
729.516	24675.33
729.858	24677.81
730.199	24725.27
730.541	24570.24
730.882	24586.74
731.224	24499.96
731.565	24512.39
731.906	24574.09
732.248	24623.8
732.589	24511.04
732.93	24533.41
733.271	24597.59
733.612	24556.01
733.953	24600.75
734.294	24590.36
734.635	24525.95
734.976	24579.28
735.317	24559.4
735.658	24574.76
735.999	24539.51
736.339	24511.94
736.68	24593.07
737.021	24613.86
737.361	24521.88
737.702	24746.74
738.042	24468.55
738.383	24624.48
738.723	24695.89
739.063	24612.5
739.404	24714.65
739.744	24741.76
740.084	24649.56
740.424	24669.9
740.764	24655.44
741.104	24835.1
741.444	24763.91
741.784	24644.14
742.124	24791.25
742.464	24829.22
742.804	24766.4
743.143	24721.88
743.483	24878.71
743.823	24891.82
744.162	24871.7
744.502	25018.59
744.841	25018.82
745.181	25113.28
745.52	25049.33
745.86	25186.05
746.199	25136.1
746.538	25173.62
746.877	25292.48
747.216	25339.94
747.556	25378.58
747.895	25354.18
748.234	25293.16
748.573	25456.55
748.911	25474.4
749.25	25584.68
749.589	25635.3
749.928	25767.95
750.267	25725.92
750.605	25770.66
750.944	25808.18
751.283	25746.26
751.621	25966.82
751.96	25891.79
752.298	25993.26
752.636	26035.52
752.975	26086.36
753.313	26100.37
753.651	26356.41
753.989	26195.29
754.327	26381.72
754.666	26210.65
755.004	26412.46
