Data from 583_FLMS001491_010.txt Node
Date: Thu Apr 19 15:43:39 BST 2018
User: hsy
Spectrometer: FLMS00149
Trigger mode: 0
Integration Time (sec): 1.000000E-2
Scans to average: 10
Electric dark correction enabled: true
Nonlinearity correction enabled: false
Boxcar width: 0
XAxis mode: Wavelengths
Number of Pixels in Spectrum: 2048
>>>>>Begin Spectral Data<<<<<
341.393	9.67
341.776	9.67
342.16	9.67
342.543	-62.87
342.927	-72.58
343.31	-47.05
343.693	-67.61
344.077	-63.09
344.46	-56.54
344.843	-71.45
345.226	-23.09
345.61	-15.41
345.993	-28.06
346.376	4.25
346.759	-1.62
347.142	9.9
347.525	32.27
347.908	55.32
348.291	76.79
348.674	95.55
349.057	99.84
349.44	149.56
349.823	160.63
350.206	183.46
350.588	230.46
350.971	246.28
351.354	246.05
351.737	256.9
352.119	306.39
352.502	296.67
352.884	297.58
353.267	324.02
353.65	332.15
354.032	342.77
354.414	331.93
354.797	349.78
355.179	375.99
355.562	363.11
355.944	374.41
356.326	362.66
356.709	373.51
357.091	378.03
357.473	394.98
357.855	397.46
358.238	392.04
358.62	389.33
359.002	387.97
359.384	387.29
359.766	376.9
360.148	378.7
360.53	392.49
360.912	396.56
361.294	370.34
361.676	374.41
362.057	380.06
362.439	356.33
362.821	386.84
363.203	371.25
363.584	392.72
363.966	384.81
364.348	370.57
364.729	379.61
365.111	363.11
365.493	366.73
365.874	379.61
366.256	400.17
366.637	385.26
367.019	368.31
367.4	370.8
367.781	363.34
368.163	361.98
368.544	362.43
368.925	383.22
369.306	385.94
369.688	365.15
370.069	399.27
370.45	373.73
370.831	363.56
371.212	390
371.593	377.8
371.974	367.41
372.355	378.25
372.736	388.2
373.117	395.2
373.498	406.05
373.879	384.13
374.26	357.24
374.641	387.52
375.021	394.75
375.402	385.71
375.783	397.91
376.163	410.79
376.544	395.65
376.925	396.78
377.305	395.65
377.686	389.33
378.066	417.35
378.447	393.17
378.827	416.9
379.208	429.32
379.588	415.77
379.968	417.35
380.349	411.7
380.729	401.53
381.109	424.13
381.489	408.99
381.87	448.31
382.25	429.55
382.63	426.39
383.01	443.11
383.39	444.24
383.77	428.65
384.15	442.66
384.53	447.86
384.91	460.74
385.29	460.96
385.67	456.44
386.049	454.86
386.429	458.7
386.809	456.44
387.189	472.04
387.568	469.55
387.948	473.84
388.328	481.07
388.707	472.04
389.087	497.57
389.466	492.83
389.846	487.4
390.225	480.4
390.605	499.15
390.984	493.05
391.363	499.83
391.743	525.14
392.122	531.24
392.501	524.01
392.881	540.28
393.26	505.48
393.639	537.34
394.018	512.71
394.397	528.53
394.776	529.44
395.155	564.69
395.534	521.3
395.913	510.9
396.292	546.84
396.671	578.25
397.05	562.65
397.429	555.42
397.808	550.23
398.186	548.87
398.565	557.46
398.944	548.87
399.323	586.16
399.701	568.76
400.08	597.46
400.458	583.45
400.837	603.78
401.215	605.14
401.594	583.22
401.972	602.88
402.351	608.08
402.729	615.31
403.107	631.81
403.486	639.71
403.864	613.05
404.242	620.73
404.62	610.11
404.999	638.36
405.377	635.42
405.755	638.81
406.133	670
406.511	642.2
406.889	675.65
407.267	637
407.645	644.91
408.023	656.44
408.401	699.6
408.779	666.38
409.156	677.91
409.534	705.25
409.912	710.45
410.29	724.23
410.667	744.34
411.045	748.19
411.422	735.98
411.8	745.47
412.178	735.53
412.555	754.74
412.933	765.14
413.31	761.75
413.687	796.32
414.065	795.42
414.442	794.74
414.819	820.95
415.197	796.77
415.574	820.95
415.951	823.66
416.328	843.78
416.705	832.93
417.082	827.51
417.46	840.16
417.837	852.82
418.214	879.03
418.591	864.12
418.967	877.67
419.344	891.23
419.721	876.09
420.098	884.91
420.475	891.91
420.852	910.67
421.228	905.7
421.605	909.54
421.982	935.75
422.358	933.04
422.735	949.31
423.111	944.57
423.488	963.32
423.864	969.2
424.241	991.8
424.617	994.51
424.994	978.01
425.37	982.98
425.746	973.27
426.123	993.6
426.499	1027.5
426.875	1042.42
427.251	1056.43
427.627	1028.41
428.003	1052.13
428.379	1053.72
428.756	1074.73
429.132	1104.56
429.507	1116.99
429.883	1097.56
430.259	1117.67
430.635	1142.53
431.011	1153.15
431.387	1171.45
431.763	1181.62
432.138	1185.69
432.514	1198.12
432.89	1224.11
433.265	1255.97
433.641	1253.26
434.016	1261.62
434.392	1272.24
434.767	1259.13
435.143	1294.61
435.518	1294.61
435.894	1320.37
436.269	1326.02
436.644	1336.65
437.02	1344.1
437.395	1367.38
437.77	1381.84
438.145	1429.52
438.52	1385.91
438.895	1460.71
439.271	1418.45
439.646	1443.76
440.021	1472.01
440.395	1425.23
440.77	1443.76
441.145	1459.13
441.52	1490.54
441.895	1502.97
442.27	1483.53
442.645	1502.52
443.019	1523.76
443.394	1520.6
443.769	1513.59
444.143	1534.38
444.518	1519.47
444.892	1553.59
445.267	1579.13
445.641	1578.22
446.016	1612.8
446.39	1630.42
446.764	1609.63
447.139	1630.2
447.513	1616.64
447.887	1642.63
448.262	1654.83
448.636	1643.98
449.01	1679.24
449.384	1707.94
449.758	1691.21
450.132	1714.94
450.506	1771.89
450.88	1741.38
451.254	1778.67
451.628	1800.81
452.002	1754.94
452.376	1815.5
452.75	1826.8
453.123	1830.87
453.497	1837.88
453.871	1868.16
454.244	1944.09
454.618	1929.85
454.992	1968.27
455.365	2006.23
455.739	1981.37
456.112	2014.59
456.486	2077.64
456.859	2066.8
457.232	2100.47
457.606	2115.61
457.979	2149.51
458.352	2186.79
458.725	2195.61
459.099	2201.26
459.472	2266.79
459.845	2311.99
460.218	2294.36
460.591	2306.79
460.964	2351.53
461.337	2342.72
461.71	2431.98
462.083	2457.29
462.456	2480.8
462.829	2482.15
463.201	2520.12
463.574	2534.13
463.947	2582.71
464.32	2587.91
464.692	2646.44
465.065	2643.73
465.438	2719.66
465.81	2737.29
466.183	2720.11
466.555	2788.36
466.928	2787
467.3	2808.92
467.672	2844.85
468.045	2934.57
468.417	2894.12
468.789	2949.48
469.161	3001.01
469.534	3020.22
469.906	3068.58
470.278	3120.55
470.65	3147.45
471.022	3212.3
471.394	3233.09
471.766	3233.09
472.138	3371.17
472.51	3387.21
472.882	3450.26
473.253	3445.06
473.625	3565.97
473.997	3557.15
474.369	3669.69
474.74	3691.84
475.112	3732.97
475.484	3777.94
475.855	3845.05
476.227	3904.49
476.598	4026.07
476.97	4043.69
477.341	4125.27
477.713	4184.93
478.084	4227.19
478.455	4372.72
478.827	4393.51
479.198	4499.05
479.569	4587.18
479.94	4678.7
480.311	4727.52
480.682	4881.41
481.053	4958.47
481.424	5050.67
481.795	5095.87
482.166	5218.8
482.537	5303.55
482.908	5391.91
483.279	5497.89
483.65	5606.14
484.021	5723.42
484.391	5834.83
484.762	5925.9
485.133	5953.7
485.503	6070.76
485.874	6202.73
486.244	6336.29
486.615	6468.94
486.985	6571.54
487.356	6688.14
487.726	6849.95
488.097	7019.66
488.467	7094.91
488.837	7284.51
489.207	7339.2
489.578	7609.48
489.948	7686.08
490.318	7875.23
490.688	7908
491.058	8129.24
491.428	8317.48
491.798	8482.9
492.168	8671.82
492.538	8762.67
492.908	8904.13
493.278	9091.7
493.648	9266.38
494.017	9415.3
494.387	9628.18
494.757	9741.85
495.126	9991.79
495.496	10114.04
495.866	10293.7
496.235	10541.6
496.605	10784.98
496.974	10850.75
497.344	11034.47
497.713	11298.19
498.082	11356.95
498.452	11609.82
498.821	11785.41
499.19	11921.9
499.559	12223.82
499.928	12448.67
500.298	12620.19
500.667	12905.16
501.036	13001.42
501.405	13234.19
501.774	13352.83
502.143	13665.81
502.512	13963.66
502.88	14154.39
503.249	14264.44
503.618	14558.44
503.987	14753.69
504.356	15051.31
504.724	15257.86
505.093	15481.13
505.462	15792.99
505.83	15882.03
506.199	16171.96
506.567	16505.96
506.936	16656.47
507.304	16967.42
507.672	17113.63
508.041	17406.05
508.409	17606.95
508.777	17860.73
509.145	18210.78
509.514	18324
509.882	18648.05
510.25	18847.15
510.618	19140.92
510.986	19170.53
511.354	19366.68
511.722	19833.33
512.09	20160.56
512.458	20044.4
512.826	20522.36
513.193	20621.34
513.561	20982.23
513.929	21069.01
514.297	21424.03
514.664	21494.08
515.032	21765.26
515.4	22113.05
515.767	22332.03
516.135	22434.17
516.502	22439.37
516.869	22950.99
517.237	23113.93
517.604	23091.33
517.972	23485.67
518.339	23671.88
518.706	23876.84
519.073	24015.37
519.44	24209.04
519.808	24587.11
520.175	24633.89
520.542	24977.38
520.909	25137.83
521.276	25368.78
521.643	25673.63
522.009	25742.11
522.376	26111.14
522.743	26252.83
523.11	26547.06
523.477	26853.04
523.843	26814.85
524.21	27340.48
524.577	27495.51
524.943	27742.51
525.31	27848.94
525.676	28208.03
526.043	28425.2
526.409	28642.37
526.776	28875.36
527.142	28961.68
527.508	29225.4
527.874	29526.41
528.241	29581.1
528.607	29867.42
528.973	30234.19
529.339	30103.8
529.705	30641.86
530.071	30656.55
530.437	30879.6
530.803	31110.1
531.169	31316.87
531.535	31299.93
531.901	31412.01
532.267	31659.69
532.632	31853.13
532.998	31878.89
533.364	32233.91
533.73	32184.42
534.095	32537.86
534.461	32535.15
534.826	32631.87
535.192	32912.31
535.557	33027.11
535.923	33038.18
536.288	33186.43
536.653	33269.59
537.019	33385.97
537.384	33595.46
537.749	33615.34
538.114	33736.47
538.479	33722.91
538.845	33831.61
539.21	33837.49
539.575	33850.59
539.94	33930.14
540.305	34174.88
540.67	34204.03
541.034	34315.21
541.399	34343.46
541.764	34534.42
542.129	34567.41
542.494	34629.1
542.858	34730.57
543.223	34606.96
543.587	34917.01
543.952	34875.65
544.316	35027.29
544.681	34905.71
545.045	35178.69
545.41	35301.4
545.774	35235.42
546.138	35155.64
546.503	35267.5
546.867	35358.58
547.231	35438.12
547.595	35688.06
547.959	35714.05
548.324	35704.33
548.688	35801.73
549.052	35830.65
549.416	35840.15
549.779	35955.85
550.143	36081.49
550.507	36352.22
550.871	36276.29
551.235	36209.63
551.599	36490.52
551.962	36641.93
552.326	36615.72
552.689	36687.58
553.053	36568.94
553.417	36744.3
553.78	37021.81
554.143	36978.65
554.507	37097.06
554.87	37246.89
555.234	37468.58
555.597	37185.87
555.96	37438.07
556.323	37507.45
556.686	37577.27
557.05	37823.37
557.413	37858.4
557.776	37852.75
558.139	38031.73
558.502	38200.31
558.865	38114.44
559.228	38505.16
559.59	38438.04
559.953	38465.61
560.316	38859.95
560.679	38909.89
561.041	38978.37
561.404	39352.14
561.767	39475.98
562.129	39472.82
562.492	39663.1
562.854	39716.2
563.217	39567.96
563.579	39834.84
563.941	40015.85
564.304	40051.11
564.666	40439.8
565.028	40386.69
565.39	40559.34
565.753	40821.03
566.115	40762.05
566.477	40906
566.839	41150.29
567.201	41474.12
567.563	41355.93
567.925	41518.19
568.287	41617.17
568.648	41745.53
569.01	41950.94
569.372	42219.19
569.734	42209.47
570.095	42453.76
570.457	42478.61
570.819	42554.77
571.18	42552.06
571.542	42958.6
571.903	42832.05
572.265	43078.82
572.626	43244.47
572.987	43213.28
573.349	43405.82
573.71	43436.56
574.071	43705.48
574.432	43657.79
574.794	43938.24
575.155	44064.34
575.516	43865.02
575.877	44030.66
576.238	44027.73
576.599	44207.83
576.96	44264.1
577.32	44415.74
577.681	44272.69
578.042	44497.77
578.403	44470.88
578.763	44415.29
579.124	44570.99
579.485	44796.75
579.845	44747.26
580.206	44687.14
580.566	44742.28
580.927	44718.33
581.287	44900.92
581.648	44700.93
582.008	44886.69
582.368	44872.45
582.728	44910.64
583.089	44936.4
583.449	44857.08
583.809	44865.22
584.169	45048.94
584.529	44886.01
584.889	45090.75
585.249	44861.15
585.609	44774.37
585.969	45015.95
586.329	45007.36
586.688	45007.14
587.048	44964.88
587.408	44847.82
587.768	44996.29
588.127	44875.39
588.487	44810.08
588.846	45041.71
589.206	44474.95
589.565	44645.11
589.925	44948.38
590.284	44776.41
590.643	44848.72
591.003	44745.22
591.362	45112.67
591.721	44884.65
592.08	44803.53
592.44	45018.66
592.799	44743.41
593.158	44987.7
593.517	44808.04
593.876	45017.98
594.235	44745.45
594.593	44873.13
594.952	44832
595.311	44874.94
595.67	44884.88
596.029	45038.1
596.387	45010.75
596.746	45213.23
597.104	44936.86
597.463	44852.79
597.822	45083.52
598.18	44870.87
598.538	45017.98
598.897	45155.83
599.255	44953.58
599.613	45398.09
599.972	45097.3
600.33	45236.06
600.688	45153.57
601.046	45316.28
601.404	45358.99
601.762	45426.11
602.12	45463.39
602.478	45459.33
602.836	45439.21
603.194	45268.82
603.552	45470.63
603.91	45483.73
604.268	45536.39
604.625	45450.97
604.983	45542.04
605.341	45437.86
605.698	45658.19
606.056	45826.32
606.413	45644.86
606.771	45879.66
607.128	45899.99
607.485	45820
607.843	45861.8
608.2	46041.46
608.557	46112.42
608.914	46130.72
609.272	46144.51
609.629	46310.83
609.986	46452.97
610.343	46285.97
610.7	46611.39
611.057	46455.23
611.414	46474.89
611.771	46678.96
612.127	46750.14
612.484	46687.09
612.841	46836.01
613.198	46635.34
613.554	46692.97
613.911	46986.52
614.267	46949.46
614.624	46756.02
614.98	47012.73
615.337	47257.02
615.693	47146.74
616.05	47179.96
616.406	47500.4
616.762	47210.24
617.118	47394.64
617.475	47269.45
617.831	47516.67
618.187	47603.9
618.543	47617.91
618.899	47906.27
619.255	47836.21
619.611	47723.9
619.967	47831.02
620.323	47915.08
620.678	47726.16
621.034	47676.22
621.39	47700.17
621.746	47697.91
622.101	48179.26
622.457	47823.78
622.812	48046.38
623.168	48063.33
623.523	47976.55
623.879	48099.71
624.234	47962.09
624.589	48121.63
624.945	48082.99
625.3	48084.34
625.655	48084.79
626.01	48170.67
626.365	48199.59
626.72	48033.27
627.075	48113.27
627.43	48057.9
627.785	47939.94
628.14	48096.32
628.495	48129.09
628.85	48179.48
629.205	48014.51
629.559	48209.76
629.914	47958.7
630.269	48141.06
630.623	47886.83
630.978	47813.84
631.332	48066.26
631.687	47974.52
632.041	47913.5
632.396	47869.66
632.75	47814.97
633.104	47778.14
633.459	47527.3
633.813	47555.09
634.167	47480.97
634.521	47567.29
634.875	47629.67
635.229	47563.9
635.583	47330.24
635.937	47285.04
636.291	47308.54
636.645	47340.86
636.999	47089.57
637.352	47313.06
637.706	46956.01
638.06	47136.12
638.413	46906.75
638.767	46861.55
639.121	46958.27
639.474	46850.93
639.828	46785.17
640.181	46802.57
640.534	46944.49
640.888	46611.61
641.241	46523.03
641.594	46550.37
641.947	46600.31
642.301	46410.04
642.654	46591.5
643.007	46425.4
643.36	46576.81
643.713	46485.97
644.066	46691.39
644.419	46254.11
644.771	46018.63
645.124	45532.55
645.477	45497.52
645.83	45479.21
646.182	45479.21
646.535	45238.77
646.888	45568.03
647.24	45310.4
647.593	45597.18
647.945	45460.01
648.298	45318.31
648.65	45039.9
649.002	44839.91
649.355	44783.64
649.707	44655.28
650.059	44630.42
650.411	45133.46
650.763	45349.95
651.115	45999.43
651.467	45798.53
651.819	45775.48
652.171	45885.08
652.523	45851.63
652.875	45750.85
653.227	45662.26
653.578	46037.62
653.93	45838.53
654.282	45532.77
654.633	45551.3
654.985	45586.1
655.337	45544.75
655.688	45603.96
656.039	45777.29
656.391	45222.95
656.742	45515.82
657.094	45408.26
657.445	45412.77
657.796	45481.7
658.147	45497.29
658.498	45511.76
658.849	45646.44
659.2	45456.84
659.551	45272.89
659.902	45583.62
660.253	45487.12
660.604	45594.24
660.955	45367.13
661.306	45678.76
661.656	45459.33
662.007	45672.88
662.358	45551.08
662.708	45766.89
663.059	45528.7
663.409	45503.39
663.76	45536.16
664.11	45702.48
664.461	45717.4
664.811	45576.61
665.161	45676.27
665.511	45664.75
665.862	45749.04
666.212	45767.57
666.562	45774.57
666.912	45696.84
667.262	45566.22
667.612	45535.26
667.962	45684.41
668.312	45559.21
668.662	45820.45
669.011	45758.98
669.361	45636.72
669.711	45728.47
670.06	45627.68
670.41	45467.69
670.76	45637.85
671.109	45692.32
671.459	45588.82
671.808	45594.69
672.157	45742.94
672.507	45425.66
672.856	45414.13
673.205	45340.23
673.554	45455.03
673.904	45417.75
674.253	45605.31
674.602	45503.85
674.951	44794.71
675.3	44693.02
675.649	45382.72
675.998	45359.22
676.346	45273.57
676.695	45275.83
677.044	45136.85
677.393	45064.08
677.741	45283.29
678.09	45142.05
678.438	44986.8
678.787	45209.39
679.135	45170.07
679.484	44847.59
679.832	45106.79
680.181	44862.28
680.529	44858.44
680.877	44763.75
681.225	44746.13
681.573	44901.6
681.922	44595.4
682.27	44460.03
682.618	44523.98
682.966	44373.48
683.314	44436.53
683.661	44378.23
684.009	44189.08
684.357	44013.72
684.705	43998.57
685.053	43970.33
685.4	43884
685.748	43579.83
686.095	43693.95
686.443	43445.59
686.79	43421.87
687.138	43367.18
687.485	43366.73
687.832	43185.94
688.18	43305.71
688.527	43146.62
688.874	43039.05
689.221	43065.94
689.568	42772.17
689.915	42572.17
690.262	42667.31
690.609	42556.35
690.956	42282.01
691.303	42462.57
691.65	42175.8
691.997	42164.27
692.344	41881.57
692.69	41855.81
693.037	41612.2
693.383	41374.24
693.73	41595.7
694.077	41481.13
694.423	41329.94
694.769	41252.43
695.116	41057.86
695.462	40913.91
695.808	40770.64
696.155	40724.99
696.501	40458.33
696.847	40468.95
697.193	40185.57
697.539	40341.72
697.885	39946.7
698.231	39884.56
698.577	39793.49
698.923	39731.57
699.269	39377.23
699.614	39214.75
699.96	39223.79
700.306	39123.67
700.651	38921.42
700.997	38852.27
701.342	38732.95
701.688	38597.59
702.033	38498.61
702.379	38486.63
702.724	38303.58
703.069	38456.35
703.415	38044.38
703.76	37937.04
704.105	37875.35
704.45	37693.88
704.795	37443.49
705.14	37373.21
705.485	37504.06
705.83	37246.21
706.175	37310.39
706.52	37142.71
706.865	37032.2
707.209	36876.28
707.554	36813
707.899	36642.38
708.243	36575.04
708.588	36559.22
708.932	36322.62
709.277	36447.81
709.621	36205.11
709.966	35910.2
710.31	36086.69
710.654	35845.34
710.998	35940.26
711.342	35762.86
711.687	35664.1
712.031	35732.35
712.375	35528.29
712.719	35446.48
713.063	35394.06
713.407	35469.31
713.75	35360.16
714.094	35112.71
714.438	35058.47
714.782	35111.8
715.125	34766.5
715.469	35106.38
715.812	34846.5
716.156	34743.9
716.499	34762.89
716.843	34732.6
717.186	34540.07
717.53	34818.48
717.873	34609.9
718.216	34587.75
718.559	34325.38
718.902	34245.38
719.246	34292.62
719.589	34156.12
719.932	34110.47
720.275	34154.99
720.617	34110.25
720.96	33992.74
721.303	34003.81
721.646	33990.48
721.989	33860.08
722.331	33910.48
722.674	33801.78
723.016	33830.25
723.359	33623.71
723.701	33825.73
724.044	33589.36
724.386	33517.04
724.729	33649.02
725.071	33696.02
725.413	33697.6
725.755	33518.17
726.097	33460.55
726.439	33453.09
726.782	33302.81
727.124	33510.04
727.465	33455.35
727.807	33287.22
728.149	33460.77
728.491	33276.37
728.833	33404.73
729.175	33360.66
729.516	33241.12
729.858	33246.99
730.199	33343.71
730.541	33346.65
730.882	33164.28
731.224	33294.22
731.565	33270.27
731.906	33172.19
732.248	33342.58
732.589	33114.79
732.93	33125.41
733.271	33061.69
733.612	33109.37
733.953	33256.26
734.294	33017.85
734.635	32974.46
734.976	33107.56
735.317	33098.3
735.658	33157.28
735.999	33066.88
736.339	33046.55
736.68	33148.46
737.021	33221.46
737.361	33050.16
737.702	33387.55
738.042	33141.69
738.383	33270.72
738.723	33365.86
739.063	33286.54
739.404	33299.87
739.744	33270.72
740.084	33173.1
740.424	33279.53
740.764	33297.61
741.104	33496.7
741.444	33317.95
741.784	33267.56
742.124	33434.11
742.464	33454.22
742.804	33499.42
743.143	33439.98
743.483	33523.82
743.823	33419.64
744.162	33476.14
744.502	33542.35
744.841	33614.67
745.181	33921.55
745.52	33910.48
745.86	33930.14
746.199	33824.83
746.538	33938.05
746.877	34093.98
747.216	34123.35
747.556	34188.21
747.895	34181.88
748.234	34297.81
748.573	34240.64
748.911	34260.07
749.25	34413.97
749.589	34349.34
749.928	34483.57
750.267	34581.42
750.605	34696.22
750.944	34583.23
751.283	34615.54
751.621	34655.54
751.96	34758.59
752.298	34908.87
752.636	34964.01
752.975	35025.93
753.313	35005.82
753.651	35129.2
753.989	35065.02
754.327	35257.34
754.666	35206.72
755.004	35420.95
