Data from 583_FLMS001491_002.txt Node
Date: Thu Apr 19 15:43:18 BST 2018
User: hsy
Spectrometer: FLMS00149
Trigger mode: 0
Integration Time (sec): 1.000000E-2
Scans to average: 10
Electric dark correction enabled: true
Nonlinearity correction enabled: false
Boxcar width: 0
XAxis mode: Wavelengths
Number of Pixels in Spectrum: 2048
>>>>>Begin Spectral Data<<<<<
341.393	-7.7
341.776	-7.7
342.16	-7.7
342.543	-57.19
342.927	-74.36
343.31	-91.54
343.693	-59
344.077	-48.6
344.46	-57.41
344.843	-52.67
345.226	-31.2
345.61	-47.47
345.993	-16.96
346.376	-32.1
346.759	16.93
347.142	34.79
347.525	47.22
347.908	71.85
348.291	72.3
348.674	93.99
349.057	99.87
349.44	132.19
349.823	154.11
350.206	181.68
350.588	223.71
350.971	245.63
351.354	252.63
351.737	258.06
352.119	296.02
352.502	299.19
352.884	302.12
353.267	321.79
353.65	326.53
354.032	297.83
354.414	336.7
354.797	345.29
355.179	355
355.562	354.1
355.944	359.07
356.326	350.03
356.709	348.9
357.091	386.19
357.473	374.21
357.855	354.1
358.238	377.83
358.62	381.9
359.002	378.51
359.384	380.31
359.766	371.5
360.148	383.7
360.53	378.51
360.912	388.68
361.294	403.82
361.676	408.11
362.057	381.67
362.439	376.25
362.821	400.88
363.203	378.96
363.584	362.24
363.966	363.59
364.348	353.65
364.729	355.68
365.111	362.24
365.493	376.02
365.874	364.95
366.256	359.98
366.637	377.15
367.019	346.64
367.4	359.3
367.781	354.55
368.163	358.85
368.544	365.4
368.925	344.38
369.306	353.42
369.688	365.4
370.069	368.56
370.45	366.3
370.831	368.79
371.212	361.56
371.593	369.24
371.974	360.65
372.355	374.44
372.736	383.25
373.117	364.04
373.498	390.48
373.879	384.38
374.26	388
374.641	385.06
375.021	364.04
375.402	397.49
375.783	381.67
376.163	395.91
376.544	420.77
376.925	392.07
377.305	390.71
377.686	392.74
378.066	403.14
378.447	401.56
378.827	394.78
379.208	387.09
379.588	424.61
379.968	400.2
380.349	391.39
380.729	416.02
381.109	406.75
381.489	422.35
381.87	416.92
382.25	413.76
382.63	431.16
383.01	427.55
383.39	415.79
383.77	402.24
384.15	422.35
384.53	443.14
384.91	435.45
385.29	434.32
385.67	429.58
386.049	447.88
386.429	457.15
386.809	423.48
387.189	448.56
387.568	455.79
387.948	437.49
388.328	437.49
388.707	477.49
389.087	457.83
389.466	472.97
389.846	450.82
390.225	464.15
390.605	470.71
390.984	488.33
391.363	479.75
391.743	472.97
392.122	498.05
392.501	491.95
392.881	501.44
393.26	508.22
393.639	509.58
394.018	513.42
394.397	493.76
394.776	500.54
395.155	500.09
395.534	527.2
395.913	503.93
396.292	519.29
396.671	541.21
397.05	539.18
397.429	528.79
397.808	536.24
398.186	545.96
398.565	541.89
398.944	547.32
399.323	531.95
399.701	546.64
400.08	540.99
400.458	568.78
400.837	558.16
401.215	552.74
401.594	559.29
401.972	544.15
402.351	559.29
402.729	595.68
403.107	598.84
403.486	580.08
403.864	603.81
404.242	572.4
404.62	615.79
404.999	595.68
405.377	612.4
405.755	610.59
406.133	616.47
406.511	612.85
406.889	615.56
407.267	603.13
407.645	623.7
408.023	649.69
408.401	648.56
408.779	670.02
409.156	662.34
409.534	659.86
409.912	663.92
410.29	682.91
410.667	673.64
411.045	680.42
411.422	682
411.8	705.05
412.178	704.6
412.555	691.27
412.933	739.85
413.31	751.15
413.687	751.83
414.065	742.79
414.442	736.24
414.819	751.15
415.197	763.81
415.574	797.48
415.951	780.53
416.328	765.84
416.705	776.69
417.082	797.93
417.46	815.78
417.837	798.16
418.214	808.78
418.591	823.24
418.967	806.97
419.344	820.98
419.721	815.33
420.098	839.06
420.475	844.48
420.852	867.08
421.228	856.46
421.605	841.55
421.982	870.02
422.358	863.92
422.735	855.56
423.111	874.31
423.488	891.04
423.864	878.83
424.241	909.34
424.617	904.59
424.994	935.1
425.37	902.79
425.746	938.04
426.123	925.84
426.499	917.93
426.875	961.09
427.251	953.86
427.627	993.41
428.003	998.15
428.379	982.11
428.756	977.59
429.132	1020.75
429.507	1009.45
429.883	1039.28
430.259	1039.28
430.635	1066.85
431.011	1060.75
431.387	1084.48
431.763	1067.53
432.138	1106.17
432.514	1114.31
432.89	1095.55
433.265	1132.39
433.641	1131.93
434.016	1163.8
434.392	1152.27
434.767	1190.24
435.143	1190.92
435.518	1201.31
435.894	1206.73
436.269	1220.74
436.644	1256.22
437.02	1263.23
437.395	1239.28
437.77	1276.56
438.145	1258.94
438.52	1295.77
438.895	1275.88
439.271	1262.55
439.646	1322.89
440.021	1323.11
440.395	1370.12
440.77	1341.87
441.145	1340.52
441.52	1370.8
441.895	1356.79
442.27	1361.31
442.645	1370.35
443.019	1398.82
443.394	1403.79
443.769	1396.33
444.143	1401.3
444.518	1454.86
444.892	1388.2
445.267	1424.58
445.641	1441.3
446.016	1434.98
446.39	1465.03
446.764	1474.75
447.139	1462.32
447.513	1490.57
447.887	1493.73
448.262	1473.17
448.636	1497.35
449.01	1543.9
449.384	1533.28
449.758	1561.75
450.132	1554.3
450.506	1582.77
450.88	1569.66
451.254	1596.78
451.628	1635.2
452.002	1624.12
452.376	1625.93
452.75	1643.33
453.123	1660.06
453.497	1705.03
453.871	1708.42
454.244	1761.07
454.618	1760.62
454.992	1775.76
455.365	1821.18
455.739	1826.15
456.112	1814.18
456.486	1886.94
456.859	1844.91
457.232	1923.1
457.606	1903.66
457.979	1932.82
458.352	1965.13
458.725	1995.64
459.099	1970.78
459.472	2024.79
459.845	2041.51
460.218	2094.62
460.591	2122.64
460.964	2102.08
461.337	2147.05
461.71	2202.87
462.083	2207.39
462.456	2238.8
462.829	2225.01
463.201	2305.46
463.574	2240.38
463.947	2319.47
464.32	2350.66
464.692	2354.5
465.065	2373.03
465.438	2409.41
465.81	2466.81
466.183	2490.09
466.555	2514.27
466.928	2526.7
467.3	2489.86
467.672	2573.93
468.045	2636.53
468.417	2646.7
468.789	2665.9
469.161	2709.07
469.534	2714.94
469.906	2784.77
470.278	2851.89
470.65	2820.25
471.022	2887.59
471.394	2926.01
471.766	2973.24
472.138	3023.64
472.51	3032.67
472.882	3138.66
473.253	3098.89
473.625	3174.14
473.997	3220.47
474.369	3244.19
474.74	3309.28
475.112	3350.18
475.484	3384.98
475.855	3507.24
476.227	3518.54
476.598	3617.97
476.97	3622.72
477.341	3719.44
477.713	3749.94
478.084	3820.9
478.455	3910.84
478.827	3963.27
479.198	4061.12
479.569	4081.69
479.94	4170.05
480.311	4216.37
480.682	4350.15
481.053	4416.59
481.424	4541.11
481.795	4587.89
482.166	4670.6
482.537	4745.85
482.908	4867.65
483.279	4908.78
483.65	5016.13
484.021	5120.76
484.391	5233.52
484.762	5271.94
485.133	5379.96
485.503	5453.63
485.874	5601.65
486.244	5716.67
486.615	5852.71
486.985	5904.92
487.356	6109.43
487.726	6115.08
488.097	6337.67
488.467	6400.5
488.837	6567.04
489.207	6648.17
489.578	6879.58
489.948	6970.2
490.318	7129.74
490.688	7175.84
491.058	7360.7
491.428	7481.37
491.798	7602.95
492.168	7863.73
492.538	8005.88
492.908	8209.94
493.278	8309.6
493.648	8422.82
494.017	8677.5
494.387	8799.75
494.757	8924.95
495.126	9106.64
495.496	9218.27
495.866	9492.39
496.235	9616.23
496.605	9813.06
496.974	10044.02
497.344	10270
497.713	10389.77
498.082	10504.57
498.452	10760.15
498.821	10979.81
499.19	11137.77
499.559	11344.77
499.928	11481.27
500.298	11698.66
500.667	11959.67
501.036	12162.38
501.405	12389.49
501.774	12507.91
502.143	12817.5
502.512	12973.43
502.88	13205.06
503.249	13438.95
503.618	13716.69
503.987	13861.99
504.356	14085.72
504.724	14273.06
505.093	14557.57
505.462	14731.12
505.83	14925.24
506.199	15241.17
506.567	15488.17
506.936	15663.08
507.304	15958.89
507.672	16228.94
508.041	16466.67
508.409	16624.63
508.777	16993.66
509.145	17076.15
509.514	17298.74
509.882	17524.5
510.25	17883.13
510.618	18020.3
510.986	18230.69
511.354	18508.88
511.722	18772.6
512.09	19105.7
512.458	19118.13
512.826	19445.35
513.193	19653.71
513.561	19910.87
513.929	20051.44
514.297	20284.88
514.664	20619.1
515.032	20773.9
515.4	20946.33
515.767	21139.77
516.135	21447.11
516.502	21310.61
516.869	21864.72
517.237	22028.56
517.604	21973.42
517.972	22425.84
518.339	22572.73
518.706	22670.35
519.073	22899.95
519.44	23061.75
519.808	23379.94
520.175	23466.94
520.542	23697.44
520.909	23986.93
521.276	24194.38
521.643	24482.05
522.009	24578.77
522.376	24934.25
522.743	25088.59
523.11	25407.45
523.477	25693.55
523.843	25765.64
524.21	26217.83
524.577	26252.85
524.943	26357.26
525.31	26575.33
525.676	26913.4
526.043	27161.98
526.409	27357.91
526.776	27742.53
527.142	27715.87
527.508	27963.54
527.874	28152.92
528.241	28336.19
528.607	28336.64
528.973	28732.34
529.339	28878.1
529.705	29104.31
530.071	29315.15
530.437	29563.95
530.803	29681.47
531.169	29870.61
531.535	29930.5
531.901	30130.27
532.267	30265.4
532.632	30383.59
532.998	30628.33
533.364	30669.91
533.73	30784.94
534.095	31112.16
534.461	31057.93
534.826	31264.93
535.192	31428.09
535.557	31643
535.923	31677.8
536.288	31685.71
536.653	31841.63
537.019	31814.74
537.384	31938.58
537.749	32096.54
538.114	32184.22
538.479	32112.36
538.845	32253.6
539.21	32272.13
539.575	32545.57
539.94	32513.03
540.305	32651.1
540.67	32553.03
541.034	32888.61
541.399	32792.8
541.764	32990.76
542.129	33129.28
542.494	33183.52
542.858	33300.81
543.223	33171.09
543.587	33372.89
543.952	33429.84
544.316	33454.47
544.681	33386.45
545.045	33685.43
545.41	33746.22
545.774	33565.21
546.138	33701.02
546.503	33804.97
546.867	33847.46
547.231	34015.14
547.595	34030.96
547.959	34185.3
548.324	34218.97
548.688	34116.83
549.052	34240.89
549.416	34333.32
549.779	34344.62
550.143	34486.99
550.507	34643.37
550.871	34672.07
551.235	34565.18
551.599	35041.32
551.962	34899.18
552.326	35022.79
552.689	34982.57
553.053	34980.08
553.417	35243.58
553.78	35473.63
554.143	35504.36
554.507	35612.16
554.87	35601.08
555.234	35942.54
555.597	35670.91
555.96	35860.51
556.323	35869.33
556.686	35999.94
557.05	36041.52
557.413	36168.53
557.776	36180.28
558.139	36405.58
558.502	36525.58
558.865	36431.8
559.228	36743.43
559.59	36606.25
559.953	36784.33
560.316	37258.44
560.679	37232.91
561.041	37275.84
561.404	37474.93
561.767	37767.35
562.129	37609.39
562.492	37967.12
562.854	37986.33
563.217	38018.65
563.579	38174.35
563.941	38346.1
564.304	38557.16
564.666	38650.27
565.028	38671.29
565.39	38796.71
565.753	39070.6
566.115	38980.43
566.477	39250.48
566.839	39232.63
567.201	39708.09
567.563	39599.62
567.925	39848.88
568.287	39840.52
568.648	39782.67
569.01	40114.41
569.372	40317.12
569.734	40234.18
570.095	40538.13
570.457	40660.16
570.819	40733.6
571.18	40630.1
571.542	41092.01
571.903	40945.35
572.265	41214.04
572.626	41229.18
572.987	41195.96
573.349	41423.08
573.71	41625.56
574.071	41643.18
574.432	41788.72
574.794	42070.97
575.155	42020.12
575.516	41931.76
575.877	42183.06
576.238	42101.93
576.599	42268.25
576.96	42417.63
577.32	42508.02
577.681	42505.53
578.042	42727.22
578.403	42553.44
578.763	42738.75
579.124	42658.07
579.485	42879.54
579.845	42936.48
580.206	42770.39
580.566	42754.34
580.927	42825.75
581.287	42968.57
581.648	42885.19
582.008	43038.18
582.368	43074.56
582.728	42971.74
583.089	43066.88
583.449	43080.21
583.809	43102.13
584.169	43178.96
584.529	42804.06
584.889	43241.79
585.249	43099.64
585.609	42798.41
585.969	43115.24
586.329	42955.47
586.688	42983.26
587.048	43011.74
587.408	42975.35
587.768	42869.14
588.127	42904.85
588.487	43017.61
588.846	43188.45
589.206	42804.51
589.565	42929.25
589.925	43096.25
590.284	42867.33
590.643	43021.45
591.003	42933.77
591.362	43087.44
591.721	43116.82
592.08	42956.14
592.44	43056.48
592.799	42931.29
593.158	42835.7
593.517	42791.4
593.876	43059.19
594.235	42840.44
594.593	42923.15
594.952	42924.05
595.311	42750.05
595.67	42991.17
596.029	43148.46
596.387	43093.77
596.746	43045.41
597.104	43031.17
597.463	43045.41
597.822	43181.68
598.18	43168.12
598.538	43055.58
598.897	43163.82
599.255	43034.33
599.613	43507.09
599.972	43183.26
600.33	43165.63
600.688	43121.79
601.046	43135.35
601.404	43441.78
601.762	43361.11
602.12	43504.6
602.478	43356.81
602.836	43518.84
603.194	43235.46
603.552	43425.96
603.91	43349.13
604.268	43476.58
604.625	43557.71
604.983	43792.05
605.341	43481.33
605.698	43717.93
606.056	43889.91
606.413	43734.2
606.771	43949.79
607.128	43986.17
607.485	43780.98
607.843	43818.49
608.2	43938.49
608.557	44159.5
608.914	43966.74
609.272	44250.57
609.629	44393.17
609.986	44479.27
610.343	44395.65
610.7	44665.03
611.057	44365.15
611.414	44510.45
611.771	44722.2
612.127	44808.07
612.484	44694.18
612.841	44889.65
613.198	44901.63
613.554	44591.13
613.911	45117.67
614.267	45074.73
614.624	44971.46
614.98	45206.93
615.337	45307.04
615.693	45319.7
616.05	45319.7
616.406	45543.42
616.762	45436.08
617.118	45279.02
617.475	45364.67
617.831	45596.08
618.187	45483.99
618.543	45615.74
618.899	45829.52
619.255	45868.61
619.611	45644.66
619.967	45878.55
620.323	46070.86
620.678	45936.63
621.034	45862.73
621.39	45803.08
621.746	45876.52
622.101	46206.23
622.457	45936.18
622.812	46112.45
623.168	46157.87
623.523	46091.66
623.879	46263.85
624.234	46189.05
624.589	46155.83
624.945	46197.19
625.3	46173.91
625.655	46414.13
626.01	46272.89
626.365	46227.24
626.72	46284.64
627.075	46107.25
627.43	46283.06
627.785	46222.73
628.14	46164.42
628.495	46222.95
628.85	46246
629.205	46071.32
629.559	46262.72
629.914	46108.15
630.269	46130.98
630.623	46001.49
630.978	45810.31
631.332	46109.96
631.687	45995.16
632.041	45980.7
632.396	45944.99
632.75	45857.09
633.104	45779.8
633.459	45734.15
633.813	45738.22
634.167	45805.79
634.521	45743.19
634.875	45675.85
635.229	45542.97
635.583	45360.15
635.937	45321.51
636.291	45378.23
636.645	45398.79
636.999	45184.79
637.352	45242.64
637.706	45111.57
638.06	45248.51
638.413	45192.02
638.767	45057.33
639.121	45089.2
639.474	44914.96
639.828	44961.52
640.181	45037.9
640.534	44983.89
640.888	44838.81
641.241	44645.37
641.594	44732.82
641.947	44882.2
642.301	44701.64
642.654	44825.47
643.007	44655.31
643.36	44595.2
643.713	44600.4
644.066	44727.62
644.419	44490.34
644.771	44028.88
645.124	43651.72
645.477	43636.58
645.83	43536.47
646.182	43552.29
646.535	43487.66
646.888	43626.18
647.24	43550.93
647.593	43546.41
647.945	43381.67
648.298	43359.98
648.65	43158.85
649.002	42927.44
649.355	42806.32
649.707	42611.29
650.059	42724.06
650.411	43334.44
650.763	43598.39
651.115	44030.24
651.467	43845.61
651.819	43985.72
652.171	43853.75
652.523	43694.43
652.875	43839.96
653.227	43559.52
653.578	43943.01
653.93	43757.48
654.282	43658.27
654.633	43639.29
654.985	43647.2
655.337	43607.43
655.688	43702.34
656.039	43792.05
656.391	43380.77
656.742	43633.64
657.094	43569.46
657.445	43645.17
657.796	43657.6
658.147	43543.02
658.498	43702.34
658.849	43837.03
659.2	43664.83
659.551	43530.14
659.902	43973.29
660.253	43618.95
660.604	43872.05
660.955	43625.05
661.306	43775.11
661.656	43635.22
662.007	43698.05
662.358	43789.12
662.708	43686.07
663.059	43610.82
663.409	43423.7
663.76	43702.57
664.11	43804.26
664.461	43832.96
664.811	43920.86
665.161	43865.95
665.511	43746.18
665.862	43769.46
666.212	43933.52
666.562	43894.42
666.912	43759.97
667.262	43670.25
667.612	43632.06
667.962	43642
668.312	43710.25
668.662	43852.62
669.011	43755.9
669.361	43679.74
669.711	43710.25
670.06	43830.25
670.41	43614.43
670.76	43630.48
671.109	43846.74
671.459	43696.24
671.808	43614.21
672.157	43590.48
672.507	43380.54
672.856	43463.48
673.205	43475.9
673.554	43591.16
673.904	43457.6
674.253	43629.57
674.602	43480.42
674.951	42923.83
675.3	42806.77
675.649	43445.62
675.998	43403.36
676.346	43418.05
676.695	43414.44
677.044	43128.57
677.393	43178.06
677.741	43435.91
678.09	43264.16
678.438	43113.65
678.787	43233.88
679.135	43305.06
679.484	42940.33
679.832	43109.36
680.181	42974
680.529	42998.86
680.877	42850.61
681.225	42841.35
681.573	43167.66
681.922	42752.31
682.27	42797.5
682.618	42587.79
682.966	42605.19
683.314	42494.69
683.661	42430.96
684.009	42347.12
684.357	42206.79
684.705	42246.11
685.053	42202.27
685.4	42047.47
685.748	41826.23
686.095	41950.75
686.443	41715.05
686.79	41786.68
687.138	41935.83
687.485	41711.21
687.832	41656.07
688.18	41476.64
688.527	41275.96
688.874	41248.84
689.221	41209.07
689.568	40936.08
689.915	40945.8
690.262	40904.22
690.609	40712.81
690.956	40511.46
691.303	40523.67
691.65	40279.6
691.997	40330.22
692.344	40075.32
692.69	40128.87
693.037	40010.01
693.383	39603.01
693.73	39770.47
694.077	39514.65
694.423	39453.64
694.769	39325.96
695.116	39346.07
695.462	39082.35
695.808	38894.33
696.155	39000.09
696.501	38477.62
696.847	38665.18
697.193	38356.49
697.539	38465.64
697.885	38168.25
698.231	37996.73
698.577	37947.46
698.923	37837.64
699.269	37753.34
699.614	37492.33
699.96	37339.57
700.306	37315.84
700.651	37308.61
700.997	37133.47
701.342	37047.6
701.688	36994.72
702.033	36748.17
702.379	36710.21
702.724	36516.99
703.069	36539.82
703.415	36192.93
703.76	36206.72
704.105	36213.72
704.45	35961.98
704.795	35837.24
705.14	35728.99
705.485	35629.11
705.83	35594.08
706.175	35644.02
706.52	35498.49
706.865	35225.95
707.209	35180.98
707.554	34975.79
707.899	35076.13
708.243	34873.42
708.588	34918.39
708.932	34609.92
709.277	34755.91
709.621	34553.88
709.966	34387.56
710.31	34495.35
710.654	34097.62
710.998	34197.28
711.342	34237.96
711.687	34058.07
712.031	34011.29
712.375	33760.23
712.719	33908.02
713.063	33786.89
713.407	33892.43
713.75	33645.65
714.094	33745.09
714.438	33457.41
714.782	33495.83
715.125	33300.13
715.469	33594.36
715.812	33240.47
716.156	33143.97
716.499	33089.96
716.843	33139.91
717.186	32905.11
717.53	33218.55
717.873	33132
718.216	32947.14
718.559	32908.05
718.902	32663.76
719.246	32732.46
719.589	32616.3
719.932	32548.73
720.275	32543.76
720.617	32617.66
720.96	32530.43
721.303	32479.81
721.646	32442.3
721.989	32355.52
722.331	32388.51
722.674	32383.54
723.016	32333.15
723.359	32244.56
723.701	32290.44
724.044	32166.37
724.386	32030.1
724.729	32246.14
725.071	32106.94
725.413	32065.36
725.755	32053.38
726.097	32047.5
726.439	32023.1
726.782	31929.09
727.124	32097
727.465	31965.02
727.807	31752.6
728.149	31997.34
728.491	31828.53
728.833	31825.82
729.175	31896.1
729.516	31856.32
729.858	31894.74
730.199	31903.33
730.541	31830.79
730.882	31902.2
731.224	31934.51
731.565	31734.29
731.906	31907.62
732.248	31774.52
732.589	31730
732.93	31584.69
733.271	31794.63
733.612	31735.42
733.953	31784.69
734.294	31754.63
734.635	31573.62
734.976	31828.53
735.317	31757.12
735.658	31686.16
735.999	31718.47
736.339	31783.56
736.68	31950.78
737.021	31693.84
737.361	31702.88
737.702	31877.11
738.042	31802.77
738.383	31852.93
738.723	32038.47
739.063	31824.91
739.404	32021.74
739.744	32009.99
740.084	31881.41
740.424	31964.57
740.764	31938.36
741.104	32186.26
741.444	31935.19
741.784	31934.74
742.124	32075.07
742.464	32057.9
742.804	32211.34
743.143	32344.45
743.483	32334.73
743.823	32135.41
744.162	32199.14
744.502	32365.91
744.841	32238.01
745.181	32614.27
745.52	32471.45
745.86	32477.32
746.199	32595.74
746.538	32592.12
746.877	32873.92
747.216	32746.24
747.556	32804.1
747.895	32921.38
748.234	32856.75
748.573	32928.61
748.911	33057.2
749.25	33044.54
749.589	33002.06
749.928	33204.31
750.267	33240.69
750.605	33244.31
750.944	33363.4
751.283	33308.94
751.621	33531.99
751.96	33306.23
752.298	33570.18
752.636	33610.18
752.975	33623.73
753.313	33639.55
753.651	33886.55
753.989	33952.09
754.327	34070.28
754.666	33744.18
755.004	34047.45
755.342	34141.91
