Data from 583_FLMS001491_006.txt Node
Date: Thu Apr 19 15:43:28 BST 2018
User: hsy
Spectrometer: FLMS00149
Trigger mode: 0
Integration Time (sec): 1.000000E-2
Scans to average: 10
Electric dark correction enabled: true
Nonlinearity correction enabled: false
Boxcar width: 0
XAxis mode: Wavelengths
Number of Pixels in Spectrum: 2048
>>>>>Begin Spectral Data<<<<<
341.393	-21.52
341.776	-21.52
342.16	-21.52
342.543	-55.87
342.927	-66.72
343.31	-44.12
343.693	-78.7
344.077	-61.07
344.46	-72.82
344.843	-59.49
345.226	-43.45
345.61	-41.64
345.993	4.69
346.376	-13.84
346.759	-0.28
347.142	32.03
347.525	51.69
347.908	51.24
348.291	85.36
348.674	76.1
349.057	114.29
349.44	121.75
349.823	146.15
350.206	159.49
350.588	236.32
350.971	252.82
351.354	269.54
351.737	272.25
352.119	270.22
352.502	275.19
352.884	299.6
353.267	309.54
353.65	316.09
354.032	335.53
354.414	327.39
354.797	327.17
355.179	350.22
355.562	342.08
355.944	354.51
356.326	359.48
356.709	360.84
357.091	371.69
357.473	369.65
357.855	372.36
358.238	397
358.62	368.52
359.002	371.01
359.384	368.52
359.766	372.82
360.148	366.94
360.53	367.84
360.912	375.53
361.294	372.82
361.676	347.73
362.057	367.39
362.439	370.1
362.821	368.3
363.203	356.09
363.584	357.9
363.966	377.79
364.348	353.83
364.729	363.32
365.111	376.43
365.493	375.75
365.874	362.87
366.256	374.62
366.637	347.73
367.019	360.61
367.4	346.38
367.781	359.93
368.163	363.32
368.544	382.08
368.925	371.46
369.306	367.62
369.688	379.37
370.069	370.1
370.45	382.08
370.831	374.85
371.212	361.52
371.593	363.1
371.974	353.61
372.355	352.7
372.736	350.44
373.117	382.98
373.498	348.63
373.879	354.74
374.26	369.88
374.641	376.2
375.021	376.2
375.402	397
375.783	383.21
376.163	373.49
376.544	396.54
376.925	409.65
377.305	396.32
377.686	370.56
378.066	390.67
378.447	388.86
378.827	386.15
379.208	373.94
379.588	401.51
379.968	408.29
380.349	414.62
380.729	386.83
381.109	391.57
381.489	399.26
381.87	411.01
382.25	402.64
382.63	406.49
383.01	418.69
383.39	430.21
383.77	433.6
384.15	447.39
384.53	421.4
384.91	439.93
385.29	415.75
385.67	437.9
386.049	431.12
386.429	436.32
386.809	448.29
387.189	432.47
387.568	438.58
387.948	437.22
388.328	436.77
388.707	450.33
389.087	460.04
389.466	448.52
389.846	468.41
390.225	462.76
390.605	453.72
390.984	452.14
391.363	473.38
391.743	491
392.122	453.04
392.501	488.97
392.881	482.64
393.26	485.58
393.639	477.45
394.018	489.87
394.397	496.65
394.776	487.61
395.155	488.29
395.534	505.47
395.913	497.78
396.292	537.33
396.671	535.97
397.05	498.24
397.429	514.28
397.808	518.57
398.186	537.56
398.565	509.53
398.944	526.94
399.323	530.78
399.701	525.13
400.08	524.22
400.458	527.16
400.837	518.35
401.215	536.43
401.594	556.99
401.972	552.25
402.351	563.32
402.729	549.53
403.107	551.79
403.486	583.43
403.864	562.64
404.242	576.2
404.62	583.43
404.999	559.48
405.377	588.63
405.755	581.4
406.133	590.66
406.511	574.17
406.889	614.16
407.267	621.85
407.645	602.19
408.023	601.06
408.401	636.99
408.779	631.57
409.156	623.88
409.534	633.83
409.912	652.36
410.29	674.05
410.667	667.04
411.045	671.11
411.422	669.53
411.8	702.3
412.178	687.16
412.555	682.64
412.933	672.69
413.31	693.03
413.687	715.86
414.065	691.9
414.442	702.98
414.819	727.38
415.197	739.36
415.574	740.94
415.951	719.25
416.328	754.05
416.705	746.14
417.082	773.48
417.46	762.86
417.837	745.91
418.214	778
418.591	782.52
418.967	789.53
419.344	801.28
419.721	778.91
420.098	778
420.475	823.88
420.852	784.33
421.228	784.56
421.605	834.5
421.982	829.3
422.358	836.08
422.735	827.27
423.111	820.71
423.488	850.77
423.864	854.38
424.241	853.03
424.617	847.83
424.994	875.85
425.37	865.23
425.746	890.77
426.123	902.07
426.499	905
426.875	916.53
427.251	934.61
427.627	919.24
428.003	933.93
428.379	937.77
428.756	982.74
429.132	961.05
429.507	967.15
429.883	1001.05
430.259	978.45
430.635	1024.32
431.011	1002.18
431.387	1004.89
431.763	1045.79
432.138	1058.22
432.514	1028.17
432.89	1062.97
433.265	1080.14
433.641	1092.12
434.016	1094.38
434.392	1109.29
434.767	1145.45
435.143	1113.81
435.518	1133.25
435.894	1140.25
436.269	1139.35
436.644	1179.8
437.02	1198.56
437.395	1192.45
437.77	1188.84
438.145	1200.36
438.52	1184.09
438.895	1246.01
439.271	1224.77
439.646	1237.43
440.021	1247.82
440.395	1252.57
440.77	1255.05
441.145	1259.35
441.52	1270.87
441.895	1277.65
442.27	1308.84
442.645	1270.42
443.019	1316.75
443.394	1318.1
443.769	1291.89
444.143	1310.64
444.518	1340.47
444.892	1345.67
445.267	1355.61
445.641	1374.82
446.016	1351.09
446.39	1393.58
446.764	1365.33
447.139	1400.13
447.513	1401.26
447.887	1395.39
448.262	1441.94
448.636	1405.1
449.01	1447.36
449.384	1428.61
449.758	1458.89
450.132	1458.21
450.506	1497.76
450.88	1517.87
451.254	1490.07
451.628	1503.18
452.002	1516.74
452.376	1548.83
452.75	1555.16
453.123	1587.47
453.497	1585.89
453.871	1589.28
454.244	1620.92
454.618	1657.53
454.992	1669.28
455.365	1688.94
455.739	1706.34
456.112	1727.81
456.486	1749.05
456.859	1734.14
457.232	1771.87
457.606	1799.22
457.979	1846.9
458.352	1862.27
458.725	1876.28
459.099	1882.38
459.472	1924.41
459.845	1921.93
460.218	1946.11
460.591	1964.41
460.964	1986.56
461.337	2039.66
461.71	2060.23
462.083	2064.52
462.456	2067.91
462.829	2112.88
463.201	2114.92
463.574	2139.1
463.947	2146.1
464.32	2170.73
464.692	2223.39
465.065	2216.83
465.438	2231.3
465.81	2306.55
466.183	2304.52
466.555	2367.11
466.928	2381.8
467.3	2399.43
467.672	2440.56
468.045	2447.56
468.417	2443.04
468.789	2463.61
469.161	2499.99
469.534	2524.85
469.906	2579.54
470.278	2610.95
470.65	2627.22
471.022	2693.66
471.394	2716.71
471.766	2741.57
472.138	2772.75
472.51	2831.51
472.882	2849.13
473.253	2905.18
473.625	2957.38
473.997	3016.14
474.369	2975.01
474.74	3050.26
475.112	3130.71
475.484	3200.09
475.855	3215.68
476.227	3203.93
476.598	3367.54
476.97	3361.89
477.341	3433.75
477.713	3485.28
478.084	3520.3
478.455	3560.53
478.827	3667.19
479.198	3741.77
479.569	3776.79
479.94	3915.55
480.311	3893.4
480.682	4024.92
481.053	4097.69
481.424	4193.05
481.795	4243
482.166	4302.2
482.537	4368.19
482.908	4494.29
483.279	4565.25
483.65	4651.8
484.021	4722.76
484.391	4797.33
484.762	4870.78
485.133	4932.24
485.503	5049.75
485.874	5202.52
486.244	5244.1
486.615	5356.64
486.985	5477.77
487.356	5559.8
487.726	5678.44
488.097	5827.13
488.467	5951.43
488.837	6093.12
489.207	6128.37
489.578	6314.58
489.948	6407.01
490.318	6591.86
490.688	6581.01
491.058	6814.91
491.428	6959.99
491.798	7059.19
492.168	7220.54
492.538	7313.65
492.908	7459.63
493.278	7622.34
493.648	7719.06
494.017	7923.58
494.387	8122.44
494.757	8238.14
495.126	8441.98
495.496	8546.16
495.866	8743.89
496.235	8851.91
496.605	9124.68
496.974	9216.42
497.344	9419.81
497.713	9563.99
498.082	9764.66
498.452	9922.39
498.821	10155.16
499.19	10259.56
499.559	10497.75
499.928	10676.95
500.298	10850.28
500.667	11133.66
501.036	11218.86
501.405	11446.65
501.774	11626.53
502.143	11794.89
502.512	12028.55
502.88	12215.67
503.249	12435.1
503.618	12653.17
503.987	12785.37
504.356	13059.26
504.724	13226.04
505.093	13437.78
505.462	13684.56
505.83	13825.79
506.199	14125.9
506.567	14430.07
506.936	14600.46
507.304	14772.66
507.672	14988.7
508.041	15205.87
508.409	15450.16
508.777	15729.47
509.145	15903.03
509.514	16145.51
509.882	16291.94
510.25	16551.37
510.618	16735.77
510.986	16959.05
511.354	17133.5
511.722	17520.16
512.09	17695.3
512.458	17734.39
512.826	18017.55
513.193	18145.46
513.561	18329.86
513.929	18641.49
514.297	18916.96
514.664	19119.44
515.032	19243.96
515.4	19521.01
515.767	19677.39
516.135	19861.12
516.502	19791.74
516.869	20262.69
517.237	20441.89
517.604	20450.48
517.972	20717.14
518.339	21041.65
518.706	21038.71
519.073	21156.22
519.44	21539.04
519.808	21718.69
520.175	21771.8
520.542	22115.97
520.909	22359.13
521.276	22459.69
521.643	22711.66
522.009	22811.55
522.376	23101.03
522.743	23286.79
523.11	23569.27
523.477	23709.15
523.843	23913.89
524.21	24288.57
524.577	24356.14
524.943	24545.96
525.31	24750.25
525.676	25121.09
526.043	25140.53
526.409	25351.82
526.776	25596.11
527.142	25713.17
527.508	25963.55
527.874	26178.24
528.241	26280.61
528.607	26499.13
528.973	26820.71
529.339	26707.72
529.705	27039.91
530.071	27269.96
530.437	27381.6
530.803	27623.17
531.169	27717.63
531.535	27905.2
531.901	27935.03
532.267	28001.47
532.632	28221.57
532.998	28393.77
533.364	28521.68
533.73	28620.66
534.095	28791.95
534.461	28965.74
534.826	28977.03
535.192	29115.34
535.557	29275.11
535.923	29273.98
536.288	29448.66
536.653	29480.98
537.019	29504.7
537.384	29673.51
537.749	29770.46
538.114	29861.53
538.479	29797.35
538.845	30042.09
539.21	30038.02
539.575	29961.19
539.94	30217.68
540.305	30345.59
540.67	30349.2
541.034	30351.91
541.399	30411.12
541.764	30595.98
542.129	30615.41
542.494	30634.62
542.858	30836.65
543.223	30680.27
543.587	31004.33
543.952	30977.43
544.316	31014.72
544.681	30946.93
545.045	31110.54
545.41	31176.52
545.774	31139.46
546.138	31228.05
546.503	31398.21
546.867	31379.23
547.231	31463.97
547.595	31584.65
547.959	31678.21
548.324	31791.2
548.688	31648.83
549.052	31720.01
549.416	31848.37
549.779	31886.34
550.143	31987.13
550.507	31988.25
550.871	32122.94
551.235	32013.57
551.599	32311.64
551.962	32311.41
552.326	32519.99
552.689	32579.2
553.053	32327.68
553.417	32482.03
553.78	32946.2
554.143	32845.41
554.507	32791.85
554.87	32939.19
555.234	33207.43
555.597	33051.73
555.96	33096.02
556.323	33299.18
556.686	33337.6
557.05	33544.37
557.413	33392.06
557.776	33427.31
558.139	33865.49
558.502	33868.88
558.865	33853.52
559.228	34189.78
559.59	34151.81
559.953	34186.84
560.316	34440.17
560.679	34511.35
561.041	34442.2
561.404	34698.92
561.767	34925.8
562.129	34918.8
562.492	35196.31
562.854	35194.95
563.217	35184.78
563.579	35302.74
563.941	35455.96
564.304	35577.99
564.666	35818.66
565.028	35783.18
565.39	35906.8
565.753	36163.51
566.115	36077.19
566.477	36311.08
566.839	36490.06
567.201	36619.09
567.563	36643.27
567.925	36902.93
568.287	36852.99
568.648	36989.71
569.01	37129.59
569.372	37571.84
569.734	37352.86
570.095	37545.62
570.457	37888.21
570.819	37896.8
571.18	37794.66
571.542	38086.17
571.903	38088.89
572.265	38230.58
572.626	38341.53
572.987	38329.11
573.349	38444.58
573.71	38583.56
574.071	38796.66
574.432	38799.83
574.794	39084.57
575.155	39062.19
575.516	39048.63
575.877	39160.5
576.238	39253.15
576.599	39294.28
576.96	39268.52
577.32	39376.54
577.681	39478.68
578.042	39656.3
578.403	39506.93
578.763	39563.65
579.124	39473.48
579.485	39897.43
579.845	39738.79
580.206	39768.84
580.566	39789.41
580.927	39791.44
581.287	40014.71
581.648	39858.33
582.008	40026.01
582.368	39978.33
582.728	39893.58
583.089	39831.66
583.449	39880.48
583.809	39972.45
584.169	39980.81
584.529	39852.91
584.889	40058.33
585.249	40013.13
585.609	39823.3
585.969	40033.02
586.329	39855.17
586.688	40035.73
587.048	39928.39
587.408	39879.8
587.768	39918.89
588.127	39824.89
588.487	39802.51
588.846	40106.46
589.206	39762.29
589.565	39800.48
589.925	39859.46
590.284	39938.78
590.643	39836.41
591.003	39810.65
591.362	40041.83
591.721	39933.81
592.08	39788.5
592.44	40071.88
592.799	39965.67
593.158	39934.26
593.517	39880.48
593.876	40017.65
594.235	39875.51
594.593	39909.63
594.952	39971.32
595.311	39791.89
595.67	40016.07
596.029	40230.52
596.387	40132.9
596.746	40165.44
597.104	40031.43
597.463	40006.58
597.822	40264.2
598.18	40085.22
598.538	39865.11
598.897	40245.89
599.255	39967.03
599.613	40490.18
599.972	40121.6
600.33	40369.5
600.688	40159.79
601.046	40292.22
601.404	40477.98
601.762	40400.01
602.12	40548.26
602.478	40502.38
602.836	40570.18
603.194	40309.17
603.552	40482.04
603.91	40377.64
604.268	40534.02
604.625	40597.75
604.983	40780.79
605.341	40540.8
605.698	40744.18
606.056	40883.16
606.413	40771.98
606.771	40971.07
607.128	40891.98
607.485	40786.89
607.843	40821.7
608.2	41125.64
608.557	41271.4
608.914	41072.31
609.272	41260.55
609.629	41424.39
609.986	41318.18
610.343	41435.92
610.7	41766.98
611.057	41591.84
611.414	41555.24
611.771	41869.8
612.127	41735.34
612.484	41712.52
612.841	41839.07
613.198	41791.16
613.554	41704.84
613.911	42053.08
614.267	41947.32
614.624	42112.06
614.98	42119.06
615.337	42425.27
615.693	42317.47
616.05	42396.79
616.406	42503.01
616.762	42405.16
617.118	42531.25
617.475	42435.44
617.831	42525.15
618.187	42566.28
618.543	42650.35
618.899	42821.42
619.255	42761.98
619.611	42703.45
619.967	42904.58
620.323	43128.98
620.678	42969.89
621.034	42902.32
621.39	42890.34
621.746	42873.84
622.101	43346.6
622.457	42968.08
622.812	43220.73
623.168	43350.22
623.523	43200.16
623.879	43373.27
624.234	43085.59
624.589	43240.61
624.945	43325.81
625.3	43354.28
625.655	43313.15
626.01	43289.2
626.365	43367.84
626.72	43273.83
627.075	43162.42
627.43	43316.77
627.785	43295.3
628.14	43279.94
628.495	43317.22
628.85	43291.23
629.205	43184.12
629.559	43184.8
629.914	43055.76
630.269	43122.2
630.623	42915.43
630.978	42938.7
631.332	43169.43
631.687	43046.95
632.041	42953.84
632.396	43137.79
632.75	42927.4
633.104	42993.62
633.459	42784.81
633.813	42896.22
634.167	42736.22
634.521	42836.11
634.875	42865.26
635.229	42691.93
635.583	42481.99
635.937	42481.31
636.291	42540.52
636.645	42393.63
636.999	42408.55
637.352	42403.57
637.706	42141.43
638.06	42399.05
638.413	42352.95
638.767	42102.11
639.121	42226.63
639.474	42107.54
639.828	42097.82
640.181	41912.74
640.534	42005.17
640.888	41882.46
641.241	41670.94
641.594	41778.51
641.947	41861.44
642.301	41738.96
642.654	41671.16
643.007	41671.39
643.36	41773.76
643.713	41709.13
644.066	41698.51
644.419	41504.39
644.771	41098.3
645.124	40676.16
645.477	40703.28
645.83	40557.3
646.182	40602.49
646.535	40532.44
646.888	40497.41
647.24	40494.47
647.593	40589.16
647.945	40529.95
648.298	40387.13
648.65	40280.01
649.002	40065.1
649.355	39832.12
649.707	39919.8
650.059	39725.45
650.411	40293.57
650.763	40546.22
651.115	41100.56
651.467	41017.85
651.819	41059.88
652.171	40865.54
652.523	40810.17
652.875	40930.62
653.227	40773.56
653.578	40994.35
653.93	40762.04
654.282	40559.56
654.633	40675.94
654.985	40624.64
655.337	40820.57
655.688	40635.03
656.039	40810.17
656.391	40382.84
656.742	40628.48
657.094	40691.53
657.445	40727.23
657.796	40790.28
658.147	40565.88
658.498	40801.81
658.849	40676.84
659.2	40594.58
659.551	40605.43
659.902	40836.61
660.253	40648.82
660.604	40722.26
660.955	40500.12
661.306	40715.71
661.656	40661.7
662.007	40637.07
662.358	40665.99
662.708	40653.56
663.059	40592.77
663.409	40589.16
663.76	40800.23
664.11	40821.47
664.461	40812.43
664.811	40806.55
665.161	40765.2
665.511	40640.46
665.862	40736.73
666.212	40841.58
666.562	40897.63
666.912	40804.75
667.262	40715.26
667.612	40690.4
667.962	40720.91
668.312	40786.22
668.662	40846.78
669.011	40798.64
669.361	40704.64
669.711	40795.03
670.06	40649.04
670.41	40582.15
670.76	40567.69
671.109	40703.28
671.459	40760.91
671.808	40678.42
672.157	40730.4
672.507	40566.33
672.856	40473.46
673.205	40444.98
673.554	40607.24
673.904	40422.16
674.253	40772.88
674.602	40486.56
674.951	40046.8
675.3	39715.96
675.649	40496.05
675.998	40323.18
676.346	40445.21
676.695	40485.88
677.044	40346.91
677.393	40294.93
677.741	40343.06
678.09	40316.4
678.438	40133.8
678.787	40126.57
679.135	40168.38
679.484	39941.27
679.832	40193.91
680.181	39990.3
680.529	39991.21
680.877	39837.09
681.225	39808.61
681.573	40221.26
681.922	39820.37
682.27	39749.63
682.618	39616.08
682.966	39676.19
683.314	39577.43
683.661	39579.92
684.009	39278.01
684.357	39203.88
684.705	39087.73
685.053	39133.38
685.4	39055.41
685.748	39098.58
686.095	38974.74
686.443	38731.81
686.79	38713.95
687.138	38776.55
687.485	38714.63
687.832	38570
688.18	38511.02
688.527	38352.38
688.874	38340.86
689.221	38330.46
689.568	38055.67
689.915	37923.47
690.262	38042.56
690.609	37827.88
690.956	37718.95
691.303	37630.82
691.65	37440.09
691.997	37480.54
692.344	37429.69
692.69	37228.57
693.037	37242.35
693.383	36828.58
693.73	36927.11
694.077	36654.57
694.423	36748.13
694.769	36536.84
695.116	36493.67
695.462	36311.31
695.808	36157.18
696.155	36280.12
696.501	35938.21
696.847	36042.39
697.193	35717.87
697.539	35737.76
697.885	35564.88
698.231	35500.25
698.577	35387.94
698.923	35298.22
699.269	34976.42
699.614	34896.2
699.96	34796.09
700.306	34888.29
700.651	34601.75
700.997	34382.09
701.342	34358.14
701.688	34310.45
702.033	34163.34
702.379	34075.88
702.724	34006.51
703.069	33886.51
703.415	33648.1
703.76	33656.46
704.105	33599.06
704.45	33483.13
704.795	33380.99
705.14	33201.33
705.485	33203.14
705.83	32913.88
706.175	33116.13
706.52	32997.72
706.865	32774.45
707.209	32703.04
707.554	32547.56
707.899	32599.54
708.243	32461.01
708.588	32507.34
708.932	32104.18
709.277	32164.52
709.621	31960.01
709.966	31809.73
710.31	31911.42
710.654	31545.78
710.998	31776.74
711.342	31649.73
711.687	31522.05
712.031	31472.79
712.375	31336.52
712.719	31200.71
713.063	31311.21
713.407	31320.7
713.75	31184.66
714.094	31128.16
714.438	30997.55
714.782	31059.24
715.125	30762.75
715.469	31022.18
715.812	30748.06
716.156	30769.08
716.499	30787.61
716.843	30707.61
717.186	30452.7
717.53	30691.57
717.873	30712.58
718.216	30470.1
718.559	30449.09
718.902	30251.58
719.246	30334.97
719.589	30332.71
719.932	30234.85
720.275	30254.74
720.617	30235.08
720.96	30082.99
721.303	30183.1
721.646	30223.1
721.989	29993.96
722.331	30136.55
722.674	29981.08
723.016	29988.31
723.359	29809.33
723.701	29833.51
724.044	29760.29
724.386	29595.55
724.729	29765.26
725.071	29789.89
725.413	29875.99
725.755	29707.64
726.097	29709.44
726.439	29643.68
726.782	29568.21
727.124	29769.56
727.465	29602.1
727.807	29636.68
728.149	29564.14
728.491	29462.9
728.833	29720.29
729.175	29642.1
729.516	29534.76
729.858	29570.92
730.199	29591.93
730.541	29577.47
730.882	29445.27
731.224	29658.37
731.565	29379.06
731.906	29557.81
732.248	29517.59
732.589	29443.69
732.93	29497.47
733.271	29472.61
733.612	29278.5
733.953	29541.09
734.294	29432.39
734.635	29354.88
734.976	29426.29
735.317	29357.82
735.658	29397.59
735.999	29364.82
736.339	29380.64
736.68	29508.77
737.021	29387.87
737.361	29465.38
737.702	29540.64
738.042	29523.69
738.383	29494.08
738.723	29595.32
739.063	29553.29
739.404	29644.59
739.744	29520.52
740.084	29494.54
740.424	29642.1
740.764	29733.4
741.104	29821.53
741.444	29621.76
741.784	29573.18
742.124	29886.84
742.464	29815.43
742.804	29809.56
743.143	29711.25
743.483	29874.19
743.823	29896.11
744.162	29766.17
744.502	29917.12
744.841	29901.08
745.181	30088.19
745.52	30085.93
745.86	30194.86
746.199	30216.78
746.538	30253.16
746.877	30382.2
747.216	30371.12
747.556	30275.08
747.895	30491.8
748.234	30513.72
748.573	30667.16
748.911	30458.13
749.25	30665.35
749.589	30682.07
749.928	30861.96
750.267	30889.3
750.605	30932.92
750.944	30964.33
751.283	30949.19
751.621	31104.66
751.96	31126.13
752.298	31166.36
752.636	31217.65
752.975	31271.89
753.313	31292.91
753.651	31569.73
753.989	31397.31
754.327	31683.63
754.666	31555.27
755.004	31739.22
