Data from 583_FLMS001491_003.txt Node
Date: Thu Apr 19 15:43:21 BST 2018
User: hsy
Spectrometer: FLMS00149
Trigger mode: 0
Integration Time (sec): 1.000000E-2
Scans to average: 10
Electric dark correction enabled: true
Nonlinearity correction enabled: false
Boxcar width: 0
XAxis mode: Wavelengths
Number of Pixels in Spectrum: 2048
>>>>>Begin Spectral Data<<<<<
341.393	1.95
341.776	1.95
342.16	1.95
342.543	-59.07
342.927	-64.94
343.31	-74.66
343.693	-75.56
344.077	-40.99
344.46	-60.42
344.843	-47.99
345.226	-41.67
345.61	-24.26
345.993	-38.28
346.376	-22.01
346.759	-6.41
347.142	31.78
347.525	34.49
347.908	53.7
348.291	84.66
348.674	112.23
349.057	115.39
349.44	134.83
349.823	151.32
350.206	167.82
350.588	229.29
350.971	253.02
351.354	257.99
351.737	271.32
352.119	269.51
352.502	281.04
352.884	289.85
353.267	311.32
353.65	326.46
354.032	331.66
354.414	335.5
354.797	344.54
355.179	359.91
355.562	339.79
355.944	365.1
356.326	368.72
356.709	380.92
357.091	342.51
357.473	391.09
357.855	339.34
358.238	386.57
358.62	378.21
359.002	378.66
359.384	374.14
359.766	377.53
360.148	379.57
360.53	381.15
360.912	381.83
361.294	361.94
361.676	403.75
362.057	367.14
362.439	363.52
362.821	375.27
363.203	365.56
363.584	387.02
363.966	362.17
364.348	377.08
364.729	351.32
365.111	356.06
365.493	369.62
365.874	335.95
366.256	370.08
366.637	359
367.019	353.58
367.4	380.47
367.781	368.95
368.163	359
368.544	321.26
368.925	365.33
369.306	359.45
369.688	370.08
370.069	375.5
370.45	393.35
370.831	357.65
371.212	356.06
371.593	369.85
371.974	384.99
372.355	376.4
372.736	355.84
373.117	377.76
373.498	386.12
373.879	378.44
374.26	388.15
374.641	363.3
375.021	373.01
375.402	368.72
375.783	412.11
376.163	398.1
376.544	386.8
376.925	400.81
377.305	397.19
377.686	370.98
378.066	397.19
378.447	401.49
378.827	413.46
379.208	403.75
379.588	394.03
379.968	427.47
380.349	408.72
380.729	405.78
381.109	396.74
381.489	408.04
381.87	427.7
382.25	400.36
382.63	408.94
383.01	425.44
383.39	434.71
383.77	411.2
384.15	416.18
384.53	432.22
384.91	434.25
385.29	441.49
385.67	414.82
386.049	454.14
386.429	429.73
386.809	441.26
387.189	432.45
387.568	422.28
387.948	444.42
388.328	450.52
388.707	459.11
389.087	441.03
389.466	465.89
389.846	462.05
390.225	467.47
390.605	438.77
390.984	473.12
391.363	460.47
391.743	453.69
392.122	471.77
392.501	451.65
392.881	492.78
393.26	489.39
393.639	480.81
394.018	491.88
394.397	499.34
394.776	475.83
395.155	515.38
395.534	526
395.913	519.45
396.292	504.76
396.671	497.98
397.05	518.55
397.429	508.15
397.808	530.97
398.186	499.11
398.565	533.01
398.944	524.65
399.323	518.55
399.701	544.76
400.08	523.29
400.458	519.68
400.837	531.2
401.215	545.66
401.594	547.25
401.972	551.99
402.351	556.28
402.729	577.98
403.107	551.77
403.486	544.53
403.864	539.11
404.242	589.05
404.62	578.66
404.999	571.2
405.377	593.35
405.755	582.27
406.133	590.63
406.511	559.45
406.889	605.55
407.267	615.04
407.645	606
408.023	610.07
408.401	610.52
408.779	636.96
409.156	623.18
409.534	634.25
409.912	637.64
410.29	659.78
410.667	640.12
411.045	659.78
411.422	661.82
411.8	684.19
412.178	685.09
412.555	688.03
412.933	704.3
413.31	691.42
413.687	722.83
414.065	714.47
414.442	683.74
414.819	705.43
415.197	723.74
415.574	748.82
415.951	731.65
416.328	767.35
416.705	709.95
417.082	753.12
417.46	740.69
417.837	756.28
418.214	756.73
418.591	778.65
418.967	781.82
419.344	789.5
419.721	794.24
420.098	789.72
420.475	787.24
420.852	789.05
421.228	808.26
421.605	822.49
421.982	808.03
422.358	835.37
422.735	803.06
423.111	824.53
423.488	828.14
423.864	837.41
424.241	887.12
424.617	858.42
424.994	875.37
425.37	871.08
425.746	871.76
426.123	888.71
426.499	902.94
426.875	897.97
427.251	904.52
427.627	915.82
428.003	929.38
428.379	948.82
428.756	934.58
429.132	929.38
429.507	962.6
429.883	986.56
430.259	982.94
430.635	986.56
431.011	986.1
431.387	997.18
431.763	1017.74
432.138	1023.62
432.514	1058.64
432.89	1067.01
433.265	1062.94
433.641	1074.01
434.016	1078.98
434.392	1094.35
434.767	1092.09
435.143	1110.39
435.518	1107.23
435.894	1124.18
436.269	1120.56
436.644	1135.25
437.02	1167.12
437.395	1163.27
437.77	1191.97
438.145	1201.69
438.52	1196.04
438.895	1200.79
439.271	1215.25
439.646	1235.81
440.021	1253.67
440.395	1247.79
440.77	1241.01
441.145	1241.46
441.52	1267.23
441.895	1274.01
442.27	1300.9
442.645	1279.66
443.019	1314.68
443.394	1299.09
443.769	1307.68
444.143	1289.37
444.518	1329.37
444.892	1320.11
445.267	1313.33
445.641	1336.6
446.016	1346.55
446.39	1351.07
446.764	1366.88
447.139	1355.13
447.513	1391.97
447.887	1393.78
448.262	1373.44
448.636	1384.29
449.01	1412.99
449.384	1423.61
449.758	1449.82
450.132	1427.22
450.506	1430.16
450.88	1478.52
451.254	1460.22
451.628	1505.41
452.002	1514
452.376	1547.9
452.75	1566.43
453.123	1529.59
453.497	1579.99
453.871	1592.64
454.244	1596.94
454.618	1646.65
454.992	1636.03
455.365	1640.55
455.739	1694.56
456.112	1732.07
456.486	1720.77
456.859	1732.3
457.232	1754.22
457.606	1801
457.979	1821.79
458.352	1789.92
458.725	1817.49
459.099	1858.62
459.472	1881.9
459.845	1894.33
460.218	1919.64
460.591	1927.55
460.964	1969.58
461.337	1963.93
461.71	2009.35
462.083	2044.61
462.456	2067.21
462.829	2070.14
463.201	2099.75
463.574	2088.22
463.947	2135.9
464.32	2164.15
464.692	2181.78
465.065	2217.94
465.438	2249.35
465.81	2254.09
466.183	2225.39
466.555	2322.11
466.928	2351.72
467.3	2360.31
467.672	2367.99
468.045	2418.83
468.417	2385.39
468.789	2450.47
469.161	2467.87
469.534	2500.19
469.906	2557.59
470.278	2577.93
470.65	2638.26
471.022	2631.94
471.394	2676.46
471.766	2681.65
472.138	2751.26
472.51	2818.6
472.882	2839.61
473.253	2848.43
473.625	2883.23
473.997	2964.81
474.369	2989.44
474.74	2985.6
475.112	3044.35
475.484	3099.72
475.855	3173.84
476.227	3176.55
476.598	3279.6
476.97	3264.69
477.341	3353.27
477.713	3442.08
478.084	3471.46
478.455	3556.66
478.827	3561.18
479.198	3694.96
479.569	3732.25
479.94	3833.49
480.311	3894.95
480.682	3923.65
481.053	4050.66
481.424	4106.93
481.795	4146.7
482.166	4231.67
482.537	4303.08
482.908	4443.87
483.279	4471.21
483.65	4546.69
484.021	4659
484.391	4793.24
484.762	4849.05
485.133	4867.13
485.503	4975.15
485.874	5132.21
486.244	5223.96
486.615	5325.88
486.985	5362.26
487.356	5483.39
487.726	5620.78
488.097	5712.99
488.467	5808.35
488.837	6003.15
489.207	6063.71
489.578	6236.59
489.948	6335.34
490.318	6503.47
490.688	6546.64
491.058	6694.65
491.428	6864.37
491.798	6910.47
492.168	7193.85
492.538	7291.25
492.908	7425.26
493.278	7554.74
493.648	7674.52
494.017	7802.87
494.387	8004
494.757	8148.85
495.126	8314.27
495.496	8437.21
495.866	8611.89
496.235	8735.5
496.605	8980.92
496.974	9095.27
497.344	9282.38
497.713	9471.08
498.082	9655.71
498.452	9775.03
498.821	9992.87
499.19	10074.23
499.559	10324.39
499.928	10537.49
500.298	10697.71
500.667	10948.1
501.036	11121.43
501.405	11362.1
501.774	11423.34
502.143	11706.5
502.512	11942.2
502.88	12197.33
503.249	12351.45
503.618	12619.02
503.987	12730.65
504.356	12970.42
504.724	13170.64
505.093	13391.43
505.462	13528.6
505.83	13843.39
506.199	14009.49
506.567	14404.51
506.936	14501.45
507.304	14772.41
507.672	14975.57
508.041	15117.26
508.409	15411.26
508.777	15664.14
509.145	15903.68
509.514	16046.05
509.882	16327.85
510.25	16478.35
510.618	16809.19
510.986	16863.43
511.354	17199.01
511.722	17450.08
512.09	17613.46
512.458	17654.82
512.826	18063.4
513.193	18234.46
513.561	18408.02
513.929	18590.39
514.297	18846.65
514.664	19027.21
515.032	19222.01
515.4	19452.51
515.767	19615.44
516.135	19842.33
516.502	19876.68
516.869	20266.73
517.237	20458.13
517.604	20474.18
517.972	20857.9
518.339	20965.47
518.706	21207.72
519.073	21234.16
519.44	21557.54
519.808	21720.02
520.175	21940.81
520.542	22087.24
520.909	22331.53
521.276	22472.09
521.643	22682.93
522.009	22839.99
522.376	23079.31
522.743	23250.83
523.11	23584.15
523.477	23771.72
523.843	23960.64
524.21	24338.03
524.577	24495.77
524.943	24591.81
525.31	24718.59
525.676	24954.29
526.043	25236.31
526.409	25363.09
526.776	25615.51
527.142	25638.34
527.508	25848.73
527.874	26183.86
528.241	26286.46
528.607	26426.79
528.973	26839.89
529.339	26777.29
529.705	27102.93
530.071	27272.87
530.437	27422.25
530.803	27497.72
531.169	27768.9
531.535	27772.29
531.901	27934.32
532.267	28065.17
532.632	28251.83
532.998	28452.27
533.364	28603.91
533.73	28611.82
534.095	28839.38
534.461	28867.4
534.826	29036.89
535.192	29139.26
535.557	29374.28
535.923	29225.14
536.288	29395.75
536.653	29615.41
537.019	29671.23
537.384	29565.24
537.749	29597.33
538.114	29883.42
538.479	29799.36
538.845	29999.8
539.21	29913.03
539.575	30125.45
539.94	30192.57
540.305	30441.83
540.67	30252.23
541.034	30415.84
541.399	30546
541.764	30498.32
542.129	30561.6
542.494	30674.36
542.858	30830.52
543.223	30789.84
543.587	30895.6
543.952	30887.46
544.316	31051.08
544.681	30906.9
545.045	31203.61
545.41	31261.92
545.774	31306.66
546.138	31259.88
546.503	31476.15
546.867	31398.19
547.231	31538.3
547.595	31528.8
547.959	31626.88
548.324	31620.33
548.688	31738.06
549.052	31876.59
549.416	31818.51
549.779	31832.07
550.143	31889.47
550.507	32001.33
550.871	32131.5
551.235	32199.29
551.599	32420.98
551.962	32361.55
552.326	32435.67
552.689	32473.19
553.053	32287.65
553.417	32610.36
553.78	32844.02
554.143	32846.28
554.507	32913.85
554.87	33027.07
555.234	33175.09
555.597	33013.06
555.96	33213.05
556.323	33206.5
556.686	33225.71
557.05	33590.67
557.413	33530.56
557.776	33539.82
558.139	33738.92
558.502	33765.13
558.865	33844.68
559.228	34097.32
559.59	34070.66
559.953	34073.6
560.316	34550.87
560.679	34533.92
561.041	34751.77
561.404	34731.43
561.767	34935.27
562.129	34803.52
562.492	35117.41
562.854	35025.43
563.217	35255.26
563.579	35245.32
563.941	35447.8
564.304	35698.19
564.666	35804.85
565.028	35832.87
565.39	35891.85
565.753	36187.44
566.115	36079.87
566.477	36241.67
566.839	36466.98
567.201	36665.17
567.563	36630.36
567.925	36812.28
568.287	36885.95
568.648	36978.83
569.01	37120.52
569.372	37424.24
569.734	37309.67
570.095	37612.71
570.457	37747.62
570.819	37784.91
571.18	37556.22
571.542	37993.04
571.903	38028.07
572.265	38219.93
572.626	38281.39
572.987	38239.36
573.349	38403.65
573.71	38583.99
574.071	38605.23
574.432	38842.74
574.794	39000.7
575.155	39056.52
575.516	38916.86
575.877	39086.35
576.238	39217.19
576.599	39200.69
576.96	39226.91
577.32	39347.13
577.681	39398.2
578.042	39674.35
578.403	39713.9
578.763	39493.79
579.124	39545.99
579.485	39677.97
579.845	39758.87
580.206	39591.87
580.566	39774.69
580.927	39737.85
581.287	39998.19
581.648	39703.5
582.008	39860.79
582.368	39952.99
582.728	40072.08
583.089	40023.5
583.449	39905.76
583.809	39942.59
584.169	40004.06
584.529	39904.4
584.889	40199.08
585.249	39949.83
585.609	39813.56
585.969	40023.72
586.329	39889.26
586.688	39972.42
587.048	39789.6
587.408	39807.91
587.768	39867.12
588.127	39948.92
588.487	39855.59
588.846	40041.12
589.206	39689.72
589.565	39930.39
589.925	39942.82
590.284	39757.97
590.643	39877.96
591.003	39856.04
591.362	40017.62
591.721	39899.66
592.08	39837.06
592.44	40008.81
592.799	39914.57
593.158	39861.01
593.517	39706.44
593.876	39865.08
594.235	39708.7
594.593	39911.41
594.952	39814.91
595.311	39794.58
595.67	39852.43
596.029	40030.28
596.387	40129.71
596.746	40069.37
597.104	39866.66
597.463	39915.02
597.822	40108.92
598.18	39815.37
598.538	39793.67
598.897	40116.37
599.255	39846.33
599.613	40355.46
599.972	40021.46
600.33	40086.32
600.688	39993.89
601.046	40221.23
601.404	40343.71
601.762	40331.28
602.12	40394.33
602.478	40360.21
602.836	40474.78
603.194	40102.82
603.552	40333.54
603.91	40268.91
604.268	40446.99
604.625	40272.3
604.983	40676.81
605.341	40270.95
605.698	40727.66
606.056	40797.71
606.413	40639.52
606.771	40871.38
607.128	40832.51
607.485	40690.82
607.843	40773.08
608.2	40937.14
608.557	40988.67
608.914	40917.26
609.272	41134.88
609.629	41236.12
609.986	41389.11
610.343	41155.22
610.7	41434.98
611.057	41409
611.414	41403.12
611.771	41518.6
612.127	41539.84
612.484	41628.43
612.841	41642.44
613.198	41595.43
613.554	41647.41
613.911	41847.63
614.267	41832.71
614.624	41766.95
614.98	42105.02
615.337	42221.4
615.693	42098.02
616.05	42117
616.406	42312.02
616.762	42198.13
617.118	42252.59
617.475	42355.64
617.831	42436.77
618.187	42503.2
618.543	42541.62
618.899	42784.33
619.255	42728.51
619.611	42710.66
619.967	42748.85
620.323	42927.83
620.678	42670.88
621.034	42677.66
621.39	42611.22
621.746	42760.37
622.101	43077.2
622.457	42817.09
622.812	43014.6
623.168	43061.83
623.523	42929.18
623.879	43109.52
624.234	42971.21
624.589	43015.06
624.945	43130.98
625.3	43179.57
625.655	43172.57
626.01	43122.62
626.365	43228.38
626.72	43043.76
627.075	43063.42
627.43	43137.31
627.785	43121.27
628.14	43087.14
628.495	43121.95
628.85	43111.78
629.205	43010.54
629.559	43132.34
629.914	42967.83
630.269	43059.35
630.623	42819.81
630.978	42684.89
631.332	42980.93
631.687	43041.04
632.041	42806.25
632.396	42806.93
632.75	42707.72
633.104	42808.28
633.459	42492.13
633.813	42585.24
634.167	42544.33
634.521	42620.72
634.875	42560.15
635.229	42456.43
635.583	42536.88
635.937	42327.16
636.291	42334.62
636.645	42290.78
636.999	42113.38
637.352	42353.6
637.706	42092.14
638.06	42293.94
638.413	41978.25
638.767	41946.83
639.121	41906.84
639.474	41788.87
639.828	41819.61
640.181	41746.16
640.534	41856.67
640.888	41709.33
641.241	41562.44
641.594	41652.15
641.947	41837.46
642.301	41557.92
642.654	41713.39
643.007	41528.54
643.36	41584.13
643.713	41415.1
644.066	41783
644.419	41294.42
644.771	40936.24
645.124	40571.96
645.477	40578.96
645.83	40436.14
646.182	40507.1
646.535	40277.5
646.888	40481.34
647.24	40403.37
647.593	40586.64
647.945	40461.9
648.298	40395.24
648.65	40175.58
649.002	39961.12
649.355	39807.46
649.707	39600
650.059	39672.09
650.411	40285.18
650.763	40501.22
651.115	41023.02
651.467	40885.62
651.819	40882
652.171	40731.05
652.523	40679.75
652.875	40715.91
653.227	40755
653.578	40997.03
653.93	40848.78
654.282	40678.62
654.633	40501.45
654.985	40635
655.337	40710.26
655.688	40623.93
656.039	40849.01
656.391	40438.85
656.742	40676.36
657.094	40550.94
657.445	40611.95
657.796	40648.56
658.147	40491.96
658.498	40610.37
658.849	40760.88
659.2	40621.9
659.551	40480.88
659.902	40736.47
660.253	40558.17
660.604	40729.47
660.955	40548.45
661.306	40659.64
661.656	40581.9
662.007	40632.07
662.358	40722.23
662.708	40783.93
663.059	40724.72
663.409	40489.25
663.76	40611.95
664.11	40760.65
664.461	40782.57
664.811	40793.64
665.161	40695.79
665.511	40643.14
665.862	40755.68
666.212	40832.06
666.562	40773.31
666.912	40814.44
667.262	40773.31
667.612	40703.93
667.962	40788.45
668.312	40671.39
668.662	40966.52
669.011	40848.33
669.361	40703.25
669.711	40769.01
670.06	40684.72
670.41	40638.85
670.76	40665.51
671.109	40755.23
671.459	40687.88
671.808	40578.96
672.157	40718.84
672.507	40468.91
672.856	40391.4
673.205	40567.66
673.554	40571.5
673.904	40432.07
674.253	40667.77
674.602	40380.32
674.951	39976.27
675.3	39645.65
675.649	40505.74
675.998	40387.33
676.346	40411.51
676.695	40460.55
677.044	40085.87
677.393	40399.76
677.741	40284.51
678.09	40362.92
678.438	40014.23
678.787	40275.92
679.135	40202.47
679.484	39948.02
679.832	40159.99
680.181	39973.78
680.529	39859.66
680.877	39876.15
681.225	39852.43
681.573	39973.1
681.922	39723.84
682.27	39582.6
682.618	39850.84
682.966	39543.96
683.314	39665.54
683.661	39488.37
684.009	39254.7
684.357	39239.56
684.705	39155.5
685.053	39322.27
685.4	38937.42
685.748	38967.93
686.095	39003.18
686.443	38777.2
686.79	38726.13
687.138	38901.27
687.485	38762.51
687.832	38498.34
688.18	38570.43
688.527	38454.95
688.874	38363.43
689.221	38197.78
689.568	37979.93
689.915	38034.62
690.262	38055.19
690.609	37915.3
690.956	37755.98
691.303	37829.43
691.65	37538.82
691.997	37587.85
692.344	37350.12
692.69	37214.98
693.037	37255.21
693.383	36792.62
693.73	36892.5
694.077	36677.14
694.423	36659.29
694.769	36590.82
695.116	36433.08
695.462	36238.96
695.808	36131.85
696.155	36199.87
696.501	35917.84
696.847	35887.56
697.193	35701.12
697.539	35634.01
697.885	35482.6
698.231	35267.69
698.577	35267.46
698.923	35157.63
699.269	34944.99
699.614	34893.46
699.96	34826.34
700.306	34792.9
700.651	34532.79
700.997	34500.48
701.342	34409.18
701.688	34315.85
702.033	34140.03
702.379	34040.83
702.724	33906.82
703.069	33914.96
703.415	33579.82
703.76	33467.06
704.105	33584.79
704.45	33485.36
704.795	33232.71
705.14	33108.65
705.485	33191.81
705.83	32929.22
706.175	33078.82
706.52	32828.43
706.865	32701.88
707.209	32569.68
707.554	32423.47
707.899	32554.31
708.243	32287.88
708.588	32211.05
708.932	32100.77
709.277	32058.28
709.621	31954.1
709.966	31825.52
710.31	31917.27
710.654	31536.71
710.998	31662.36
711.342	31821.45
711.687	31483.16
712.031	31394.34
712.375	31298.75
712.719	31306.89
713.063	31176.27
713.407	31437.05
713.75	31032.77
714.094	31013.34
714.438	30972.21
714.782	31017.18
715.125	30804.53
715.469	31051.08
715.812	30697.19
716.156	30612.44
716.499	30661.93
716.843	30773.34
717.186	30407.48
717.53	30690.63
717.873	30630.97
718.216	30511.88
718.559	30453.8
718.902	30242.74
719.246	30318.89
719.589	30111.67
719.932	30161.16
720.275	30192.12
720.617	30120.03
720.96	30031.67
721.303	30077.99
721.646	29963.65
721.989	29950.09
722.331	30052.68
722.674	29882.52
723.016	29797.78
723.359	29863.54
723.701	29861.28
724.044	29768.17
724.386	29682.52
724.729	29860.15
725.071	29772.01
725.413	29747.38
725.755	29661.51
726.097	29610.44
726.439	29586.93
726.782	29559.36
727.124	29674.62
727.465	29567.73
727.807	29478.24
728.149	29523.88
728.491	29541.96
728.833	29614.73
729.175	29618.57
729.516	29447.05
729.858	29375.41
730.199	29514.85
730.541	29465.36
730.882	29361.63
731.224	29541.29
731.565	29367.05
731.906	29485.02
732.248	29623.32
732.589	29343.1
732.93	29316.88
733.271	29381.52
733.612	29412.7
733.953	29501.96
734.294	29282.31
734.635	29251.58
734.976	29508.97
735.317	29378.8
735.658	29453.38
735.999	29312.59
736.339	29372.7
736.68	29383.78
737.021	29507.39
737.361	29442.08
737.702	29605.69
738.042	29555.07
738.383	29618.8
738.723	29703.32
739.063	29505.35
739.404	29731.56
739.744	29635.52
740.084	29404.34
740.424	29705.8
740.764	29646.59
741.104	29855.4
741.444	29696.08
741.784	29638.68
742.124	29729.53
742.464	29695.63
742.804	29762.07
743.143	29762.52
743.483	29958.22
743.823	29739.02
744.162	29944.44
744.502	29985.12
744.841	29856.53
745.181	30258.1
745.52	30124.09
745.86	30110.31
746.199	30085.45
746.538	30175.84
746.877	30474.37
747.216	30345.33
747.556	30333.81
747.895	30519.79
748.234	30473.46
748.573	30644.53
748.911	30643.4
749.25	30638.43
749.589	30527.25
749.928	30780.57
750.267	30956.84
750.605	30908.48
750.944	30995.26
751.283	31098.31
751.621	31092.21
751.96	31102.6
752.298	31112.77
752.636	31362.71
752.975	31261.69
753.313	31298.75
753.651	31632.98
753.989	31530.16
754.327	31623.72
754.666	31476.6
755.004	31745.75
755.342	31846.99
