Data from 583_FLMS001491_007.txt Node
Date: Thu Apr 19 15:43:31 BST 2018
User: hsy
Spectrometer: FLMS00149
Trigger mode: 0
Integration Time (sec): 1.000000E-2
Scans to average: 10
Electric dark correction enabled: true
Nonlinearity correction enabled: false
Boxcar width: 0
XAxis mode: Wavelengths
Number of Pixels in Spectrum: 2048
>>>>>Begin Spectral Data<<<<<
341.393	-2.51
341.776	-2.51
342.16	-2.51
342.543	-37.77
342.927	-66.47
343.31	-68.28
343.693	-61.72
344.077	-67.37
344.46	-66.47
344.843	-81.61
345.226	-49.29
345.61	-37.54
345.993	-3.19
346.376	-6.81
346.759	9.91
347.142	24.6
347.525	40.2
347.908	68.44
348.291	97.37
348.674	92.4
349.057	109.35
349.44	121.32
349.823	140.53
350.206	176.01
350.588	245.62
350.971	228.44
351.354	253.98
351.737	287.2
352.119	265.95
352.502	297.14
352.884	296.24
353.267	320.19
353.65	337.82
354.032	349.57
354.414	310.47
354.797	365.39
355.179	347.31
355.562	365.61
355.944	377.14
356.326	362.9
356.709	353.63
357.091	367.87
357.473	404.48
357.855	406.51
358.238	371.04
358.62	368.32
359.002	385.72
359.384	401.32
359.766	376.46
360.148	400.64
360.53	388.89
360.912	401.77
361.294	404.71
361.676	379.85
362.057	370.36
362.439	380.75
362.821	385.5
363.203	376.69
363.584	366.74
363.966	359.96
364.348	367.65
364.729	382.33
365.111	390.92
365.493	374.65
365.874	366.29
366.256	385.27
366.637	371.71
367.019	369.91
367.4	349.12
367.781	366.74
368.163	354.99
368.544	362.22
368.925	368.78
369.306	360.87
369.688	366.29
370.069	392.05
370.45	384.59
370.831	384.82
371.212	347.53
371.593	356.8
371.974	366.74
372.355	384.59
372.736	377.59
373.117	373.75
373.498	376.46
373.879	378.27
374.26	379.17
374.641	366.06
375.021	385.95
375.402	377.59
375.783	388.89
376.163	393.41
376.544	409.23
376.925	397.93
377.305	394.09
377.686	373.97
378.066	404.71
378.447	400.41
378.827	404.48
379.208	410.13
379.588	414.42
379.968	397.7
380.349	411.03
380.729	411.03
381.109	401.54
381.489	420.75
381.87	437.7
382.25	404.03
382.63	431.37
383.01	404.25
383.39	422.33
383.77	439.73
384.15	448.32
384.53	432.05
384.91	430.02
385.29	449.9
385.67	446.06
386.049	436.34
386.429	452.62
386.809	466.17
387.189	460.52
387.568	455.33
387.948	450.81
388.328	492.84
388.707	485.61
389.087	470.02
389.466	470.92
389.846	489.9
390.225	459.39
390.605	479.51
390.984	495.33
391.363	497.36
391.743	493.97
392.122	527.42
392.501	499.39
392.881	519.28
393.26	518.38
393.639	500.3
394.018	497.36
394.397	519.05
394.776	507.76
395.155	505.27
395.534	510.24
395.913	494.2
396.292	519.05
396.671	559.96
397.05	543.46
397.429	524.7
397.808	534.65
398.186	576.68
398.565	529.68
398.944	545.27
399.323	568.32
399.701	561.99
400.08	556.57
400.458	553.86
400.837	568.09
401.215	580.52
401.594	572.39
401.972	555.21
402.351	610.58
402.729	578.49
403.107	554.53
403.486	616.9
403.864	613.29
404.242	603.12
404.62	604.7
404.999	591.82
405.377	620.29
405.755	605.61
406.133	615.77
406.511	639.05
406.889	640.63
407.267	616.9
407.645	643.57
408.023	623.68
408.401	678.6
408.779	652.38
409.156	663.91
409.534	674.08
409.912	678.6
410.29	684.25
410.667	679.28
411.045	685.15
411.422	711.37
411.8	696.22
412.178	725.15
412.555	759.27
412.933	761.31
413.31	745.26
413.687	748.2
414.065	759.95
414.442	761.76
414.819	774.64
415.197	771.02
415.574	768.77
415.951	777.58
416.328	797.24
416.705	802.66
417.082	789.1
417.46	791.59
417.837	819.61
418.214	828.65
418.591	818.71
418.967	839.72
419.344	821.19
419.721	841.31
420.098	822.1
420.475	831.14
420.852	848.54
421.228	871.59
421.605	875.88
421.982	888.08
422.358	885.15
422.735	913.85
423.111	886.73
423.488	898.03
423.864	923.79
424.241	926.95
424.617	937.57
424.994	938.93
425.37	948.2
425.746	930.57
426.123	961.75
426.499	964.92
426.875	971.02
427.251	965.82
427.627	981.64
428.003	1007.18
428.379	997.23
428.756	1023
429.132	1028.87
429.507	1046.27
429.883	1051.47
430.259	1078.36
430.635	1066.84
431.011	1112.94
431.387	1117
431.763	1119.94
432.138	1113.39
432.514	1132.82
432.89	1141.64
433.265	1156.55
433.641	1176.66
434.016	1147.96
434.392	1219.83
434.767	1226.83
435.143	1244.68
435.518	1239.94
435.894	1238.13
436.269	1248.53
436.644	1266.38
437.02	1294.85
437.395	1279.71
437.77	1296.66
438.145	1318.13
438.52	1293.05
438.895	1323.78
439.271	1366.94
439.646	1383.89
440.021	1334.63
440.395	1344.8
440.77	1348.86
441.145	1346.6
441.52	1382.99
441.895	1429.31
442.27	1419.37
442.645	1409.43
443.019	1429.76
443.394	1422.08
443.769	1418.24
444.143	1430.67
444.518	1449.88
444.892	1448.07
445.267	1468.41
445.641	1464.11
446.016	1465.92
446.39	1501.85
446.764	1508.18
447.139	1517.9
447.513	1531.91
447.887	1519.25
448.262	1508.86
448.636	1558.57
449.01	1566.03
449.384	1550.21
449.758	1598.12
450.132	1617.78
450.506	1625.01
450.88	1637.89
451.254	1632.25
451.628	1661.62
452.002	1671.79
452.376	1683.32
452.75	1719.7
453.123	1729.42
453.497	1733.26
453.871	1751.79
454.244	1790.21
454.618	1811.68
454.992	1845.35
455.365	1829.3
455.739	1856.65
456.112	1889.19
456.486	1910.2
456.859	1938.23
457.232	1957.43
457.606	1989.98
457.979	1989.98
458.352	2047.83
458.725	2063.65
459.099	2065.68
459.472	2066.58
459.845	2152.91
460.218	2134.83
460.591	2208.5
460.964	2192.46
461.337	2218.22
461.71	2273.36
462.083	2274.94
462.456	2288.27
462.829	2295.05
463.201	2334.15
463.574	2365.11
463.947	2387.71
464.32	2392.9
464.692	2431.32
465.065	2435.16
465.438	2490.08
465.81	2509.28
466.183	2520.58
466.555	2583.18
466.928	2611.65
467.3	2633.57
467.672	2664.76
468.045	2708.15
468.417	2713.35
468.789	2738.66
469.161	2790.86
469.534	2831.08
469.906	2890.74
470.278	2874.47
470.65	2921.25
471.022	2970.52
471.394	3011.64
471.766	3037.41
472.138	3088.48
472.51	3182.94
472.882	3188.14
473.253	3172.09
473.625	3324.4
473.997	3343.61
474.369	3377.74
474.74	3417.06
475.112	3485.08
475.484	3533.21
475.855	3596.71
476.227	3590.84
476.598	3679.87
476.97	3778.86
477.341	3811.17
477.713	3915.35
478.084	3916.25
478.455	4046.19
478.827	4083.48
479.198	4203.7
479.569	4223.14
479.94	4349.01
480.311	4428.56
480.682	4498.61
481.053	4558.5
481.424	4667.19
481.795	4782.9
482.166	4810.01
482.537	4888.2
482.908	4992.16
483.279	5062.66
483.65	5176.56
484.021	5308.76
484.391	5423.78
484.762	5433.5
485.133	5576.1
485.503	5656.32
485.874	5811.57
486.244	5880.27
486.615	6008.63
486.985	6122.52
487.356	6233.71
487.726	6330.2
488.097	6533.13
488.467	6556.64
488.837	6741.49
489.207	6884.31
489.578	7053.12
489.948	7161.59
490.318	7296.5
490.688	7346.9
491.058	7547.12
491.428	7688.58
491.798	7790.73
492.168	8028.69
492.538	8166.31
492.908	8380.77
493.278	8463.03
493.648	8580.99
494.017	8788.89
494.387	9002.45
494.757	9119.28
495.126	9267.3
495.496	9479.27
495.866	9621.41
496.235	9817.11
496.605	9948.64
496.974	10136.88
497.344	10303.2
497.713	10499.58
498.082	10735.06
498.452	10867.71
498.821	11036.29
499.19	11199.45
499.559	11517.86
499.928	11730.96
500.298	11831.98
500.667	12054.12
501.036	12218.86
501.405	12458.63
501.774	12614.33
502.143	12857.71
502.512	13092.51
502.88	13369.79
503.249	13601.87
503.618	13748.54
503.987	13979.04
504.356	14221.52
504.724	14461.96
505.093	14618.34
505.462	14825.34
505.83	15132.91
506.199	15342.85
506.567	15715.49
506.936	15810.63
507.304	16142.37
507.672	16302.37
508.041	16476.15
508.409	16849.7
508.777	17116.81
509.145	17318.39
509.514	17415.56
509.882	17742.33
510.25	17921.31
510.618	18219.15
510.986	18280.17
511.354	18623.21
511.722	18897.1
512.09	19190.65
512.458	19239.47
512.826	19521.72
513.193	19720.58
513.561	19926
513.929	20156.28
514.297	20396.95
514.664	20713.55
515.032	20872.64
515.4	21096.14
515.767	21335
516.135	21618.39
516.502	21520.08
516.869	21963.01
517.237	22261.99
517.604	22241.42
517.972	22650.9
518.339	22639.15
518.706	22953.72
519.073	23094.73
519.44	23303.99
519.808	23576.08
520.175	23773.81
520.542	24002.5
520.909	24188.04
521.276	24316.17
521.643	24701.47
522.009	24841.13
522.376	25065.53
522.743	25200.67
523.11	25641.11
523.477	25915
523.843	25914.54
524.21	26299.62
524.577	26512.49
524.943	26719.27
525.31	26749.78
525.676	27146.15
526.043	27408.74
526.409	27678.34
526.776	27756.76
527.142	27988.16
527.508	28128.72
527.874	28461.82
528.241	28506.34
528.607	28672.66
528.973	29009.6
529.339	28983.84
529.705	29305.42
530.071	29511.29
530.437	29716.03
530.803	29952.18
531.169	30143.59
531.535	30070.59
531.901	30369.34
532.267	30392.17
532.632	30562.56
532.998	30764.36
533.364	31034.41
533.73	31064.69
534.095	31325.25
534.461	31483.44
534.826	31468.75
535.192	31613.83
535.557	31853.6
535.923	31847.04
536.288	32004.1
536.653	32157.32
537.019	32040.49
537.384	32259.01
537.749	32390.76
538.114	32358.67
538.479	32390.31
538.845	32563.41
539.21	32563.41
539.575	32700.58
539.94	32794.82
540.305	32977.41
540.67	32990.74
541.034	32970.63
541.399	33225.54
541.764	33218.31
542.129	33289.27
542.494	33338.76
542.858	33541.46
543.223	33391.64
543.587	33687.9
543.952	33628.24
544.316	33616.71
544.681	33664.85
545.045	33776.94
545.41	33854.67
545.774	33927.22
546.138	33864.62
546.503	34087.21
546.867	34130.37
547.231	34213.08
547.595	34359.29
547.959	34453.08
548.324	34429.12
548.688	34504.6
549.052	34581.44
549.416	34450.82
549.779	34619.17
550.143	34545.73
550.507	34834.76
550.871	34804.25
551.235	34753.86
551.599	35161.53
551.962	35131.48
552.326	35241.31
552.689	35250.8
553.053	35036.11
553.417	35349.55
553.78	35514.97
554.143	35607.4
554.507	35711.58
554.87	35862.53
555.234	36174.16
555.597	35806.71
555.96	36092.81
556.323	36142.98
556.686	36141.85
557.05	36293.93
557.413	36443.53
557.776	36519.24
558.139	36656.41
558.502	36716.75
558.865	36620.93
559.228	37002.39
559.59	36998.09
559.953	37220.46
560.316	37554.24
560.679	37371.64
561.041	37591.07
561.404	37591.3
561.767	38025.19
562.129	37943.15
562.492	38279.42
562.854	38197.61
563.217	38289.36
563.579	38460.43
563.941	38634.89
564.304	38739.07
564.666	38994.2
565.028	38972.73
565.39	39186.06
565.753	39284.14
566.115	39351.48
566.477	39504.47
566.839	39674.63
567.201	39953.72
567.563	39829.88
567.925	40165.24
568.287	40176.32
568.648	40285.92
569.01	40410.43
569.372	40656.76
569.734	40678.9
570.095	40744.89
570.457	41057.88
570.819	41028.95
571.18	41163.86
571.542	41457.41
571.903	41386.45
572.265	41619.44
572.626	41687.24
572.987	41665.77
573.349	41844.07
573.71	41927.91
574.071	42059.66
574.432	42234.34
574.794	42466.88
575.155	42559.3
575.516	42481.79
575.877	42341.91
576.238	42753.65
576.599	42718.17
576.96	42663.26
577.32	42609.7
577.681	42829.13
578.042	43070.25
578.403	43041.55
578.763	43055.56
579.124	43023.7
579.485	43171.94
579.845	43359.06
580.206	43176.46
580.566	43220.98
580.927	43241.09
581.287	43373.97
581.648	43257.14
582.008	43371.49
582.368	43386.4
582.728	43466.4
583.089	43235.9
583.449	43264.82
583.809	43445.61
584.169	43453.07
584.529	43206.75
584.889	43693.51
585.249	43196.12
585.609	43216.46
585.969	43519.28
586.329	43351.15
586.688	43529.9
587.048	43338.72
587.408	43352.05
587.768	43213.75
588.127	43294.43
588.487	43301.43
588.846	43543.01
589.206	43177.37
589.565	43092.4
589.925	43319.51
590.284	43317.25
590.643	43314.31
591.003	43170.59
591.362	43434.99
591.721	43350.47
592.08	43320.87
592.44	43533.74
592.799	43434.31
593.158	43487.64
593.517	43377.81
593.876	43523.35
594.235	43347.76
594.593	43329
594.952	43318.61
595.311	43447.19
595.67	43413.52
596.029	43706.17
596.387	43612.61
596.746	43778.26
597.104	43322.45
597.463	43392.73
597.822	43612.38
598.18	43487.64
598.538	43498.26
598.897	43800.85
599.255	43537.81
599.613	44002.2
599.972	43601.09
600.33	43756.56
600.688	43626.4
601.046	43669.11
601.404	43846.28
601.762	43792.94
602.12	43979.83
602.478	43902.77
602.836	43940.74
603.194	43688.54
603.552	43764.02
603.91	43792.27
604.268	43993.62
604.625	43877.01
604.983	44120.62
605.341	43771.93
605.698	44092.6
606.056	44327.39
606.413	44170.11
606.771	44352.48
607.128	44380.5
607.485	44034.75
607.843	44210.11
608.2	44536.88
608.557	44680.38
608.914	44595.41
609.272	44707.95
609.629	44894.16
609.986	44976.87
610.343	44826.14
610.7	45191.33
611.057	44985.91
611.414	44874.95
611.771	45091.67
612.127	45161.04
612.484	45217.54
612.841	45342.06
613.198	45173.02
613.554	45157.88
613.911	45340.7
614.267	45415.5
614.624	45523.97
614.98	45508.38
615.337	45802.16
615.693	45619.34
616.05	45669.96
616.406	45883.06
616.762	45808.94
617.118	45839.67
617.475	45834.02
617.831	46093
618.187	45985.2
618.543	46206.21
618.899	46308.13
619.255	46161.24
619.611	46206.67
619.967	46371.18
620.323	46401.69
620.678	46240.79
621.034	46333.67
621.39	46373.67
621.746	46287.34
622.101	46878.74
622.457	46339.77
622.812	46579.31
623.168	46559.2
623.523	46565.3
623.879	46729.14
624.234	46601.46
624.589	46688.91
624.945	46686.65
625.3	46680.78
625.655	46895.91
626.01	46787.67
626.365	46674.9
626.72	46705.86
627.075	46568.69
627.43	46669.71
627.785	46716.03
628.14	46676.48
628.495	46823.15
628.85	46750.15
629.205	46593.77
629.559	46713.09
629.914	46573.89
630.269	46585.19
630.623	46446.89
630.978	46471.29
631.332	46630.84
631.687	46620.21
632.041	46502.7
632.396	46645.98
632.75	46398.98
633.104	46518.97
633.459	46261.13
633.813	46289.38
634.167	46298.19
634.521	46271.3
634.875	46207.57
635.229	46110.4
635.583	45969.38
635.937	45866.34
636.291	45857.75
636.645	45901.59
636.999	45780.69
637.352	45867.69
637.706	45546.57
638.06	45851.65
638.413	45675.38
638.767	45539.34
639.121	45666.34
639.474	45398.1
639.828	45378.21
640.181	45337.54
640.534	45526.91
640.888	45213.92
641.241	45130.99
641.594	45102.97
641.947	45142.29
642.301	45038.79
642.654	45170.54
643.007	44975.51
643.36	45038.11
643.713	45005.57
644.066	45180.03
644.419	44824.33
644.771	44346.83
645.124	43952.04
645.477	43932.83
645.83	43834.07
646.182	43937.35
646.535	43721.08
646.888	43970.12
647.24	43846.95
647.593	43969.44
647.945	43875.88
648.298	43661.42
648.65	43633.63
649.002	43281.77
649.355	43191.83
649.707	43166.29
650.059	43219.4
650.411	43779.16
650.763	43860.74
651.115	44556.09
651.467	44274.29
651.819	44366.26
652.171	44324
652.523	44179.6
652.875	44267.06
653.227	44146.16
653.578	44407.39
653.93	44328.75
654.282	44048.98
654.633	44008.98
654.985	44210.56
655.337	44062.09
655.688	44180.96
656.039	44406.04
656.391	43939.38
656.742	44096.89
657.094	44093.5
657.445	44055.99
657.796	44152.71
658.147	44010.11
658.498	44135.31
658.849	44146.61
659.2	44044.46
659.551	43829.33
659.902	44116.78
660.253	44124.91
660.604	44107.74
660.955	43884.47
661.306	44244.91
661.656	44026.84
662.007	44136.44
662.358	44139.38
662.708	44078.81
663.059	44044.24
663.409	43974.41
663.76	44146.16
664.11	44068.87
664.461	44257.57
664.811	44152.03
665.161	44211.46
665.511	44105.93
665.862	44085.14
666.212	44269.54
666.562	44251.92
666.912	44287.39
667.262	43990.91
667.612	44236.32
667.962	44154.52
668.312	44103.44
668.662	44286.94
669.011	44190.9
669.361	44053.73
669.711	44131.24
670.06	44064.35
670.41	43899.61
670.76	43903.68
671.109	44093.05
671.459	44003.11
671.808	44002.88
672.157	44050.79
672.507	43749.56
672.856	43873.62
673.205	44036.33
673.554	43900.96
673.904	43760.18
674.253	44120.62
674.602	43893.51
674.951	43231.83
675.3	43059.63
675.649	43944.35
675.998	43826.84
676.346	43772.61
676.695	43895.31
677.044	43507.3
677.393	43633.63
677.741	43691.25
678.09	43751.36
678.438	43529.67
678.787	43580.75
679.135	43724.7
679.484	43241.77
679.832	43579.84
680.181	43528.09
680.529	43413.75
680.877	43305.27
681.225	43136.24
681.573	43376.68
681.922	43167.2
682.27	43130.14
682.618	43048.11
682.966	42943.02
683.314	43112.96
683.661	42940.31
684.009	42732.41
684.357	42640.21
684.705	42506.65
685.053	42590.04
685.4	42440.89
685.748	42360.67
686.095	42337.16
686.443	42071.63
686.79	42186.66
687.138	42138.75
687.485	41994.57
687.832	41879.32
688.18	41847.01
688.527	41706.9
688.874	41598.65
689.221	41469.39
689.568	41343.07
689.915	41176.29
690.262	41279.56
690.609	41040.47
690.956	40848.84
691.303	40876.64
691.65	40561.39
691.997	40635.51
692.344	40233.94
692.69	40365.24
693.037	40423.54
693.383	39978.81
693.73	40107.39
694.077	39891.13
694.423	39778.13
694.769	39679.15
695.116	39503.11
695.462	39455.43
695.808	39160.98
696.155	39406.39
696.501	39003.01
696.847	39074.65
697.193	38744.04
697.539	38935.45
697.885	38496.36
698.231	38517.38
698.577	38436.48
698.923	38374.1
699.269	37931.4
699.614	38042.59
699.96	37901.57
700.306	37854.57
700.651	37603.73
700.997	37424.07
701.342	37477.86
701.688	37340.68
702.033	37086.23
702.379	37194.93
702.724	36908.38
703.069	36887.36
703.415	36498
703.76	36431.33
704.105	36530.31
704.45	36421.39
704.795	36228.62
705.14	36037.44
705.485	36071.79
705.83	35809.2
706.175	35987.5
706.52	35810.1
706.865	35665.47
707.209	35518.13
707.554	35505.93
707.899	35388.65
708.243	35210.57
708.588	35281.76
708.932	35029.11
709.277	34957.92
709.621	34921.99
709.966	34686.29
710.31	34800.86
710.654	34469.35
710.998	34627.08
711.342	34635.9
711.687	34433.19
712.031	34258.51
712.375	34117.04
712.719	34075.01
713.063	33987.33
713.407	34189.13
713.75	34127.89
714.094	34011.05
714.438	33850.61
714.782	33817.84
715.125	33615.59
715.469	33941.23
715.812	33600.44
716.156	33589.82
716.499	33622.59
716.843	33551.86
717.186	33342.15
717.53	33515.47
717.873	33570.61
718.216	33401.13
718.559	33326.33
718.902	32918.2
719.246	33156.39
719.589	33120.46
719.932	32961.14
720.275	32861.93
720.617	32938.54
720.96	32827.58
721.303	32944.87
721.646	33072.55
721.989	32748.72
722.331	32853.57
722.674	32713.46
723.016	32623.75
723.359	32682.73
723.701	32712.11
724.044	32587.82
724.386	32488.16
724.729	32534.48
725.071	32571.09
725.413	32339.91
725.755	32390.98
726.097	32334.94
726.439	32211.55
726.782	32328.61
727.124	32409.52
727.465	32322.96
727.807	32315.05
728.149	32295.62
728.491	32205.68
728.833	32177.2
729.175	32208.84
729.516	32216.07
729.858	32060.37
730.199	32203.87
730.541	32163.19
730.882	32075.29
731.224	32075.74
731.565	31840.04
731.906	32085.46
732.248	32097.88
732.589	31912.58
732.93	31923.88
733.271	31923.65
733.612	31915.06
733.953	32112.8
734.294	31912.13
734.635	31807.27
734.976	32134.27
735.317	31980.83
735.658	31909.42
735.999	32005.01
736.339	31908.96
736.68	32067.6
737.021	31916.65
737.361	31833.71
737.702	32085.68
738.042	32018.34
738.383	32134.95
738.723	32113.03
739.063	32022.86
739.404	32129.3
739.744	32142.18
740.084	32075.06
740.424	32196.64
740.764	32179.46
741.104	32303.3
741.444	32152.57
741.784	32225.57
742.124	32307.37
742.464	32264.43
742.804	32209.07
743.143	32374.94
743.483	32494.26
743.823	32262.4
744.162	32471.21
744.502	32537.87
744.841	32509.4
745.181	32676.4
745.52	32628.04
745.86	32777.87
746.199	32671.66
746.538	32827.36
746.877	32936.05
747.216	32935.15
747.556	32974.92
747.895	33164.98
748.234	33014.24
748.573	33245.43
748.911	33162.04
749.25	33283.84
749.589	33268.48
749.928	33525.42
750.267	33599.54
750.605	33509.15
750.944	33648.35
751.283	33619.2
751.621	33827.1
751.96	33770.84
752.298	33814.68
752.636	33994.33
752.975	33830.95
753.313	33921.11
753.651	34133.31
753.989	34030.04
754.327	34224.83
754.666	34096.48
755.004	34276.58
