Data from 635_FLMS001491_004.txt Node
Date: Thu Apr 19 16:46:21 BST 2018
User: hsy
Spectrometer: FLMS00149
Trigger mode: 0
Integration Time (sec): 1.000000E-2
Scans to average: 10
Electric dark correction enabled: true
Nonlinearity correction enabled: false
Boxcar width: 0
XAxis mode: Wavelengths
Number of Pixels in Spectrum: 2048
>>>>>Begin Spectral Data<<<<<
341.393	-4.04
341.776	-4.04
342.16	-4.04
342.543	-63.92
342.927	-75.9
343.31	-69.57
343.693	-60.31
344.077	-63.92
344.46	-72.51
344.843	-64.6
345.226	-21.44
345.61	-42.46
345.993	-27.54
346.376	-10.14
346.759	0.25
347.142	47.94
347.525	42.29
347.908	71.89
348.291	78.67
348.674	88.61
349.057	102.85
349.44	141.27
349.823	150.08
350.206	179.23
350.588	216.97
350.971	233.69
351.354	265.56
351.737	273.24
352.119	289.96
352.502	298.33
352.884	311.43
353.267	324.99
353.65	326.12
354.032	338.1
354.414	351.88
354.797	338.32
355.179	376.06
355.562	362.28
355.944	353.69
356.326	376.06
356.709	369.96
357.091	379.68
357.473	372
357.855	371.54
358.238	368.61
358.62	368.61
359.002	370.64
359.384	382.62
359.766	369.51
360.148	391.43
360.53	386.01
360.912	393.24
361.294	362.05
361.676	366.12
362.057	366.12
362.439	369.51
362.821	388.72
363.203	375.84
363.584	377.19
363.966	358.66
364.348	371.77
364.729	369.96
365.111	372.22
365.493	367.93
365.874	362.73
366.256	349.85
366.637	343.07
367.019	360.7
367.4	366.8
367.781	377.65
368.163	346.01
368.544	381.26
368.925	381.04
369.306	374.71
369.688	355.5
370.069	370.41
370.45	392.11
370.831	361.15
371.212	355.05
371.593	357.53
371.974	353.24
372.355	365.22
372.736	383.97
373.117	400.24
373.498	372.22
373.879	377.42
374.26	381.26
374.641	367.02
375.021	353.69
375.402	400.02
375.783	384.65
376.163	403.18
376.544	384.2
376.925	396.63
377.305	407.7
377.686	404.99
378.066	400.24
378.447	407.25
378.827	401.37
379.208	401.83
379.588	414.25
379.968	403.63
380.349	389.17
380.729	402.73
381.109	432.56
381.489	423.29
381.87	399.57
382.25	419
382.63	443.63
383.01	417.19
383.39	455.16
383.77	453.8
384.15	444.54
384.53	428.94
384.91	439.11
385.29	438.89
385.67	446.34
386.049	443.63
386.429	464.87
386.809	463.52
387.189	466.23
387.568	440.69
387.948	465.55
388.328	482.95
388.707	491.09
389.087	483.63
389.466	493.8
389.846	466
390.225	473.01
390.605	489.28
390.984	490.18
391.363	494.7
391.743	516.85
392.122	517.08
392.501	507.13
392.881	530.41
393.26	525.66
393.639	534.7
394.018	554.59
394.397	541.26
394.776	533.8
395.155	558.88
395.534	546.68
395.913	567.24
396.292	555.49
396.671	569.73
397.05	568.6
397.429	580.13
397.808	574.7
398.186	577.64
398.565	603.85
398.944	589.62
399.323	584.87
399.701	614.02
400.08	616.28
400.458	610.63
400.837	622.38
401.215	649.73
401.594	629.39
401.972	632.55
402.351	658.99
402.729	655.83
403.107	665.1
403.486	674.36
403.864	691.31
404.242	693.12
404.62	702.38
404.999	694.93
405.377	720.24
405.755	724.08
406.133	736.51
406.511	768.14
406.889	760.23
407.267	773.12
407.645	777.63
408.023	790.06
408.401	826
408.779	813.34
409.156	821.25
409.534	842.27
409.912	865.09
410.29	894.47
410.667	914.81
411.045	930.17
411.422	931.3
411.8	955.26
412.178	967.69
412.555	1006.78
412.933	1000.91
413.31	1010.85
413.687	1049.27
414.065	1059.66
414.442	1093.11
414.819	1101.69
415.197	1113.9
415.574	1119.32
415.951	1133.33
416.328	1125.65
416.705	1157.74
417.082	1176.72
417.46	1181.69
417.837	1201.13
418.214	1203.16
418.591	1226.44
418.967	1250.16
419.344	1284.74
419.721	1262.37
420.098	1279.54
420.475	1338.98
420.852	1327.22
421.228	1357.51
421.605	1338.75
421.982	1353.89
422.358	1393.66
422.735	1424.85
423.111	1400.9
423.488	1470.05
423.864	1459.2
424.241	1498.52
424.617	1508.92
424.994	1521.12
425.37	1553.21
425.746	1543.72
426.123	1560.89
426.499	1576.03
426.875	1617.39
427.251	1649.7
427.627	1653.32
428.003	1667.33
428.379	1736.71
428.756	1730.38
429.132	1760.89
429.507	1791.17
429.883	1816.48
430.259	1828
430.635	1863.26
431.011	1866.65
431.387	1929.7
431.763	1953.65
432.138	1975.34
432.514	2001.11
432.89	2026.42
433.265	2061.22
433.641	2105.51
434.016	2100.09
434.392	2172.85
434.767	2193.42
435.143	2188.67
435.518	2222.79
435.894	2265.05
436.269	2324.03
436.644	2349.35
437.02	2338.95
437.395	2376.69
437.77	2435.67
438.145	2468.66
438.52	2489
438.895	2479.96
439.271	2526.74
439.646	2539.4
440.021	2599.51
440.395	2614.2
440.77	2547.98
441.145	2618.04
441.52	2687.19
441.895	2684.93
442.27	2701.65
442.645	2736.45
443.019	2744.81
443.394	2754.08
443.769	2791.82
444.143	2819.84
444.518	2868.65
444.892	2801.54
445.267	2862.78
445.641	2861.87
446.016	2952.04
446.39	2961.08
446.764	2966.28
447.139	2940.29
447.513	2979.38
447.887	3040.4
448.262	3039.95
448.636	3020.97
449.01	3118.82
449.384	3125.14
449.758	3157.91
450.132	3211.47
450.506	3218.25
450.88	3258.47
451.254	3264.58
451.628	3314.07
452.002	3353.16
452.376	3405.36
452.75	3470.22
453.123	3457.56
453.497	3496.21
453.871	3521.97
454.244	3591.57
454.618	3638.35
454.992	3699.59
455.365	3714.96
455.739	3796.09
456.112	3836.54
456.486	3863.43
456.859	3906.14
457.232	4011.67
457.606	3988.17
457.979	4087.38
458.352	4133.48
458.725	4224.78
459.099	4266.58
459.472	4300.48
459.845	4410.99
460.218	4383.19
460.591	4505.22
460.964	4483.53
461.337	4605.78
461.71	4650.53
462.083	4774.59
462.456	4735.72
462.829	4744.76
463.201	4922.16
463.574	4860.69
463.947	5001.7
464.32	5064.98
464.692	5094.58
465.065	5161.47
465.438	5221.13
465.81	5308.59
466.183	5356.05
466.555	5456.61
466.928	5478.3
467.3	5535.25
467.672	5579.99
468.045	5754.23
468.417	5709.03
468.789	5771.85
469.161	5871.96
469.534	5938.86
469.906	6043.71
470.278	6141.56
470.65	6192.86
471.022	6300.43
471.394	6393.98
471.766	6456.36
472.138	6565.28
472.51	6730.02
472.882	6781.32
473.253	6826.06
473.625	6884.82
473.997	7133.85
474.369	7174.53
474.74	7277.8
475.112	7400.96
475.484	7479.15
475.855	7609.09
476.227	7648.19
476.598	7942.87
476.97	7988.97
477.341	8111
477.713	8259.7
478.084	8354.16
478.455	8602.29
478.827	8659.91
479.198	8912.11
479.569	8957.08
479.94	9137.19
480.311	9314.36
480.682	9403.17
481.053	9703.95
481.424	9840.45
481.795	9908.02
482.166	10078.63
482.537	10281.57
482.908	10497.38
483.279	10629.13
483.65	10798.61
484.021	11053.07
484.391	11204.03
484.762	11287.64
485.133	11428.88
485.503	11587.75
485.874	11950.22
486.244	12059.6
486.615	12180.27
486.985	12418.23
487.356	12622.97
487.726	12722.63
488.097	13075.62
488.467	13109.06
488.837	13412.78
489.207	13544.76
489.578	13793.34
489.948	13950.62
490.318	14216.38
490.688	14253.44
491.058	14572.07
491.428	14735.69
491.798	14909.24
492.168	15218.61
492.538	15301.09
492.908	15569.11
493.278	15807.07
493.648	15826.28
494.017	16121.86
494.387	16208.42
494.757	16314.4
495.126	16428.52
495.496	16687.5
495.866	16851.34
496.235	17031.44
496.605	17140.82
496.974	17278.44
497.344	17490.42
497.713	17641.82
498.082	17659.9
498.452	17921.59
498.821	18115.48
499.19	18118.65
499.559	18319.32
499.928	18520.9
500.298	18625.98
500.667	18822.36
501.036	18812.41
501.405	19079.07
501.774	19047.44
502.143	19245.85
502.512	19437.94
502.88	19585.28
503.249	19640.19
503.618	19843.8
503.987	19897.13
504.356	20106.39
504.724	20128.54
505.093	20218.93
505.462	20416.67
505.83	20556.78
506.199	20732.82
506.567	21016.2
506.936	21006.26
507.304	21342.07
507.672	21403.53
508.041	21449.18
508.409	21683.98
508.777	21789.06
509.145	22006.91
509.514	22080.8
509.882	22240.12
510.25	22374.81
510.618	22535.71
510.986	22494.13
511.354	22728.47
511.722	22795.59
512.09	23103.38
512.458	23093.66
512.826	23262.02
513.193	23309.02
513.561	23558.28
513.929	23601.22
514.297	23901.55
514.664	23938.38
515.032	24179.28
515.4	24388.77
515.767	24539.27
516.135	24610.23
516.502	24490.23
516.869	24893.61
517.237	25064.45
517.604	25032.36
517.972	25357.33
518.339	25363.66
518.706	25536.53
519.073	25674.61
519.44	25767.49
519.808	26070.53
520.175	26006.8
520.542	26420.35
520.909	26417.64
521.276	26531.99
521.643	26915.25
522.009	26981.01
522.376	27209.93
522.743	27313.43
523.11	27638.4
523.477	27846.3
523.843	27928.33
524.21	28243.81
524.577	28377.59
524.943	28521.54
525.31	28588.43
525.676	28893.73
526.043	29117.68
526.409	29245.59
526.776	29522.87
527.142	29535.3
527.508	29700.04
527.874	29976.19
528.241	30128.28
528.607	30167.37
528.973	30468.61
529.339	30468.61
529.705	30825.21
530.071	31036.5
530.437	31125.31
530.803	31282.6
531.169	31347.45
531.535	31286.66
531.901	31432.42
532.267	31616.82
532.632	31751.96
532.998	31714.45
533.364	31966.65
533.73	31959.64
534.095	32164.38
534.461	32198.28
534.826	32356.92
535.192	32356.01
535.557	32673.07
535.923	32611.83
536.288	32740.64
536.653	32728.89
537.019	32698.38
537.384	32864.02
537.749	32819.96
538.114	32876
538.479	32935.43
538.845	33038.48
539.21	33043.91
539.575	33009.1
539.94	33189.66
540.305	33195.77
540.67	33143.11
541.034	33238.25
541.399	33195.77
541.764	33363.67
542.129	33381.3
542.494	33328.42
542.858	33610.67
543.223	33495.87
543.587	33548.07
543.952	33580.39
544.316	33528.86
544.681	33468.07
545.045	33595.08
545.41	33671.69
545.774	33662.42
546.138	33669.88
546.503	33679.37
546.867	33729.31
547.231	33913.71
547.595	33879.59
547.959	33852.25
548.324	33859.25
548.688	33883.88
549.052	33958.01
549.416	33819.93
549.779	33898.57
550.143	33879.36
550.507	34017.66
550.871	33918.23
551.235	33886.14
551.599	34310.31
551.962	34167.04
552.326	34049.08
552.689	34256.98
553.053	34023.09
553.417	34036.42
553.78	34354.15
554.143	34316.41
554.507	34371.78
554.87	34432.8
555.234	34653.58
555.597	34315.28
555.96	34469.86
556.323	34475.96
556.686	34424.89
557.05	34703.52
557.413	34691.32
557.776	34621.94
558.139	34788.94
558.502	34763.86
558.865	34733.58
559.228	34981.03
559.59	35031.42
559.953	35081.59
560.316	35344.18
560.679	35068.71
561.041	35418.76
561.404	35365.65
561.767	35588.02
562.129	35452.88
562.492	35674.34
562.854	35558.64
563.217	35673.44
563.579	35668.92
563.941	35837.05
564.304	35967.22
564.666	36235.46
565.028	36107.78
565.39	36257.15
565.753	36320.2
566.115	36226.65
566.477	36467.32
566.839	36514.1
567.201	36704.37
567.563	36666.41
567.925	36807.42
568.287	36819.85
568.648	36827.53
569.01	37029.79
569.372	37278.6
569.734	37027.98
570.095	37424.58
570.457	37460.96
570.819	37321.31
571.18	37468.2
571.542	37704.12
571.903	37662.09
572.265	37758.81
572.626	37923.55
572.987	37763.33
573.349	37934.85
573.71	37864.34
574.071	38127.16
574.432	38203.54
574.794	38349.98
575.155	38359.92
575.516	38226.82
575.877	38336.87
576.238	38256.2
576.599	38449.19
576.96	38607.15
577.32	38509.52
577.681	38728.5
578.042	38626.81
578.403	38664.77
578.763	38761.72
579.124	38629.52
579.485	38772.57
579.845	38986.35
580.206	38666.81
580.566	38700.48
580.927	38768.95
581.287	38773.25
581.648	38624.32
582.008	38805.56
582.368	38903.86
582.728	38845.56
583.089	38808.27
583.449	38860.48
583.809	38709.29
584.169	38835.17
584.529	38708.39
584.889	39025.67
585.249	38699.12
585.609	38504.55
585.969	38850.08
586.329	38645.34
586.688	38575.29
587.048	38568.28
587.408	38635.4
587.768	38500.48
588.127	38567.15
588.487	38446.93
588.846	38726.47
589.206	38378.68
589.565	38386.36
589.925	38730.08
590.284	38585
590.643	38585.68
591.003	38554.27
591.362	38667.26
591.721	38533.25
592.08	38695.96
592.44	38601.05
592.799	38454.84
593.158	38525.79
593.517	38397.89
593.876	38506.13
594.235	38435.85
594.593	38324.9
594.952	38376.87
595.311	38349.98
595.67	38429.75
596.029	38648.5
596.387	38589.97
596.746	38737.31
597.104	38356.31
597.463	38521.73
597.822	38541.61
598.18	38395.4
598.538	38387.04
598.897	38568.28
599.255	38262.3
599.613	38772.12
599.972	38463.2
600.33	38526.47
600.688	38542.74
601.046	38579.8
601.404	38830.19
601.762	38737.54
602.12	38876.52
602.478	38765.11
602.836	38843.98
603.194	38580.93
603.552	38797.88
603.91	38649.18
604.268	38820.93
604.625	38753.81
604.983	38905.22
605.341	38687.15
605.698	38892.79
606.056	39118.1
606.413	38851.21
606.771	39139.56
607.128	39193.12
607.485	38967.82
607.843	39045.33
608.2	39315.15
608.557	39390.18
608.914	39279.67
609.272	39341.14
609.629	39498.88
609.986	39443.96
610.343	39538.65
610.7	39882.37
611.057	39696.84
611.414	39649.61
611.771	39941.8
612.127	39948.13
612.484	40019.31
612.841	40165.75
613.198	39843.73
613.554	39825.42
613.911	40138.86
614.267	40122.59
614.624	40140.67
614.98	40119.88
615.337	40530.26
615.693	40338.4
616.05	40432.64
616.406	40631.73
616.762	40469.02
617.118	40474.9
617.475	40567.1
617.831	40817.03
618.187	40780.65
618.543	40817.03
618.899	41083.69
619.255	40975.67
619.611	40855.45
619.967	41115.11
620.323	41252.95
620.678	41021.32
621.034	41134.54
621.39	41050.02
621.746	41166.4
622.101	41619.5
622.457	41248.66
622.812	41363.23
623.168	41360.07
623.523	41287.53
623.879	41599.16
624.234	41231.49
624.589	41421.54
624.945	41448.88
625.3	41468.54
625.655	41545.83
626.01	41581.76
626.365	41488.88
626.72	41597.8
627.075	41409.11
627.43	41492.95
627.785	41423.12
628.14	41488.65
628.495	41477.58
628.85	41447.3
629.205	41514.64
629.559	41533.63
629.914	41239.85
630.269	41415.89
630.623	41142.45
630.978	41170.7
631.332	41469.9
631.687	41439.62
632.041	41214.76
632.396	41247.76
632.75	41154.65
633.104	41334.53
633.459	40923.47
633.813	41109.23
634.167	41020.19
634.521	41210.47
634.875	41044.15
635.229	40871.04
635.583	40943.13
635.937	40894.55
636.291	40852.97
636.645	40769.13
636.999	40737.04
637.352	40808.22
637.706	40411.4
638.06	40720.31
638.413	40597.38
638.767	40533.43
639.121	40613.2
639.474	40361.9
639.828	40320.32
640.181	40473.09
640.534	40545.85
640.888	40407.33
641.241	40165.75
641.594	40151.74
641.947	40345.63
642.301	40136.15
642.654	40226.54
643.007	40140.22
643.36	40355.13
643.713	40164.17
644.066	40345.86
644.419	40067.45
644.771	39650.96
645.124	39347.47
645.477	39400.57
645.83	39135.04
646.182	39120.81
646.535	38991.77
646.888	39140.47
647.24	39078.55
647.593	39378.43
647.945	39159
648.298	38999.91
648.65	38933.69
649.002	38672.68
649.355	38861.15
649.707	38745.22
650.059	38803.98
650.411	39257.75
650.763	39418.65
651.115	40007.11
651.467	39782.26
651.819	39786.78
652.171	39825.42
652.523	39754.92
652.875	39702.26
653.227	39662.71
653.578	39964.18
653.93	39769.83
654.282	39724.18
654.633	39731.64
654.985	39692.09
655.337	39744.52
655.688	39839.66
656.039	39841.92
656.391	39610.51
656.742	39692.77
657.094	39780.9
657.445	39789.94
657.796	39733.22
658.147	39667.23
658.498	39892.54
658.849	39892.09
659.2	39872.88
659.551	39577.74
659.902	40050.73
660.253	39670.85
660.604	39912.88
660.955	39874.91
661.306	39971.18
661.656	39863.39
662.007	39983.84
662.358	39938.41
662.708	40090.05
663.059	39946.32
663.409	39761.02
663.76	40201.91
664.11	40102.02
664.461	40169.59
664.811	40019.99
665.161	40044.4
665.511	40027.9
665.862	40111.52
666.212	40041.69
666.562	40189.71
666.912	40083.72
667.262	40014.8
667.612	40181.8
667.962	40160.1
668.312	40000.33
668.662	40353.09
669.011	40238.52
669.361	40128.69
669.711	40177.73
670.06	40147.67
670.41	39935.7
670.76	39948.13
671.109	40173.44
671.459	40006.21
671.808	39901.35
672.157	40078.3
672.507	39733.22
672.856	39900.45
673.205	39998.07
673.554	39980.45
673.904	39902.48
674.253	40217.05
674.602	39958.75
674.951	39463.85
675.3	39123.52
675.649	39908.36
675.998	39857.74
676.346	39872.2
676.695	39797.4
677.044	39655.26
677.393	39592.89
677.741	39784.52
678.09	39569.38
678.438	39525.99
678.787	39683.28
679.135	39488.48
679.484	39276.28
679.832	39493.23
680.181	39277.87
680.529	39403.96
680.877	39210.75
681.225	39071.77
681.573	39497.29
681.922	39093.69
682.27	39034.26
682.618	39037.19
682.966	38908.38
683.314	38958.55
683.661	38951.32
684.009	38728.95
684.357	38608.73
684.705	38510.88
685.053	38603.98
685.4	38481.73
685.748	38263.2
686.095	38274.95
686.443	38051.23
686.79	38107.73
687.138	38121.96
687.485	38029.31
687.832	37940.5
688.18	37888.3
688.527	37642.2
688.874	37580.74
689.221	37679.94
689.568	37191.14
689.915	37283.34
690.262	37226.39
690.609	37079.51
690.956	36948.66
691.303	36923.58
691.65	36743.24
691.997	36717.48
692.344	36531.5
692.69	36456.02
693.037	36435
693.383	36180.55
693.73	36243.37
694.077	35847.22
694.423	35911.17
694.769	35778.52
695.116	35600.9
695.462	35481.36
695.808	35340.34
696.155	35410.62
696.501	35038.88
696.847	35178.99
697.193	34826.91
697.539	34863.52
697.885	34482.74
698.231	34465.34
698.577	34343.53
698.923	34325.68
699.269	34076.65
699.614	33915.07
699.96	33810.21
700.306	33735.19
700.651	33588.52
700.997	33530.45
701.342	33374.52
701.688	33350.11
702.033	33127.07
702.379	33057.24
702.724	32930.91
703.069	32934.08
703.415	32508.1
703.76	32556.23
704.105	32569.34
704.45	32365.5
704.795	32207.99
705.14	32141.33
705.485	32159.63
705.83	31827.21
706.175	32035.34
706.52	31808.91
706.865	31740.44
707.209	31578.18
707.554	31407.56
707.899	31483.04
708.243	31357.85
708.588	31220.68
708.932	31209.83
709.277	31154.46
709.621	30999.44
709.966	30721.71
710.31	30819.1
710.654	30578.89
710.998	30707.7
711.342	30528.27
711.687	30448.72
712.031	30457.08
712.375	30363.52
712.719	30338.44
713.063	30243.75
713.407	30258.22
713.75	30057.54
714.094	30082.63
714.438	30000.37
714.782	29997.88
715.125	29837.21
715.469	30038.56
715.812	29728.51
716.156	29733.03
716.499	29728.06
716.843	29757.21
717.186	29648.97
717.53	29814.16
717.873	29759.92
718.216	29687.38
718.559	29672.69
718.902	29415.3
719.246	29411.91
719.589	29458.24
719.932	29399.93
720.275	29359.48
720.617	29450.78
720.96	29350.44
721.303	29389.99
721.646	29432.02
721.989	29286.04
722.331	29349.54
722.674	29201.29
723.016	29177.57
723.359	29166.04
723.701	29234.51
724.044	29138.02
724.386	29119.26
724.729	29241.97
725.071	29114.74
725.413	29135.31
725.755	29097.79
726.097	29044.91
726.439	29069.09
726.782	28903.22
727.124	29140.05
727.465	29189.09
727.807	29025.93
728.149	29055.54
728.491	29060.06
728.833	29159.49
729.175	29106.61
729.516	29061.41
729.858	29080.39
730.199	29173.95
730.541	29046.27
730.882	29156.55
731.224	29206.49
731.565	29128.75
731.906	29182.09
732.248	29162.2
732.589	29095.76
732.93	29206.94
733.271	29154.29
733.612	29215.08
733.953	29309.99
734.294	29352.48
734.635	29234.51
734.976	29498.91
735.317	29336.21
735.658	29359.93
735.999	29314.06
736.339	29381.85
736.68	29605.35
737.021	29496.43
737.361	29453.04
737.702	29732.81
738.042	29578.91
738.383	29584.34
738.723	29743.2
739.063	29754.73
739.404	29831.56
739.744	29886.02
740.084	29787.04
740.424	30106.13
740.764	29937.77
741.104	30166.24
741.444	29948.85
741.784	30085.11
742.124	30273.36
742.464	30257.09
742.804	30423.86
743.143	30425.89
743.483	30545.44
743.823	30416.18
744.162	30620.92
744.502	30868.37
744.841	30807.35
745.181	31140.68
745.52	30919.44
745.86	31208.25
746.199	31349.49
746.538	31233.78
746.877	31507.22
747.216	31585.86
747.556	31595.58
747.895	31741.11
748.234	31905.18
748.573	32000.32
748.911	31915.8
749.25	32220.88
749.589	32196.92
749.928	32487.54
750.267	32578.15
750.605	32700.19
750.944	32793.97
751.283	32883.46
751.621	33197.35
751.96	33106.5
752.298	33208.19
752.636	33288.87
752.975	33551.91
753.313	33586.72
