Data from 635_FLMS001491_005.txt Node
Date: Thu Apr 19 16:46:24 BST 2018
User: hsy
Spectrometer: FLMS00149
Trigger mode: 0
Integration Time (sec): 1.000000E-2
Scans to average: 10
Electric dark correction enabled: true
Nonlinearity correction enabled: false
Boxcar width: 0
XAxis mode: Wavelengths
Number of Pixels in Spectrum: 2048
>>>>>Begin Spectral Data<<<<<
341.393	-26.3
341.776	-26.3
342.16	-26.3
342.543	-64.04
342.927	-70.14
343.31	-66.98
343.693	-59.52
344.077	-84.15
344.46	-35.11
344.843	-51.38
345.226	-50.03
345.61	-18.39
345.993	-19.29
346.376	-11.38
346.759	12.57
347.142	16.86
347.525	36.52
347.908	60.93
348.291	73.81
348.674	90.08
349.057	105.45
349.44	149.06
349.823	134.37
350.206	166.46
350.588	228.61
350.971	227.71
351.354	243.3
351.737	257.08
352.119	266.35
352.502	289.85
352.884	310.87
353.267	325.1
353.65	310.42
354.032	350.41
354.414	359
354.797	361.49
355.179	344.31
355.562	359.91
355.944	372.56
356.326	357.65
356.709	376.18
357.091	387.7
357.473	354.71
357.855	369.17
358.238	362.62
358.62	377.08
359.002	390.19
359.384	392.67
359.766	373.46
360.148	376.18
360.53	383.18
360.912	370.75
361.294	371.66
361.676	378.89
362.057	384.09
362.439	377.31
362.821	379.34
363.203	390.64
363.584	358.78
363.966	369.4
364.348	362.39
364.729	377.76
365.111	360.81
365.493	389.96
365.874	382.73
366.256	359.23
366.637	360.13
367.019	348.38
367.4	347.93
367.781	375.05
368.163	361.26
368.544	369.4
368.925	362.62
369.306	371.66
369.688	362.17
370.069	384.09
370.45	380.02
370.831	360.58
371.212	384.76
371.593	371.43
371.974	374.37
372.355	371.2
372.736	376.4
373.117	359.45
373.498	371.66
373.879	381.15
374.26	367.59
374.641	365.1
375.021	378.89
375.402	384.76
375.783	370.3
376.163	387.48
376.544	394.93
376.925	394.93
377.305	384.09
377.686	383.41
378.066	404.65
378.447	398.1
378.827	404.88
379.208	418.44
379.588	397.19
379.968	424.99
380.349	410.3
380.729	406.91
381.109	415.95
381.489	443.97
381.87	439.45
382.25	438.77
382.63	420.92
383.01	416.63
383.39	431.32
383.77	437.19
384.15	417.53
384.53	439
384.91	453.24
385.29	438.77
385.67	457.76
386.049	463.18
386.429	469.51
386.809	470.19
387.189	454.14
387.568	446.91
387.948	458.89
388.328	492.56
388.707	477.87
389.087	459.11
389.466	460.24
389.846	508.83
390.225	490.98
390.605	498.89
390.984	489.62
391.363	511.99
391.743	512.9
392.122	511.77
392.501	505.44
392.881	495.5
393.26	526.46
393.639	520.35
394.018	545.44
394.397	542.05
394.776	530.75
395.155	541.82
395.534	554.7
395.913	566.91
396.292	575.04
396.671	577.75
397.05	567.13
397.429	598.77
397.808	583.4
398.186	572.1
398.565	586.57
398.944	608.71
399.323	603.29
399.701	610.07
400.08	603.97
400.458	621.59
400.837	632.22
401.215	633.57
401.594	670.18
401.972	634.7
402.351	640.35
402.729	666.56
403.107	689.84
403.486	686.22
403.864	705.21
404.242	692.1
404.62	723.06
404.999	710.18
405.377	734.81
405.755	740.23
406.133	699.56
406.511	765.77
406.889	781.14
407.267	797.41
407.645	806.9
408.023	821.36
408.401	841.93
408.779	849.61
409.156	815.04
409.534	867.24
409.912	869.04
410.29	895.71
410.667	922.6
411.045	922.6
411.422	932.55
411.8	959.89
412.178	1001.92
412.555	1017.06
412.933	1010.51
413.31	1022.04
413.687	1041.24
414.065	1062.26
414.442	1076.95
414.819	1100.45
415.197	1124.86
415.574	1137.96
415.951	1144.52
416.328	1164.86
416.705	1192.2
417.082	1180
417.46	1188.81
417.837	1234.01
418.214	1239.43
418.591	1240.56
418.967	1254.57
419.344	1291.18
419.721	1315.59
420.098	1300.22
420.475	1318.3
420.852	1335.7
421.228	1342.93
421.605	1363.04
421.982	1403.27
422.358	1397.84
422.735	1431.74
423.111	1473.55
423.488	1478.75
423.864	1480.33
424.241	1481.46
424.617	1528.46
424.994	1528.24
425.37	1549.25
425.746	1571.63
426.123	1608.46
426.499	1607.56
426.875	1634.22
427.251	1680.32
427.627	1685.75
428.003	1695.92
428.379	1744.28
428.756	1756.93
429.132	1786.08
429.507	1808.68
429.883	1783.15
430.259	1842.13
430.635	1902.69
431.011	1900.2
431.387	1904.05
431.763	1949.47
432.138	1978.17
432.514	2010.26
432.89	2035.79
433.265	2057.04
433.641	2109.46
434.016	2116.47
434.392	2156.24
434.767	2229.24
435.143	2198.73
435.518	2282.12
435.894	2307.88
436.269	2326.18
436.644	2344.26
437.02	2399.85
437.395	2388.55
437.77	2441.43
438.145	2516.23
438.52	2491.38
438.895	2516.69
439.271	2516.69
439.646	2604.37
440.021	2629.45
440.395	2646.63
440.77	2609.34
441.145	2689.34
441.52	2733.85
441.895	2720.75
442.27	2739.28
442.645	2742.44
443.019	2789.22
443.394	2824.47
443.769	2791.71
444.143	2817.69
444.518	2895.43
444.892	2880.29
445.267	2864.92
445.641	2934.3
446.016	2928.88
446.39	2948.99
446.764	3014.07
447.139	2988.76
447.513	3040.97
447.887	3057.69
448.262	3077.35
448.636	3062.43
449.01	3148.53
449.384	3176.33
449.758	3195.99
450.132	3256.33
450.506	3273.5
450.88	3284.57
451.254	3248.64
451.628	3302.43
452.002	3378.13
452.376	3429.66
452.75	3473.04
453.123	3456.77
453.497	3553.27
453.871	3569.31
454.244	3682.53
454.618	3677.33
454.992	3747.61
455.365	3753.04
455.739	3821.28
456.112	3849.31
456.486	3942.64
456.859	3982.64
457.232	4024.44
457.606	4059.7
457.979	4089.3
458.352	4181.95
458.725	4291.1
459.099	4286.13
459.472	4360.7
459.845	4455.62
460.218	4480.02
460.591	4522.73
460.964	4560.7
461.337	4628.27
461.71	4698.1
462.083	4768.38
462.456	4831.88
462.829	4830.97
463.201	4920.01
463.574	4961.37
463.947	5013.12
464.32	5138.99
464.692	5190.29
465.065	5247.46
465.438	5296.05
465.81	5384.41
466.183	5416.04
466.555	5512.09
466.928	5563.38
467.3	5589.37
467.672	5647.68
468.045	5824.62
468.417	5801.12
468.789	5846.54
469.161	5932.41
469.534	6062.35
469.906	6186.19
470.278	6197.27
470.65	6248.34
471.022	6416.7
471.394	6481.55
471.766	6553.87
472.138	6672.96
472.51	6779.85
472.882	6899.17
473.253	6891.49
473.625	6963.35
473.997	7216.45
474.369	7231.14
474.74	7297.12
475.112	7419.16
475.484	7631.35
475.855	7659.6
476.227	7840.39
476.598	8005.13
476.97	8141.85
477.341	8259.13
477.713	8348.4
478.084	8424.55
478.455	8742.96
478.827	8751.78
479.198	8975.27
479.569	9074.7
479.94	9377.07
480.311	9373.45
480.682	9650.96
481.053	9847.57
481.424	9971.63
481.795	10064.96
482.166	10259.31
482.537	10359.87
482.908	10541.56
483.279	10652.29
483.65	10953.75
484.021	11187.19
484.391	11290.24
484.762	11443.46
485.133	11497.69
485.503	11710.79
485.874	12002.31
486.244	12158.69
486.615	12415.86
486.985	12566.36
487.356	12804.1
487.726	12913.25
488.097	13223.07
488.467	13273.46
488.837	13615.6
489.207	13668.48
489.578	13924.52
489.948	14119.09
490.318	14347.79
490.688	14374
491.058	14712.75
491.428	14914.78
491.798	15062.8
492.168	15411.94
492.538	15431.83
492.908	15694.87
493.278	15905.71
493.648	16018.48
494.017	16230.9
494.387	16402.65
494.757	16578.69
495.126	16700.27
495.496	16852.58
495.866	16980.71
496.235	17224.55
496.605	17349.52
496.974	17579.79
497.344	17739.11
497.713	17838.09
498.082	17932.78
498.452	18056.16
498.821	18356.95
499.19	18341.13
499.559	18502.93
499.928	18650.5
500.298	18749.93
500.667	19089.36
501.036	19010.49
501.405	19241.44
501.774	19331.16
502.143	19550.81
502.512	19660.42
502.88	19837.13
503.249	19752.62
503.618	20029.22
503.987	20063.12
504.356	20204.36
504.724	20341.08
505.093	20556.21
505.462	20524.57
505.83	20670.33
506.199	20892.7
506.567	21134.73
506.936	21125.01
507.304	21463.76
507.672	21574.04
508.041	21679.35
508.409	21828.95
508.777	22059.9
509.145	22179.22
509.514	22221.25
509.882	22361.14
510.25	22531.3
510.618	22677.51
510.986	22746.44
511.354	22892.87
511.722	23162.02
512.09	23323.82
512.458	23244.5
512.826	23503.7
513.193	23684.04
513.561	23846.97
513.929	23931.04
514.297	24178.71
514.664	24317.24
515.032	24442.89
515.4	24652.37
515.767	24720.4
516.135	24910.45
516.502	24822.54
516.869	25161.51
517.237	25279.48
517.604	25136.66
517.972	25619.13
518.339	25757.2
518.706	25750.65
519.073	26013.69
519.44	26187.93
519.808	26321.26
520.175	26403.74
520.542	26793.56
520.909	26830.62
521.276	26962.6
521.643	27120.33
522.009	27342.02
522.376	27430.61
522.743	27585.18
523.11	27978.39
523.477	28163.02
523.843	28367.3
524.21	28546.51
524.577	28818.59
524.943	28972.94
525.31	29074.41
525.676	29282.08
526.043	29510.1
526.409	29552.81
526.776	29937.21
527.142	29808.62
527.508	30011.1
527.874	30290.64
528.241	30502.84
528.607	30646.57
528.973	30936.73
529.339	30860.12
529.705	31099.89
530.071	31324.74
530.437	31404.29
530.803	31642.93
531.169	31800.89
531.535	31846.76
531.901	31901.45
532.267	32057.6
532.632	32300.99
532.998	32348.22
533.364	32458.95
533.73	32484.03
534.095	32794.08
534.461	32694.2
534.826	32932.38
535.192	32891.71
535.557	33041.08
535.923	33054.64
536.288	33219.15
536.653	33251.24
537.019	33285.82
537.384	33290.79
537.749	33410.34
538.114	33528.07
538.479	33437.45
538.845	33469.77
539.21	33462.54
539.575	33502.09
539.94	33702.76
540.305	33737.56
540.67	33785.92
541.034	33739.14
541.399	33818.91
541.764	33937.78
542.129	33896.88
542.494	33968.74
542.858	33981.17
543.223	33916.99
543.587	33975.07
543.952	33969.64
544.316	34035.18
544.681	33951.34
545.045	34281.5
545.41	34268.84
545.774	34103.2
546.138	34161.95
546.503	34097.55
546.867	34302.29
547.231	34416.41
547.595	34569.63
547.959	34475.39
548.324	34440.14
548.688	34428.61
549.052	34482.62
549.416	34455.28
549.779	34476.07
550.143	34435.39
550.507	34611.89
550.871	34639.68
551.235	34464.09
551.599	34790.19
551.962	34700.92
552.326	34599.23
552.689	34770.98
553.053	34573.7
553.417	34727.36
553.78	34976.85
554.143	34859.11
554.507	34992.22
554.87	34973.46
555.234	35117.41
555.597	34968.49
555.96	35129.61
556.323	35195.83
556.686	35103.4
557.05	35318.99
557.413	35258.65
557.776	35342.49
558.139	35443.05
558.502	35472.43
558.865	35517.4
559.228	35610.73
559.59	35703.38
559.953	35588.13
560.316	36007.78
560.679	35788.35
561.041	36018.86
561.404	36098.4
561.767	36348.34
562.129	36133.65
562.492	36373.42
562.854	36316.7
563.217	36295.46
563.579	36486.19
563.941	36524.15
564.304	36767.31
564.666	36953.52
565.028	36811.38
565.39	36787.87
565.753	37016.57
566.115	37134.76
566.477	37122.78
566.839	37242.55
567.201	37457.69
567.563	37403.45
567.925	37557.35
568.287	37531.13
568.648	37575.2
569.01	37728.41
569.372	37980.84
569.734	37963.44
570.095	38084.11
570.457	38146.26
570.819	38260.83
571.18	38146.03
571.542	38424.22
571.903	38350.77
572.265	38563.65
572.626	38639.13
572.987	38493.37
573.349	38713.02
573.71	38764.09
574.071	38823.3
574.432	39000.7
574.794	39244.76
575.155	39173.12
575.516	39100.13
575.877	39130.19
576.238	39260.35
576.599	39319.79
576.96	39364.3
577.32	39296.74
577.681	39477.97
578.042	39529.95
578.403	39458.54
578.763	39360.91
579.124	39464.41
579.485	39609.04
579.845	39733.79
580.206	39578.76
580.566	39641.36
580.927	39513
581.287	39704.63
581.648	39512.1
582.008	39755.03
582.368	39712.77
582.728	39736.27
583.089	39665.54
583.449	39588.25
583.809	39581.7
584.169	39729.27
584.529	39465.77
584.889	39969.26
585.249	39427.13
585.609	39404.3
585.969	39629.16
586.329	39500.57
586.688	39493.34
587.048	39540.8
587.408	39446.34
587.768	39364.08
588.127	39471.65
588.487	39389.61
588.846	39632.32
589.206	39214.7
589.565	39224.42
589.925	39411.31
590.284	39239.34
590.643	39217.19
591.003	39192.33
591.362	39453.79
591.721	39250.63
592.08	39271.43
592.44	39440.46
592.799	39289.73
593.158	39378.31
593.517	39106.91
593.876	39272.1
594.235	39136.51
594.593	39199.11
594.952	39337.19
595.311	39136.29
595.67	39238.88
596.029	39276.85
596.387	39373.8
596.746	39357.98
597.104	39038.44
597.463	39259.9
597.822	39333.8
598.18	39194.82
598.538	39311.2
598.897	39492.21
599.255	39088.15
599.613	39633.9
599.972	39281.82
600.33	39319.11
600.688	39254.93
601.046	39264.87
601.404	39512.77
601.762	39626.22
602.12	39554.36
602.478	39598.65
602.836	39535.37
603.194	39509.38
603.552	39436.39
603.91	39458.76
604.268	39663.51
604.625	39454.7
604.983	39704.18
605.341	39506
605.698	39761.58
606.056	40020.78
606.413	39752.09
606.771	39963.16
607.128	40014.91
607.485	39838.64
607.843	39910.73
608.2	40058.3
608.557	40182.81
608.914	40111.4
609.272	40233.89
609.629	40292.64
609.986	40505.52
610.343	40324.96
610.7	40641.33
611.057	40531.28
611.414	40380.1
611.771	40686.3
612.127	40821.67
612.484	40759.52
612.841	40889.46
613.198	40863.93
613.554	40723.14
613.911	41021.21
614.267	41101.66
614.624	40947.77
614.98	41095.11
615.337	41418.94
615.693	41335.55
616.05	41293.07
616.406	41501.2
616.762	41343.69
617.118	41416.68
617.475	41451.71
617.831	41617.58
618.187	41756.11
618.543	41680.63
618.899	41783
619.255	41792.04
619.611	41940.06
619.967	42045.82
620.323	41961.75
620.678	41954.97
621.034	41930.56
621.39	41871.81
621.746	42000.17
622.101	42509.76
622.457	41874.29
622.812	42245.13
623.168	42356.09
623.523	42207.39
623.879	42354.73
624.234	42219.6
624.589	42383.21
624.945	42424.56
625.3	42263.21
625.655	42275.64
626.01	42452.81
626.365	42443.09
626.72	42291.01
627.075	42255.98
627.43	42399.48
627.785	42397.9
628.14	42379.82
628.495	42417.56
628.85	42366.03
629.205	42230.9
629.559	42478.57
629.914	42211.69
630.269	42336.88
630.623	42126.04
630.978	41990
631.332	42206.04
631.687	42229.77
632.041	42153.16
632.396	42105.25
632.75	42133.95
633.104	42188.64
633.459	41844.92
633.813	41902.54
634.167	41848.08
634.521	41859.38
634.875	42033.16
635.229	41774.64
635.583	41689.21
635.937	41688.08
636.291	41646.5
636.645	41786.84
636.999	41535.55
637.352	41588.65
637.706	41361.54
638.06	41728.54
638.413	41359.05
638.767	41509.78
639.121	41463.23
639.474	41249.9
639.828	41365.38
640.181	41224.82
640.534	41406.51
640.888	41037.93
641.241	40932.4
641.594	41063.92
641.947	41128.33
642.301	40938.73
642.654	41067.54
643.007	40934.88
643.36	41124.26
643.713	40907.31
644.066	41173.97
644.419	40908.44
644.771	40390.72
645.124	40121.57
645.477	40129.26
645.83	39941.69
646.182	40097.62
646.535	39834.57
646.888	39970.62
647.24	39793.67
647.593	39913.89
647.945	39836.16
648.298	39747.12
648.65	39603.85
649.002	39541.7
649.355	39622.6
649.707	39581.93
650.059	39551.64
650.411	40035.7
650.763	40208.35
651.115	40617.15
651.467	40566.53
651.819	40472.75
652.171	40524.5
652.523	40447.89
652.875	40445.41
653.227	40461
653.578	40673.65
653.93	40644.95
654.282	40292.87
654.633	40302.36
654.985	40498.74
655.337	40665.51
655.688	40515.46
656.039	40721.33
656.391	40320.89
656.742	40501.45
657.094	40614.89
657.445	40520.43
657.796	40628.68
658.147	40490.83
658.498	40600.66
658.849	40721.56
659.2	40665.51
659.551	40660.77
659.902	40803.14
660.253	40685.85
660.604	40789.35
660.955	40679.07
661.306	40906.41
661.656	40705.29
662.007	40843.81
662.358	40882
662.708	40844.49
663.059	40905.96
663.409	40768.11
663.76	41006.75
664.11	40934.88
664.461	41112.28
664.811	41071.83
665.161	40980.53
665.511	40926.3
665.862	40809.69
666.212	41112.96
666.562	41160.87
666.912	41032.96
667.262	40932.85
667.612	41060.98
667.962	40968.1
668.312	40977.82
668.662	41236.35
669.011	41120.87
669.361	41093.3
669.711	41037.03
670.06	40929.23
670.41	40917.94
670.76	40847.65
671.109	40980.76
671.459	41037.25
671.808	40902.57
672.157	40917.71
672.507	40823.02
672.856	40741.22
673.205	40721.56
673.554	40961.32
673.904	40760.2
674.253	41116.8
674.602	40694.21
674.951	40152.08
675.3	39944.4
675.649	40670.48
675.998	40759.07
676.346	40640.88
676.695	40807.66
677.044	40504.16
677.393	40575.35
677.741	40573.54
678.09	40564.05
678.438	40498.96
678.787	40498.96
679.135	40398.63
679.484	40081.57
679.832	40308.46
680.181	40212.42
680.529	40258.97
680.877	39977.4
681.225	39913.22
681.573	40291.51
681.922	40000.22
682.27	39882.03
682.618	39952.31
682.966	39786.67
683.314	39716.84
683.661	39683.17
684.009	39466.22
684.357	39527.92
684.705	39381.25
685.053	39386.22
685.4	39130.41
685.748	38949.4
686.095	39026.91
686.443	38869.18
686.79	38840.25
687.138	38818.78
687.485	38703.98
687.832	38510.77
688.18	38652.46
688.527	38476.64
688.874	38369.3
689.221	38351.68
689.568	38198.23
689.915	38010.89
690.262	38063.1
690.609	37926.15
690.956	37761.63
691.303	37673.05
691.65	37561.64
691.997	37420.63
692.344	37218.15
692.69	37078.94
693.037	37127.98
693.383	36788.55
693.73	36917.59
694.077	36704.26
694.423	36603.7
694.769	36439.18
695.116	36412.97
695.462	36230.6
695.808	36071.51
696.155	36082.36
696.501	35843.27
696.847	35822.7
697.193	35596.95
697.539	35525.53
697.885	35299.78
698.231	35218.2
698.577	35196.73
698.923	35163.96
699.269	34651.66
699.614	34536.86
699.96	34579.35
700.306	34581.38
700.651	34351.1
700.997	34182.07
701.342	34072.47
701.688	34039.7
702.033	33859.59
702.379	33707.5
702.724	33693.04
703.069	33639.26
703.415	33301.64
703.76	33233.39
704.105	33257.57
704.45	33000.18
704.795	32933.96
705.14	32858.49
705.485	32829.11
705.83	32576.01
706.175	32571.26
706.52	32596.57
706.865	32271.16
707.209	32342.34
707.554	32238.62
707.899	32132.4
708.243	31927.89
708.588	31918.4
708.932	31785.07
709.277	31914.78
709.621	31640.21
709.966	31476.15
710.31	31531.97
710.654	31284.52
710.998	31402.71
711.342	31331.29
711.687	31221.24
712.031	31237.74
712.375	31195.93
712.719	30877.97
713.063	30958.65
713.407	31047.01
713.75	30866.45
714.094	30878.2
714.438	30691.54
714.782	30677.07
715.125	30626.68
715.469	30729.73
715.812	30398.89
716.156	30434.37
716.499	30452
716.843	30378.1
717.186	30258.55
717.53	30413.58
717.873	30349.17
718.216	30353.24
718.559	30330.87
718.902	30012.01
719.246	30170.65
719.589	30177.43
719.932	29975.17
720.275	30090.42
720.617	30144.66
720.96	29993.25
721.303	29977.88
721.646	30040.48
721.989	29868.51
722.331	29949.64
722.674	29875.74
723.016	29871.22
723.359	29810.66
723.701	29890.2
724.044	29741.51
724.386	29706.03
724.729	29872.35
725.071	29922.52
725.413	29842.52
725.755	29863.99
726.097	29598.46
726.439	29673.94
726.782	29602.98
727.124	29791.67
727.465	29824.22
727.807	29634.84
728.149	29680.49
728.491	29612.92
728.833	29839.81
729.175	29680.04
729.516	29717.78
729.858	29739.25
730.199	29838.23
730.541	29856.08
730.882	29661.96
731.224	29820.37
731.565	29792.8
731.906	29829.64
732.248	29876.19
732.589	29712.58
732.93	29680.72
733.271	29757.78
733.612	29788.28
733.953	29960.48
734.294	29891.11
734.635	29929.52
734.976	30137.88
735.317	29913.7
735.658	29979.01
735.999	30029.41
736.339	29992.8
736.68	30033.25
737.021	30126.35
737.361	30152.79
737.702	30318.89
738.042	30228.5
738.383	30327.03
738.723	30478.66
739.063	30419.68
739.404	30463.07
739.744	30510.75
740.084	30516.63
740.424	30616.06
740.764	30634.82
741.104	30711.88
741.444	30635.72
741.784	30735.6
742.124	31027.8
742.464	30951.87
742.804	30943.96
743.143	30884.98
743.483	31246.33
743.823	31150.96
744.162	31244.52
744.502	31393.89
744.841	31335.81
745.181	31745.75
745.52	31712.75
745.86	31965.18
746.199	31808.8
746.538	31951.84
746.877	32142.57
747.216	32276.81
747.556	32405.84
747.895	32406.75
748.234	32582.56
748.573	32705.72
748.911	32772.84
749.25	32928.99
749.589	32872.95
749.928	33063
750.267	33215.54
750.605	33330.79
750.944	33467.96
751.283	33552.71
751.621	33786.6
751.96	33719.25
752.298	33786.82
752.636	34019.13
752.975	34127.83
753.313	34157.21
753.651	34483.53
753.989	34540.25
