Data from 635_FLMS001491_003.txt Node
Date: Thu Apr 19 16:46:19 BST 2018
User: hsy
Spectrometer: FLMS00149
Trigger mode: 0
Integration Time (sec): 1.000000E-2
Scans to average: 10
Electric dark correction enabled: true
Nonlinearity correction enabled: false
Boxcar width: 0
XAxis mode: Wavelengths
Number of Pixels in Spectrum: 2048
>>>>>Begin Spectral Data<<<<<
341.393	-22.27
341.776	-22.27
342.16	-22.27
342.543	-51.65
342.927	-59.11
343.31	-69.5
343.693	-77.87
344.077	-74.48
344.46	-56.4
344.843	-57.3
345.226	-43.97
345.61	-17.08
345.993	-15.95
346.376	-18.43
346.759	7.1
347.142	13.66
347.525	39.19
347.908	69.48
348.291	91.4
348.674	93.88
349.057	116.25
349.44	118.51
349.823	148.12
350.206	164.16
350.588	216.36
350.971	263.82
351.354	247.32
351.737	283.26
352.119	285.97
352.502	275.57
352.884	306.76
353.267	319.19
353.65	295.23
354.032	356.47
354.414	350.37
354.797	340.43
355.179	351.73
355.562	353.54
355.944	365.29
356.326	355.12
356.709	370.48
357.091	359.19
357.473	369.35
357.855	362.8
358.238	368.68
358.62	372.29
359.002	382.91
359.384	376.36
359.766	382.69
360.148	364.61
360.53	364.16
360.912	368.9
361.294	380.88
361.676	357.6
362.057	358.96
362.439	365.51
362.821	370.03
363.203	361.9
363.584	366.64
363.966	370.48
364.348	368.22
364.729	350.82
365.111	360.32
365.493	375.23
365.874	344.95
366.256	358.28
366.637	346.53
367.019	363.48
367.4	371.61
367.781	352.41
368.163	352.41
368.544	372.52
368.925	356.02
369.306	356.25
369.688	373.65
370.069	360.32
370.45	359.19
370.831	354.67
371.212	353.54
371.593	375.23
371.974	355.34
372.355	360.99
372.736	360.09
373.117	370.03
373.498	377.49
373.879	361.67
374.26	374.1
374.641	367.09
375.021	388.79
375.402	398.51
375.783	375.23
376.163	392.18
376.544	382.46
376.925	377.26
377.305	389.92
377.686	408.68
378.066	385.17
378.447	387.43
378.827	396.92
379.208	393.53
379.588	400.77
379.968	391.5
380.349	409.58
380.729	405.51
381.109	409.13
381.489	415
381.87	412.74
382.25	408.22
382.63	427.43
383.01	429.24
383.39	437.83
383.77	426.08
384.15	430.14
384.53	421.33
384.91	429.01
385.29	430.37
385.67	439.18
386.049	450.03
386.429	434.44
386.809	443.48
387.189	456.36
387.568	457.04
387.948	478.28
388.328	442.35
388.707	473.76
389.087	466.98
389.466	468.11
389.846	495.23
390.225	471.72
390.605	476.24
390.984	495.91
391.363	498.16
391.743	495.91
392.122	497.49
392.501	495.68
392.881	494.1
393.26	539.75
393.639	513.53
394.018	518.05
394.397	535.68
394.776	543.59
395.155	512.18
395.534	540.42
395.913	545.85
396.292	531.38
396.671	546.75
397.05	565.28
397.429	562.57
397.808	564.38
398.186	560.08
398.565	601.21
398.944	578.39
399.323	608.44
399.701	587.65
400.08	606.64
400.458	605.28
400.837	631.04
401.215	633.53
401.594	644.15
401.972	625.62
402.351	627.65
402.729	638.05
403.107	636.47
403.486	654.32
403.864	673.08
404.242	667.43
404.62	677.14
404.999	695
405.377	699.06
405.755	690.48
406.133	712.62
406.511	723.7
406.889	759.85
407.267	767.31
407.645	783.13
408.023	790.81
408.401	792.85
408.779	793.98
409.156	824.71
409.534	851.6
409.912	860.87
410.29	865.39
410.667	869.45
411.045	891.83
411.422	902.9
411.8	946.29
412.178	962.33
412.555	986.74
412.933	974.99
413.31	1003.46
413.687	1013.18
414.065	1033.74
414.442	1055.66
414.819	1067.64
415.197	1068.55
415.574	1124.36
415.951	1104.25
416.328	1125.94
416.705	1150.8
417.082	1176.34
417.46	1173.63
417.837	1186.28
418.214	1200.75
418.591	1233.29
418.967	1238.03
419.344	1243.46
419.721	1316.45
420.098	1272.61
420.475	1301.08
420.852	1291.36
421.228	1332.49
421.605	1336.33
421.982	1353.74
422.358	1381.08
422.735	1381.31
423.111	1426.95
423.488	1456.11
423.864	1448.42
424.241	1496.33
424.617	1501.75
424.994	1531.36
425.37	1539.04
425.746	1537.23
426.123	1558.48
426.499	1586.27
426.875	1605.71
427.251	1657.91
427.627	1647.51
428.003	1647.74
428.379	1720.73
428.756	1736.55
429.132	1727.51
429.507	1765.02
429.883	1772.93
430.259	1805.48
430.635	1844.57
431.011	1835.98
431.387	1908.52
431.763	1917.11
432.138	1967.05
432.514	1995.98
432.89	1993.49
433.265	2044.34
433.641	2084.11
434.016	2081.4
434.392	2106.94
434.767	2190.78
435.143	2190.32
435.518	2215.41
435.894	2251.79
436.269	2247.5
436.644	2313.94
437.02	2356.87
437.395	2386.02
437.77	2418.34
438.145	2413.14
438.52	2436.64
438.895	2519.58
439.271	2510.32
439.646	2543.99
440.021	2569.07
440.395	2587.83
440.77	2558.22
441.145	2590.99
441.52	2665.11
441.895	2717.09
442.27	2715.51
442.645	2695.17
443.019	2776.75
443.394	2774.04
443.769	2795.73
444.143	2763.19
444.518	2819.91
444.892	2826.92
445.267	2857.42
445.641	2878.67
446.016	2870.31
446.39	2951.43
446.764	2921.83
447.139	2915.95
447.513	2980.59
447.887	2950.53
448.262	2985.33
448.636	3053.13
449.01	3063.52
449.384	3097.42
449.758	3131.54
450.132	3198.66
450.506	3187.81
450.88	3222.61
451.254	3226.91
451.628	3271.43
452.002	3330.63
452.376	3372.89
452.75	3411.53
453.123	3398.2
453.497	3452.21
453.871	3492.21
454.244	3610.17
454.618	3618.76
454.992	3673.22
455.365	3670.74
455.739	3741.02
456.112	3809.26
456.486	3865.31
456.859	3890.17
457.232	3949.15
457.606	3983.95
457.979	4076.83
458.352	4157.5
458.725	4147.11
459.099	4226.88
459.472	4239.08
459.845	4332.41
460.218	4392.07
460.591	4446.31
460.964	4505.52
461.337	4571.73
461.71	4633.2
462.083	4673.42
462.456	4756.36
462.829	4725.85
463.201	4884.94
463.574	4858.5
463.947	4950.48
464.32	5018.05
464.692	5113.64
465.065	5143.24
465.438	5212.17
465.81	5274.08
466.183	5292.84
466.555	5393.63
466.928	5439.28
467.3	5426.17
467.672	5537.58
468.045	5650.8
468.417	5750.91
468.789	5775.77
469.161	5848.31
469.534	5875.2
469.906	6022.54
470.278	6115.64
470.65	6139.6
471.022	6294.4
471.394	6340.95
471.766	6400.61
472.138	6494.17
472.51	6629.53
472.882	6740.26
473.253	6762.41
473.625	6898.9
473.997	7002.17
474.369	7100.25
474.74	7185.9
475.112	7333.24
475.484	7468.6
475.855	7521.26
476.227	7653
476.598	7891.87
476.97	7883.51
477.341	8109.04
477.713	8250.05
478.084	8248.7
478.455	8528.24
478.827	8622.47
479.198	8807.55
479.569	8897.94
479.94	9047.54
480.311	9163.02
480.682	9357.59
481.053	9588.1
481.424	9794.64
481.795	9864.47
482.166	10008.42
482.537	10149.89
482.908	10357.11
483.279	10489.31
483.65	10774.28
484.021	10942.41
484.391	11042.97
484.762	11192.12
485.133	11351.66
485.503	11441.83
485.874	11792.78
486.244	11855.83
486.615	12175.6
486.985	12271.64
487.356	12575.14
487.726	12570.39
488.097	12951.17
488.467	13084.5
488.837	13276.81
489.207	13399.29
489.578	13727.2
489.948	13871.82
490.318	14048.77
490.688	14136.9
491.058	14371.92
491.428	14588.87
491.798	14773.5
492.168	15085.13
492.538	15104.11
492.908	15311.79
493.278	15497.54
493.648	15666.58
494.017	15936.18
494.387	16079.68
494.757	16237.41
495.126	16386.11
495.496	16524.86
495.866	16676.27
496.235	16922.59
496.605	17058.86
496.974	17135.69
497.344	17321.68
497.713	17446.19
498.082	17604.16
498.452	17773.87
498.821	17888.44
499.19	17990.13
499.559	18253.4
499.928	18386.06
500.298	18511.48
500.667	18712.6
501.036	18704.01
501.405	18913.5
501.774	19010.67
502.143	19206.37
502.512	19336.31
502.88	19476.42
503.249	19367.27
503.618	19651.33
503.987	19781.5
504.356	19910.76
504.724	20054.71
505.093	20218.32
505.462	20260.13
505.83	20382.61
506.199	20589.84
506.567	20779.21
506.936	20898.08
507.304	21027.12
507.672	21161.8
508.041	21225.53
508.409	21416.48
508.777	21568.12
509.145	21873.42
509.514	21811.5
509.882	22093.08
510.25	22114.32
510.618	22326.29
510.986	22319.51
511.354	22564.25
511.722	22707.98
512.09	22910
512.458	22887.63
512.826	23191.81
513.193	23301.63
513.561	23377.79
513.929	23393.83
514.297	23696.88
514.664	23826.82
515.032	24030.2
515.4	24235.85
515.767	24288.73
516.135	24460.92
516.502	24269.74
516.869	24768.49
517.237	24766
517.604	24740.47
517.972	25252.32
518.339	25317.17
518.706	25392.65
519.073	25419.77
519.44	25577.73
519.808	25876.48
520.175	25884.16
520.542	26188.34
520.909	26158.51
521.276	26362.34
521.643	26699.51
522.009	26778.83
522.376	26958.94
522.743	27104.47
523.11	27426.04
523.477	27595.76
523.843	27680.5
524.21	27944.9
524.577	28140.15
524.943	28197.78
525.31	28426.7
525.676	28699.01
526.043	28871.2
526.409	28920.92
526.776	29225.32
527.142	29399.1
527.508	29457.4
527.874	29729.94
528.241	29808.13
528.607	29983.27
528.973	30208.34
529.339	30222.81
529.705	30405.85
530.071	30643.81
530.437	30851.94
530.803	30972.17
531.169	31001.09
531.535	31070.69
531.901	31190.24
532.267	31286.73
532.632	31507.52
532.998	31480.85
533.364	31621.64
533.73	31703.67
534.095	31934.4
534.461	31937.79
534.826	32073.38
535.192	32044.68
535.557	32259.82
535.923	32301.62
536.288	32380.04
536.653	32422.75
537.019	32462.97
537.384	32451.22
537.749	32624.1
538.114	32616.19
538.479	32551.33
538.845	32630.88
539.21	32578.23
539.575	32672.46
539.94	32770.31
540.305	32848.73
540.67	32734.61
541.034	32901.15
541.399	32855.51
541.764	33020.93
542.129	33032.45
542.494	33017.54
542.858	33058.89
543.223	32970.31
543.587	33055.5
543.952	33051.21
544.316	33161.03
544.681	33007.14
545.045	33219.79
545.41	33383.18
545.774	33196.06
546.138	33139.34
546.503	33189.73
546.867	33219.79
547.231	33411.42
547.595	33428.6
547.959	33414.81
548.324	33290.52
548.688	33346.11
549.052	33406.68
549.416	33322.39
549.779	33375.04
550.143	33347.47
550.507	33585.2
550.871	33605.77
551.235	33446.45
551.599	33596.73
551.962	33631.53
552.326	33704.75
552.689	33682.15
553.053	33433.12
553.417	33656.62
553.78	33940.22
554.143	33815.93
554.507	33763.5
554.87	33995.14
555.234	34160.78
555.597	33883.95
555.96	33973.89
556.323	34057.96
556.686	33898.87
557.05	34268.35
557.413	34003.72
557.776	34273.77
558.139	34417.95
558.502	34347.22
558.865	34242.81
559.228	34402.13
559.59	34512.64
559.953	34454.56
560.316	34598.06
560.679	34633.09
561.041	34920.99
561.404	34805.51
561.767	34940.88
562.129	34907.88
562.492	35217.7
562.854	35086.18
563.217	35160.53
563.579	35177.48
563.941	35264.48
564.304	35427.87
564.666	35591.25
565.028	35556.68
565.39	35731.81
565.753	35857.24
566.115	35763.45
566.477	35970.9
566.839	35940.85
567.201	36209.09
567.563	36084.35
567.925	36184.01
568.287	36414.06
568.648	36409.99
569.01	36691.34
569.372	36687.27
569.734	36543.54
570.095	36831.9
570.457	36845.01
570.819	36815.85
571.18	36917.77
571.542	37115.28
571.903	37061.27
572.265	37217.2
572.626	37360.92
572.987	37256.52
573.349	37387.59
573.71	37563.86
574.071	37684.53
574.432	37851.53
574.794	37792.33
575.155	37773.34
575.516	37697.41
575.877	37905.32
576.238	37908.25
576.599	37828.71
576.96	37923.17
577.32	37996.39
577.681	37959.33
578.042	38200.45
578.403	37984.86
578.763	38183.95
579.124	38162.03
579.485	38328.36
579.845	38347.79
580.206	38137.4
580.566	38141.02
580.927	38162.03
581.287	38140.34
581.648	38104.63
582.008	38219.88
582.368	38286.1
582.728	38171.75
583.089	38352.54
583.449	38211.3
583.809	38308.92
584.169	38349.37
584.529	37993.22
584.889	38405.87
585.249	38052.21
585.609	38053.56
585.969	38108.93
586.329	38008.14
586.688	38235.7
587.048	38158.87
587.408	37911.19
587.768	38006.78
588.127	37890.63
588.487	37828.26
588.846	38152.09
589.206	37751.42
589.565	37821.48
589.925	37977.18
590.284	37780.35
590.643	37907.35
591.003	37867.13
591.362	38220.11
591.721	37887.92
592.08	37966.78
592.44	38045.2
592.799	37937.18
593.158	37896.96
593.517	37734.7
593.876	37944.64
594.235	37693.57
594.593	37789.61
594.952	37788.03
595.311	37722.5
595.67	37724.3
596.029	38018.53
596.387	37874.81
596.746	37957.97
597.104	37703.29
597.463	37740.8
597.822	37949.61
598.18	37818.99
598.538	37772.89
598.897	38047.01
599.255	37745.77
599.613	38138.98
599.972	37933.56
600.33	37894.92
600.688	37844.75
601.046	37910.51
601.404	38180.11
601.762	38100.79
602.12	38119.1
602.478	38208.36
602.836	38153.22
603.194	37956.84
603.552	38018.99
603.91	38003.85
604.268	38092.43
604.625	38087.91
604.983	38338.07
605.341	38055.6
605.698	38298.3
606.056	38455.81
606.413	38241.58
606.771	38489.03
607.128	38421.91
607.485	38441.35
607.843	38338.3
608.2	38486.54
608.557	38647.9
608.914	38590.04
609.272	38805.63
609.629	38910.71
609.986	38893.54
610.343	38950.49
610.7	39163.59
611.057	38952.07
611.414	39021.67
611.771	39205.4
612.127	39185.28
612.484	39301.21
612.841	39333.3
613.198	39141.22
613.554	39200.88
613.911	39369.91
614.267	39398.38
614.624	39365.17
614.98	39489.91
615.337	39700.98
615.693	39613.52
616.05	39732.16
616.406	39800.41
616.762	39794.98
617.118	39867.75
617.475	39866.17
617.831	40012.15
618.187	40124.69
618.543	40173.05
618.899	40300.51
619.255	40220.06
619.611	40070.91
619.967	40397.91
620.323	40465.93
620.678	40278.14
621.034	40357.91
621.39	40315.65
621.746	40335.54
622.101	40885.13
622.457	40334.86
622.812	40597
623.168	40700.05
623.523	40592.48
623.879	40792.47
624.234	40589.54
624.589	40783.21
624.945	40714.73
625.3	40852.36
625.655	40823.43
626.01	40807.61
626.365	40775.3
626.72	40684.9
627.075	40628.41
627.43	40628.41
627.785	40691.46
628.14	40692.59
628.495	40625.02
628.85	40815.75
629.205	40662.53
629.559	40871.11
629.914	40715.41
630.269	40752.47
630.623	40531.46
630.978	40488.53
631.332	40651.01
631.687	40605.58
632.041	40507.51
632.396	40600.39
632.75	40362.2
633.104	40592.03
633.459	40314.75
633.813	40328.98
634.167	40295.99
634.521	40357
634.875	40304.58
635.229	40109.1
635.583	39969.67
635.937	40084.24
636.291	40092.15
636.645	39948.65
636.999	39773.52
637.352	40080.85
637.706	39811.26
638.06	39894.87
638.413	39826.85
638.767	39603.35
639.121	39651.49
639.474	39643.58
639.828	39604.71
640.181	39663.46
640.534	39635.21
640.888	39518.38
641.241	39418.05
641.594	39456.69
641.947	39660.75
642.301	39415.11
642.654	39530.13
643.007	39341.44
643.36	39422.11
643.713	39325.17
644.066	39456.24
644.419	39293.08
644.771	38813.54
645.124	38611.29
645.477	38601.8
645.83	38371.07
646.182	38290.84
646.535	38327.45
646.888	38439.31
647.24	38119.32
647.593	38584.17
647.945	38372.88
648.298	38159.55
648.65	38129.04
649.002	37997.07
649.355	38015.6
649.707	38035.03
650.059	37989.61
650.411	38408.58
650.763	38652.19
651.115	39054.89
651.467	38973.09
651.819	39002.69
652.171	38918.85
652.523	38866.65
652.875	38899.42
653.227	38597.5
653.578	39062.8
653.93	38997.72
654.282	38931.28
654.633	38803.37
654.985	39026.87
655.337	38919.98
655.688	38973.76
656.039	39091.27
656.391	38722.92
656.742	38834.78
657.094	39073.42
657.445	39018.96
657.796	39065.74
658.147	38885.86
658.498	39134.44
658.849	39165.85
659.2	39051.95
659.551	39017.38
659.902	39350.25
660.253	39100.09
660.604	39239.29
660.955	39096.25
661.306	39233.19
661.656	39141.67
662.007	39197.71
662.358	39317.26
662.708	39244.26
663.059	39175.79
663.409	39027.55
663.76	39352.28
664.11	39329.91
664.461	39429.57
664.811	39569.68
665.161	39384.15
665.511	39334.43
665.862	39400.87
666.212	39499.17
666.562	39506.4
666.912	39476.12
667.262	39352.96
667.612	39432.96
667.962	39467.08
668.312	39343.02
668.662	39520.64
669.011	39474.32
669.361	39416.24
669.711	39431.38
670.06	39477.7
670.41	39258.5
670.76	39223.02
671.109	39405.84
671.459	39199.29
671.808	39323.13
672.157	39293.08
672.507	39006.76
672.856	39075
673.205	39246.52
673.554	39223.93
673.904	39183.7
674.253	39260.54
674.602	39169.69
674.951	38577.62
675.3	38478.18
675.649	39058.73
675.998	39052.86
676.346	39046.53
676.695	39083.14
677.044	38789.36
677.393	38996.59
677.741	38874.1
678.09	38852.64
678.438	38666.43
678.787	38947.1
679.135	38789.81
679.484	38526.54
679.832	38689.7
680.181	38586.88
680.529	38505.53
680.877	38374.01
681.225	38402.25
681.573	38640.44
681.922	38444.96
682.27	38265.99
682.618	38367.23
682.966	38149.38
683.314	38164.52
683.661	38148.25
684.009	37977.41
684.357	37858.76
684.705	37784.19
685.053	37849.05
685.4	37664.65
685.748	37591.65
686.095	37485.21
686.443	37337.42
686.79	37207.93
687.138	37479.34
687.485	37185.11
687.832	37195.73
688.18	37049.07
688.527	36837.1
688.874	36882.74
689.221	36787.83
689.568	36537.22
689.915	36425.36
690.262	36453.38
690.609	36306.26
690.956	36212.93
691.303	36268.52
691.65	35908.76
691.997	35932.71
692.344	35743.34
692.69	35748.09
693.037	35805.71
693.383	35396.46
693.73	35368.43
694.077	35256.8
694.423	35128.89
694.769	34996.47
695.116	35048.89
695.462	34755.12
695.808	34648
696.155	34680.54
696.501	34423.6
696.847	34410.72
697.193	34125.76
697.539	34154.46
697.885	33842.6
698.231	33728.25
698.577	33699.78
698.923	33583.62
699.269	33313.12
699.614	33307.47
699.96	33114.93
700.306	33173.46
700.651	32850.99
700.997	32796.07
701.342	32601.5
701.688	32589.52
702.033	32512.01
702.379	32406.25
702.724	32326.71
703.069	32274.73
703.415	31858.92
703.76	31984.12
704.105	31820.73
704.45	31704.8
704.795	31508.42
705.14	31450.57
705.485	31529.44
705.83	31246.28
706.175	31349.11
706.52	31287.19
706.865	31042.45
707.209	30862.34
707.554	30804.49
707.899	30841.1
708.243	30613.76
708.588	30626.19
708.932	30372.18
709.277	30390.26
709.621	30277.72
709.966	30168.57
710.31	30157.95
710.654	29878.41
710.998	29982.81
711.342	30023.94
711.687	29753.89
712.031	29763.16
712.375	29768.36
712.719	29679.54
713.063	29661.92
713.407	29717.96
713.75	29527.91
714.094	29481.58
714.438	29441.36
714.782	29281.81
715.125	29212.21
715.469	29422.15
715.812	29262.38
716.156	29100.35
716.499	29144.64
716.843	29219.67
717.186	29029.62
717.53	29160.01
717.873	29000.69
718.216	29100.8
718.559	29047.24
718.902	28709.4
719.246	28828.27
719.589	28803.64
719.932	28740.59
720.275	28826.91
720.617	28730.42
720.96	28689.97
721.303	28687.25
721.646	28755.73
721.989	28667.59
722.331	28626.69
722.674	28513.47
723.016	28708.04
723.359	28529.29
723.701	28454.94
724.044	28561.83
724.386	28437.32
724.729	28462.18
725.071	28565.45
725.413	28352.35
725.755	28484.32
726.097	28393.93
726.439	28371.33
726.782	28386.02
727.124	28668.05
727.465	28392.8
727.807	28354.83
728.149	28419.92
728.491	28468.28
728.833	28444.77
729.175	28465.57
729.516	28433.25
729.858	28392.35
730.199	28500.82
730.541	28508.73
730.882	28403.87
731.224	28568.39
731.565	28482.06
731.906	28568.39
732.248	28523.87
732.589	28489.97
732.93	28558.22
733.271	28533.81
733.612	28605
733.953	28701.94
734.294	28746.91
734.635	28567.94
734.976	28891.99
735.317	28707.37
735.658	28861.94
735.999	28759.34
736.339	28838.44
736.68	28863.29
737.021	28886.12
737.361	28826.23
737.702	28999.34
738.042	29073.46
738.383	29034.82
738.723	29164.98
739.063	28915.72
739.404	29295.37
739.744	29356.62
740.084	29184.87
740.424	29265.77
740.764	29344.64
741.104	29432.55
741.444	29473.9
741.784	29521.58
742.124	29611.3
742.464	29703.27
742.804	29720.9
743.143	29744.85
743.483	29950.95
743.823	29957.96
744.162	30026.65
744.502	30190.04
744.841	30237.72
745.181	30437.04
745.52	30331.96
745.86	30556.13
746.199	30504.16
746.538	30795.45
746.877	30837.25
747.216	31057.14
747.556	30999.51
747.895	31252.61
748.234	31342.55
748.573	31443.57
748.911	31463.23
749.25	31637.69
749.589	31645.37
749.928	31906.6
750.267	32050.56
750.605	32109.54
750.944	32220.04
751.283	32363.99
751.621	32604.89
751.96	32672.46
752.298	32672.01
752.636	32945.45
752.975	32964.43
753.313	33021.15
