Data from 635_FLMS001491_006.txt Node
Date: Thu Apr 19 16:46:27 BST 2018
User: hsy
Spectrometer: FLMS00149
Trigger mode: 0
Integration Time (sec): 1.000000E-2
Scans to average: 10
Electric dark correction enabled: true
Nonlinearity correction enabled: false
Boxcar width: 0
XAxis mode: Wavelengths
Number of Pixels in Spectrum: 2048
>>>>>Begin Spectral Data<<<<<
341.393	-20.3
341.776	-20.3
342.16	-20.3
342.543	-65.04
342.927	-51.03
343.31	-74.53
343.693	-72.95
344.077	-65.04
344.46	-62.1
344.843	-57.58
345.226	-27.3
345.61	-21.65
345.993	-21.43
346.376	-16.68
346.759	-15.32
347.142	32.81
347.525	45.46
347.908	63.54
348.291	85.92
348.674	112.81
349.057	94.05
349.44	149.42
349.823	159.36
350.206	184.9
350.588	223.09
350.971	269.41
351.354	266.93
351.737	285.46
352.119	280.94
352.502	312.8
352.884	320.26
353.267	307.83
353.65	325.23
354.032	337.89
354.414	340.82
354.797	355.97
355.179	362.97
355.562	382.86
355.944	377.21
356.326	376.76
356.709	393.93
357.091	403.65
357.473	389.41
357.855	383.54
358.238	412.69
358.62	418.11
359.002	390.54
359.384	388.96
359.766	380.37
360.148	406.36
360.53	407.94
360.912	379.92
361.294	376.98
361.676	394.83
362.057	394.83
362.439	380.15
362.821	380.15
363.203	409.98
363.584	390.31
363.966	377.43
364.348	351.22
364.729	390.31
365.111	378.56
365.493	369.98
365.874	394.16
366.256	364.78
366.637	386.02
367.019	363.2
367.4	374.5
367.781	384.89
368.163	377.66
368.544	380.15
368.925	367.94
369.306	384.21
369.688	362.07
370.069	382.86
370.45	385.12
370.831	382.41
371.212	397.09
371.593	393.03
371.974	390.77
372.355	379.24
372.736	399.13
373.117	404.55
373.498	391.67
373.879	365
374.26	412.01
374.641	378.56
375.021	407.04
375.402	392.12
375.783	395.29
376.163	431.9
376.544	425.34
376.925	396.19
377.305	397.55
377.686	414.72
378.066	412.23
378.447	403.65
378.827	436.64
379.208	403.65
379.588	407.94
379.968	432.8
380.349	419.69
380.729	420.14
381.109	431.44
381.489	447.26
381.87	438.67
382.25	419.69
382.63	430.09
383.01	444.78
383.39	482.29
383.77	446.58
384.15	446.58
384.53	462.86
384.91	474.38
385.29	480.03
385.67	455.17
386.049	483.87
386.429	479.35
386.809	499.69
387.189	493.81
387.568	501.27
387.948	505.11
388.328	511.89
388.707	517.32
389.087	509.41
389.466	515.74
389.846	522.97
390.225	499.92
390.605	516.64
390.984	527.03
391.363	533.14
391.743	550.76
392.122	540.82
392.501	534.72
392.881	558.22
393.26	586.02
393.639	563.64
394.018	581.27
394.397	576.3
394.776	575.17
395.155	570.2
395.534	591.67
395.913	605.9
396.292	602.06
396.671	594.83
397.05	597.77
397.429	617.2
397.808	613.13
398.186	634.83
398.565	622.4
398.944	649.97
399.323	653.58
399.701	674.6
400.08	664.66
400.458	665.11
400.837	686.8
401.215	666.47
401.594	682.51
401.972	693.36
402.351	693.36
402.729	702.62
403.107	703.98
403.486	735.16
403.864	752.11
404.242	751.21
404.62	750.98
404.999	787.82
405.377	787.37
405.755	793.92
406.133	812.45
406.511	828.95
406.889	844.54
407.267	840.02
407.645	841.38
408.023	868.95
408.401	864.88
408.779	909.17
409.156	938.32
409.534	915.72
409.912	967.02
410.29	1004.54
410.667	1012.67
411.045	1038.43
411.422	1035.72
411.8	1020.35
412.178	1098.54
412.555	1072.33
412.933	1129.05
413.31	1118.66
413.687	1152.1
414.065	1185.1
414.442	1194.36
414.819	1226.22
415.197	1224.87
415.574	1263.74
415.951	1278.43
416.328	1269.16
416.705	1291.76
417.082	1278.65
417.46	1338.54
417.837	1350.74
418.214	1352.32
418.591	1411.76
418.967	1400.91
419.344	1399.33
419.721	1417.41
420.098	1430.51
420.475	1489.27
420.852	1464.41
421.228	1492.66
421.605	1513
421.982	1548.7
422.358	1576.05
422.735	1565.88
423.111	1582.83
423.488	1613.11
423.864	1635.03
424.241	1658.98
424.617	1652.88
424.994	1691.3
425.37	1724.52
425.746	1740.34
426.123	1779.66
426.499	1760.45
426.875	1795.7
427.251	1833.67
427.627	1877.96
428.003	1879.54
428.379	1910.27
428.756	1943.04
429.132	1997.73
429.507	1996.15
429.883	2013.77
430.259	2056.71
430.635	2086.54
431.011	2089.48
431.387	2124.05
431.763	2179.87
432.138	2175.35
432.514	2219.87
432.89	2286.08
433.265	2332.41
433.641	2329.02
434.016	2368.57
434.392	2402.92
434.767	2451.73
435.143	2439.53
435.518	2508.68
435.894	2518.39
436.269	2581.9
436.644	2605.85
437.02	2651.27
437.395	2618.05
437.77	2700.99
438.145	2767.2
438.52	2760.87
438.895	2834.77
439.271	2818.27
439.646	2854.66
440.021	2901.44
440.395	2902.11
440.77	2901.66
441.145	2934.65
441.52	3017.59
441.895	3023.47
442.27	3031.6
442.645	3006.97
443.019	3073.18
443.394	3075.22
443.769	3113.63
444.143	3133.75
444.518	3183.69
444.892	3143.01
445.267	3172.84
445.641	3208.09
446.016	3271.14
446.39	3253.97
446.764	3310.69
447.139	3289
447.513	3310.24
447.887	3361.99
448.262	3371.93
448.636	3459.61
449.01	3477.47
449.384	3465.94
449.758	3473.62
450.132	3558.59
450.506	3571.25
450.88	3612.38
451.254	3601.76
451.628	3676.1
452.002	3728.31
452.376	3768.53
452.75	3812.82
453.123	3868.87
453.497	3911.58
453.871	3938.92
454.244	4042.65
454.618	4071.12
454.992	4132.36
455.365	4173.27
455.739	4244.22
456.112	4269.08
456.486	4312.02
456.859	4391.57
457.232	4469.76
457.606	4505.69
457.979	4553.59
458.352	4638.79
458.725	4729.41
459.099	4693.25
459.472	4791.55
459.845	4924.66
460.218	4900.48
460.591	5025.9
460.964	5050.53
461.337	5124.43
461.71	5228.61
462.083	5295.72
462.456	5317.19
462.829	5348.15
463.201	5481.48
463.574	5472.44
463.947	5519.9
464.32	5625.43
464.692	5721.93
465.065	5775.71
465.438	5877.85
465.81	5945.87
466.183	5936.38
466.555	6103.84
466.928	6143.16
467.3	6078.07
467.672	6290.95
468.045	6362.36
468.417	6432.19
468.789	6488.69
469.161	6570.04
469.534	6716.93
469.906	6742.69
470.278	6843.48
470.65	6868.79
471.022	7063.13
471.394	7152.4
471.766	7219.97
472.138	7320.53
472.51	7509.68
472.882	7566.4
473.253	7701.99
473.625	7812.94
473.997	7940.85
474.369	7989.66
474.74	8093.84
475.112	8167.74
475.484	8409.09
475.855	8540.38
476.227	8648.4
476.598	8897.21
476.97	8881.84
477.341	9162.97
477.713	9244.55
478.084	9372.45
478.455	9574.48
478.827	9668.94
479.198	9950.97
479.569	10031.19
479.94	10246.1
480.311	10367.91
480.682	10639.54
481.053	10854.67
481.424	11037.04
481.795	11093.54
482.166	11309.35
482.537	11456.69
482.908	11713.86
483.279	11845.61
483.65	12114.53
484.021	12288.53
484.391	12548.64
484.762	12681.74
485.133	12752.02
485.503	12987.05
485.874	13316.08
486.244	13383.42
486.615	13676.29
486.985	13945.44
487.356	14151.99
487.726	14277.86
488.097	14618.87
488.467	14671.52
488.837	15001.23
489.207	15320.09
489.578	15399.19
489.948	15680.76
490.318	15903.8
490.688	15951.94
491.058	16243.46
491.428	16600.06
491.798	16705.37
492.168	17034.4
492.538	17108.97
492.908	17303.99
493.278	17602.07
493.648	17660.59
494.017	17911.21
494.387	18210.64
494.757	18254.93
495.126	18519.1
495.496	18652.43
495.866	18853.33
496.235	18965.42
496.605	19235.02
496.974	19308.69
497.344	19585.74
497.713	19689.47
498.082	19810.37
498.452	20067.54
498.821	20201.55
499.19	20316.8
499.559	20434.99
499.928	20642.66
500.298	20751.14
500.667	21020.96
501.036	21037
501.405	21147.96
501.774	21263.89
502.143	21455.98
502.512	21599.25
502.88	21818.23
503.249	21989.07
503.618	22102.29
503.987	22214.15
504.356	22296.63
504.724	22490.75
505.093	22562.39
505.462	22720.12
505.83	22824.53
506.199	23075.14
506.567	23343.16
506.936	23417.28
507.304	23714
507.672	23716.03
508.041	23977.27
508.409	24183.81
508.777	24242.34
509.145	24476.91
509.514	24535.44
509.882	24772.95
510.25	24789
510.618	25039.61
510.986	25115.09
511.354	25450.45
511.722	25573.16
512.09	25820.83
512.458	25678.69
512.826	25936.31
513.193	26095.85
513.561	26366.81
513.929	26383.3
514.297	26597.99
514.664	26847.47
515.032	26996.62
515.4	27134.02
515.767	27281.58
516.135	27453.78
516.502	27404.29
516.869	27913.66
517.237	27921.34
517.604	27903.04
517.972	28314.78
518.339	28510.25
518.706	28556.81
519.073	28619.85
519.44	28854.2
519.808	29117.24
520.175	29216.68
520.542	29639.04
520.909	29746.83
521.276	29777.11
521.643	30123.32
522.009	30190.43
522.376	30344.56
522.743	30584.32
523.11	30897.76
523.477	31129.17
523.843	31355.83
524.21	31708.81
524.577	31850.96
524.943	32044.17
525.31	32170.27
525.676	32535.01
526.043	32629.01
526.409	32820.42
526.776	33125.27
527.142	33168.44
527.508	33390.8
527.874	33605.94
528.241	33821.3
528.607	33919.38
528.973	34215.19
529.339	34231.46
529.705	34487.95
530.071	34689.53
530.437	34798
530.803	34973.13
531.169	35146.69
531.535	35102.4
531.901	35301.71
532.267	35409.96
532.632	35504.65
532.998	35710.29
533.364	35961.58
533.73	35946.44
534.095	36282.03
534.461	36199.54
534.826	36425.75
535.192	36532.64
535.557	36761.56
535.923	36670.04
536.288	36781.22
536.653	36858.06
537.019	36759.3
537.384	36847.21
537.749	36969.47
538.114	36986.41
538.479	37033.42
538.845	37000.43
539.21	37009.46
539.575	37122.46
539.94	37088.33
540.305	37283.81
540.67	37312.06
541.034	37458.94
541.399	37401.32
541.764	37398.16
542.129	37480.64
542.494	37552.73
542.858	37728.99
543.223	37655.78
543.587	37680.18
543.952	37691.93
544.316	37726.51
544.681	37673.85
545.045	37746.62
545.41	37905.94
545.774	37702.78
546.138	37912.49
546.503	37971.02
546.867	37853.74
547.231	38108.42
547.595	38024.81
547.959	37962.66
548.324	38113.39
548.688	38149.77
549.052	38141.86
549.416	38076.78
549.779	38227.96
550.143	38239.94
550.507	38449.2
550.871	38353.84
551.235	38353.61
551.599	38495.75
551.962	38484
552.326	38540.27
552.689	38626.82
553.053	38353.38
553.417	38529.2
553.78	38732.58
554.143	38666.14
554.507	38839.25
554.87	38815.74
555.234	39120.14
555.597	38825.24
555.96	39004.67
556.323	38906.14
556.686	38986.81
557.05	39177.09
557.413	39246.02
557.776	39027.72
558.139	39375.28
558.502	39239.24
558.865	39263.87
559.228	39597.42
559.59	39662.73
559.953	39582.73
560.316	39890.07
560.679	39878.32
561.041	39959.67
561.404	39956.28
561.767	40288.7
562.129	40115.15
562.492	40417.96
562.854	40365.99
563.217	40325.54
563.579	40497.06
563.941	40602.36
564.304	40769.82
564.666	40968.23
565.028	40887.78
565.39	41048.91
565.753	41145.85
566.115	41114.67
566.477	41335
566.839	41308.56
567.201	41715.33
567.563	41519.4
567.925	41795.78
568.287	41820.64
568.648	41828.1
569.01	41971.37
569.372	42061.54
569.734	42236.67
570.095	42212.72
570.457	42550.56
570.819	42492.94
571.18	42377.46
571.542	42790.78
571.903	42733.83
572.265	42695.42
572.626	42913.04
572.987	42864.68
573.349	43018.35
573.71	43031.68
574.071	43241.39
574.432	43239.13
574.794	43583.08
575.155	43395.96
575.516	43566.81
575.877	43527.03
576.238	43485.45
576.599	43628.27
576.96	43640.7
577.32	43531.1
577.681	43749.4
578.042	43958.66
578.403	43801.38
578.763	43864.65
579.124	43874.82
579.485	44002.28
579.845	44078.88
580.206	43916.85
580.566	44088.6
580.927	43958.89
581.287	44053.8
581.648	43958.89
582.008	44129.73
582.368	43975.16
582.728	44030.07
583.089	44036.85
583.449	43976.29
583.809	43969.51
584.169	44082.5
584.529	43952.33
584.889	44221.03
585.249	43848.83
585.609	43728.61
585.969	44108.94
586.329	43792.34
586.688	43890.87
587.048	43871.66
587.408	43822.84
587.768	43724.99
588.127	43822.62
588.487	43728.61
588.846	44047.47
589.206	43441.16
589.565	43490.42
589.925	43774.26
590.284	43518.45
590.643	43641.15
591.003	43643.41
591.362	43782.62
591.721	43554.6
592.08	43717.76
592.44	43823.52
592.799	43615.39
593.158	43469.63
593.517	43566.35
593.876	43630.99
594.235	43484.1
594.593	43592.12
594.952	43629.18
595.311	43417.88
595.67	43554.6
596.029	43708.95
596.387	43799.34
596.746	43841.38
597.104	43515.28
597.463	43474.15
597.822	43742.85
598.18	43433.02
598.538	43483.87
598.897	43824.2
599.255	43487.49
599.613	43855.39
599.972	43623.98
600.33	43795.73
600.688	43552.12
601.046	43808.16
601.404	43901.26
601.762	43784.88
602.12	43853.8
602.478	43817.65
602.836	43924.76
603.194	43656.52
603.552	43809.51
603.91	43775.39
604.268	43963.63
604.625	43792.11
604.983	44112.1
605.341	43700.36
605.698	44157.07
606.056	44209.05
606.413	44022.16
606.771	44216.28
607.128	44112.1
607.485	44130.86
607.843	44168.82
608.2	44326.56
608.557	44429.61
608.914	44240.46
609.272	44471.42
609.629	44524.97
609.986	44666.89
610.343	44573.79
610.7	44992.98
611.057	44817.17
611.414	44938.52
611.771	44997.96
612.127	45079.76
612.484	45086.99
612.841	45127.9
613.198	45055.35
613.554	45026.88
613.911	45308.46
614.267	45275.24
614.624	45369.7
614.98	45502.8
615.337	45745.05
615.693	45584.83
616.05	45511.84
616.406	45730.37
616.762	45580.99
617.118	45736.01
617.475	45664.38
617.831	46000.41
618.187	45962.45
618.543	46009.91
618.899	46277.92
619.255	46134.87
619.611	46088.32
619.967	46303.46
620.323	46432.95
620.678	46212.39
621.034	46248.32
621.39	46213.52
621.746	46360.63
622.101	46514.3
622.457	46315.89
622.812	46502.77
623.168	46589.78
623.523	46543.45
623.879	46613.96
624.234	46439.73
624.589	46537.8
624.945	46472.49
625.3	46636.56
625.655	46650.57
626.01	46664.58
626.365	46755.65
626.72	46580.96
627.075	46666.61
627.43	46596.56
627.785	46762.88
628.14	46618.25
628.495	46620.06
628.85	46630.23
629.205	46726.72
629.559	46735.08
629.914	46543.23
630.269	46607.4
630.623	46328.54
630.978	46277.7
631.332	46608.76
631.687	46404.7
632.041	46422.32
632.396	46376.45
632.75	46355.89
633.104	46390.91
633.459	46245.38
633.813	46237.47
634.167	46275.21
634.521	46288.54
634.875	46187.08
635.229	46129.9
635.583	45985.5
635.937	45859.18
636.291	45992.96
636.645	45900.98
636.999	45747.09
637.352	45942.11
637.706	45695.79
638.06	45856.01
638.413	45718.39
638.767	45679.07
639.121	45695.56
639.474	45529.01
639.828	45450.6
640.181	45672.51
640.534	45589.8
640.888	45390.71
641.241	45345.29
641.594	45341.68
641.947	45452.86
642.301	45314.78
642.654	45417.83
643.007	45207.22
643.36	45271.85
643.713	45229.81
644.066	45533.31
644.419	45182.13
644.771	44684.52
645.124	44348.03
645.477	44266
645.83	44162.5
646.182	44199.56
646.535	43964.99
646.888	44166.11
647.24	44097.87
647.593	44351.64
647.945	44163.4
648.298	44004.54
648.65	43818.33
649.002	43817.65
649.355	43710.53
649.707	43634.83
650.059	43804.31
650.411	44459.21
650.763	44443.39
651.115	44869.37
651.467	44669.6
651.819	44898.97
652.171	44841.12
652.523	44640
652.875	44753.89
653.227	44705.31
653.578	44969.26
653.93	44929.71
654.282	44620.34
654.633	44728.81
654.985	44824.17
655.337	44649.49
655.688	44727
656.039	44964.51
656.391	44595.48
656.742	44682.26
657.094	44794.57
657.445	44875.7
657.796	44887.22
658.147	44856.94
658.498	44857.17
658.849	44952.76
659.2	44941.01
659.551	44757.28
659.902	44997.5
660.253	44924.28
660.604	45108.91
660.955	44944.62
661.306	45006.99
661.656	44901.91
662.007	44927.22
662.358	45018.52
662.708	44988.92
663.059	45026.88
663.409	44729.71
663.76	45026.43
664.11	45078.86
664.461	45243.15
664.811	45259.42
665.161	45224.62
665.511	45022.36
665.862	45164.96
666.212	45240.43
666.562	45338.06
666.912	45226.42
667.262	45034.79
667.612	45210.61
667.962	45124.73
668.312	45003.15
668.662	45365.63
669.011	45261.23
669.361	45111.62
669.711	45160.21
670.06	44964.06
670.41	45003.83
670.76	45079.31
671.109	45045.64
671.459	45004.06
671.808	44962.48
672.157	45184.39
672.507	44970.84
672.856	44885.87
673.205	44917.96
673.554	45019.88
673.904	44821.46
674.253	45156.14
674.602	44938.52
674.951	44327.46
675.3	44138.54
675.649	44919.54
675.998	44804.74
676.346	44698.08
676.695	44985.98
677.044	44659.21
677.393	44651.3
677.741	44708.7
678.09	44581.7
678.438	44680.45
678.787	44591.64
679.135	44589.83
679.484	44376.95
679.832	44462.15
680.181	44399.1
680.529	44385.09
680.877	44136.06
681.225	44179.9
681.573	44460.12
681.922	44165.66
682.27	43983.52
682.618	44033.69
682.966	43892.9
683.314	43814.94
683.661	43964.99
684.009	43615.17
684.357	43386.92
684.705	43432.12
685.053	43608.16
685.4	43242.07
685.748	43105.58
686.095	43170.21
686.443	42935.86
686.79	42948.97
687.138	42981.74
687.485	42926.15
687.832	42744.23
688.18	42725.7
688.527	42417.68
688.874	42508.76
689.221	42416.55
689.568	42258.59
689.915	42049.33
690.262	42004.59
690.609	41983.35
690.956	41868.32
691.303	41709.68
691.65	41523.7
691.997	41535.22
692.344	41306.53
692.69	41223.59
693.037	41038.74
693.383	40850.27
693.73	40816.6
694.077	40561.91
694.423	40526.21
694.769	40530.95
695.116	40248.7
695.462	40069.5
695.808	40001.02
696.155	39978.65
696.501	39614.82
696.847	39852.55
697.193	39344.54
697.539	39445.56
697.885	39062.74
698.231	39056.19
698.577	38953.37
698.923	38987.27
699.269	38611
699.614	38530.55
699.96	38341.18
700.306	38316.32
700.651	38117.68
700.997	37880.4
701.342	37805.38
701.688	37773.51
702.033	37625.72
702.379	37598.15
702.724	37415.56
703.069	37439.74
703.415	36953.87
703.76	36865.29
704.105	36927.88
704.45	36855.8
704.795	36672.07
705.14	36500.55
705.485	36541.68
705.83	36249.48
706.175	36217.4
706.52	36061.92
706.865	35919.1
707.209	35840.23
707.554	35755.26
707.899	35708.93
708.243	35627.81
708.588	35391.43
708.932	35373.35
709.277	35386.91
709.621	35110.31
709.966	34835.96
710.31	35027.37
710.654	34725.23
710.998	34803.87
711.342	34813.82
711.687	34765
712.031	34561.39
712.375	34413.83
712.719	34504.22
713.063	34351.23
713.407	34461.06
713.75	34252.02
714.094	34278.24
714.438	34233.27
714.782	34082.54
715.125	33925.7
715.469	33997.79
715.812	33807.97
716.156	33901.07
716.499	33860.62
716.843	33851.81
717.186	33658.37
717.53	34044.8
717.873	33804.58
718.216	33692.72
718.559	33643.45
718.902	33488.2
719.246	33555.32
719.589	33398.71
719.932	33333.86
720.275	33383.57
720.617	33512.83
720.96	33445.72
721.303	33374.98
721.646	33460.18
721.989	33263.8
722.331	33289.11
722.674	33271.48
723.016	33254.31
723.359	33211.6
723.701	33311.93
724.044	33239.62
724.386	33043.24
724.729	33273.74
725.071	33181.32
725.413	33175.89
725.755	33144.03
726.097	33106.06
726.439	33047.76
726.782	33030.13
727.124	33297.47
727.465	33131.6
727.807	32927.09
728.149	33110.81
728.491	33153.29
728.833	33242.56
729.175	33287.08
729.516	33125.73
729.858	33140.41
730.199	33192.62
730.541	33349.22
730.882	33265.38
731.224	33145.61
731.565	33216.12
731.906	33252.28
732.248	33175.44
732.589	32974.09
732.93	33222.9
733.271	33236.23
733.612	33220.19
733.953	33396.9
734.294	33300.86
734.635	33236.91
734.976	33564.58
735.317	33437.36
735.658	33351.93
735.999	33427.41
736.339	33471.7
736.68	33587.41
737.021	33572.49
737.361	33506.05
737.702	33738.36
738.042	33777.46
738.383	33743.11
738.723	33803.45
739.063	33842.54
739.404	33976.55
739.744	33942.65
740.084	33978.58
740.424	34231.01
740.764	33988.98
741.104	34322.08
741.444	34194.4
741.784	34265.81
742.124	34501.73
742.464	34516.65
742.804	34400.95
743.143	34550.77
743.483	34701.28
743.823	34622.86
744.162	34734.5
744.502	34875.06
744.841	34848.39
745.181	35196.41
745.52	35061.04
745.86	35357.08
746.199	35485.21
746.538	35364.54
746.877	35677.07
747.216	35691.76
747.556	35832.77
747.895	35963.84
748.234	36077.06
748.573	36131.52
748.911	36133.33
749.25	36406.99
749.589	36410.16
749.928	36712.3
750.267	36902.57
750.605	36875.68
750.944	37009.46
751.283	37104.6
751.621	37415.78
751.96	37185.73
752.298	37459.4
752.636	37606.74
752.975	37640.86
753.313	37812.16
