Data from 635_FLMS001491_002.txt Node
Date: Thu Apr 19 16:46:17 BST 2018
User: hsy
Spectrometer: FLMS00149
Trigger mode: 0
Integration Time (sec): 1.000000E-2
Scans to average: 10
Electric dark correction enabled: true
Nonlinearity correction enabled: false
Boxcar width: 0
XAxis mode: Wavelengths
Number of Pixels in Spectrum: 2048
>>>>>Begin Spectral Data<<<<<
341.393	-20.55
341.776	-20.55
342.16	-20.55
342.543	-65.75
342.927	-63.71
343.31	-65.29
343.693	-65.07
344.077	-79.76
344.46	-42.47
344.843	-68.46
345.226	-49.93
345.61	-30.49
345.993	-23.94
346.376	9.51
346.759	11.31
347.142	33.69
347.525	47.24
347.908	57.19
348.291	82.05
348.674	67.81
349.057	116.62
349.44	129.95
349.823	137.19
350.206	149.16
350.588	216.05
350.971	249.73
351.354	254.47
351.737	287.92
352.119	278.42
352.502	290.63
352.884	291.53
353.267	313.68
353.65	336.05
354.032	328.59
354.414	356.61
354.797	357.52
355.179	352.1
355.562	371.98
355.944	366.11
356.326	361.13
356.709	359.55
357.091	370.17
357.473	373.34
357.855	389.38
358.238	390.06
358.62	394.35
359.002	374.69
359.384	382.6
359.766	385.77
360.148	381.7
360.53	397.29
360.912	387.12
361.294	390.29
361.676	379.89
362.057	366.11
362.439	378.54
362.821	371.3
363.203	365.2
363.584	375.82
363.966	366.78
364.348	384.86
364.729	360.46
365.111	362.49
365.493	372.21
365.874	365.88
366.256	354.58
366.637	361.36
367.019	362.49
367.4	351.64
367.781	355.71
368.163	372.66
368.544	358.42
368.925	360.23
369.306	368.59
369.688	364.98
370.069	366.11
370.45	368.82
370.831	392.09
371.212	391.64
371.593	361.81
371.974	388.93
372.355	388.03
372.736	387.35
373.117	355.49
373.498	364.75
373.879	390.29
374.26	374.92
374.641	369.27
375.021	362.26
375.402	388.7
375.783	396.39
376.163	396.39
376.544	389.16
376.925	390.29
377.305	384.86
377.686	406.56
378.066	383.28
378.447	383.96
378.827	410.85
379.208	420.12
379.588	411.75
379.968	411.3
380.349	411.08
380.729	421.47
381.109	422.6
381.489	394.35
381.87	422.15
382.25	437.06
382.63	424.18
383.01	421.47
383.39	449.04
383.77	459.21
384.15	452.21
384.53	423.96
384.91	444.07
385.29	441.13
385.67	451.98
386.049	433.45
386.429	452.88
386.809	444.07
387.189	488.59
387.568	471.87
387.948	460.12
388.328	488.36
388.707	479.78
389.087	480
389.466	494.69
389.846	493.79
390.225	492.2
390.605	529.04
390.984	494.24
391.363	515.25
391.743	514.35
392.122	552.32
392.501	514.12
392.881	550.96
393.26	528.81
393.639	549.6
394.018	550.28
394.397	528.36
394.776	562.03
395.155	538.76
395.534	558.42
395.913	545.76
396.292	558.19
396.671	556.84
397.05	572.65
397.429	576.04
397.808	574.24
398.186	588.25
398.565	593.67
398.944	590.51
399.323	572.88
399.701	620.34
400.08	610.62
400.458	636.83
400.837	642.26
401.215	632.09
401.594	626.66
401.972	651.3
402.351	659.88
402.729	642.94
403.107	669.38
403.486	685.19
403.864	699.66
404.242	692.2
404.62	702.59
404.999	730.39
405.377	743.05
405.755	753.44
406.133	735.81
406.511	764.74
406.889	769.49
407.267	780.33
407.645	774.46
408.023	801.12
408.401	838.41
408.779	835.25
409.156	847.45
409.534	886.32
409.912	899.43
410.29	896.04
410.667	916.6
411.045	946.2
411.422	956.15
411.8	990.04
412.178	980.33
412.555	1003.38
412.933	1016.03
413.31	1028.91
413.687	1089.7
414.065	1061.23
414.442	1078.18
414.819	1155.46
415.197	1105.97
415.574	1168.8
415.951	1155.69
416.328	1171.28
416.705	1161.57
417.082	1193.66
417.46	1204.95
417.837	1232.75
418.214	1262.13
418.591	1299.87
418.967	1284.73
419.344	1287.66
419.721	1298.74
420.098	1314.33
420.475	1364.05
420.852	1341.9
421.228	1350.04
421.605	1397.49
421.982	1404.95
422.358	1431.61
422.735	1426.64
423.111	1456.7
423.488	1482.69
423.864	1472.97
424.241	1506.87
424.617	1533.08
424.994	1563.59
425.37	1599.29
425.746	1613.53
426.123	1601.78
426.499	1618.5
426.875	1625.51
427.251	1673.42
427.627	1721.55
428.003	1730.59
428.379	1747.76
428.756	1747.09
429.132	1787.54
429.507	1830.7
429.883	1853.75
430.259	1877.48
430.635	1929.45
431.011	1928.1
431.387	1977.82
431.763	1992.96
432.138	1994.54
432.514	2053.07
432.89	2060.98
433.265	2094.42
433.641	2123.35
434.016	2152.5
434.392	2198.37
434.767	2268.43
435.143	2247.64
435.518	2270.69
435.894	2324.25
436.269	2363.79
436.644	2360.18
437.02	2390.01
437.395	2451.25
437.77	2482.66
438.145	2495.54
438.52	2520.4
438.895	2564.47
439.271	2593.84
439.646	2660.51
440.021	2678.81
440.395	2674.07
440.77	2641.3
441.145	2698.7
441.52	2733.28
441.895	2774.63
442.27	2767.85
442.645	2779.38
443.019	2830.9
443.394	2833.39
443.769	2877
444.143	2888.53
444.518	2908.64
444.892	2894.63
445.267	2942.31
445.641	2951.8
446.016	2988.64
446.39	2991.57
446.764	3041.06
447.139	3012.59
447.513	3100.05
447.887	3057.33
448.262	3053.27
448.636	3135.75
449.01	3183.21
449.384	3202.87
449.758	3211.91
450.132	3272.92
450.506	3291.45
450.88	3309.08
451.254	3322.41
451.628	3361.96
452.002	3412.13
452.376	3454.39
452.75	3529.86
453.123	3531.45
453.497	3553.59
453.871	3622.07
454.244	3696.87
454.618	3747.03
454.992	3763.53
455.365	3775.96
455.739	3859.12
456.112	3920.59
456.486	3967.14
456.859	3967.59
457.232	4112.9
457.606	4098.66
457.979	4177.08
458.352	4243.07
458.725	4288.94
459.099	4343.18
459.472	4431.08
459.845	4485.55
460.218	4519.9
460.591	4571.87
460.964	4627.24
461.337	4693
461.71	4746.1
462.083	4867.46
462.456	4882.82
462.829	4877.4
463.201	4990.39
463.574	4984.52
463.947	5115.13
464.32	5196.71
464.692	5181.57
465.065	5280.1
465.438	5319.65
465.81	5397.16
466.183	5471.96
466.555	5554.9
466.928	5655.23
467.3	5600.32
467.672	5750.15
468.045	5887.99
468.417	5887.99
468.789	5958.73
469.161	5944.26
469.534	6113.98
469.906	6224.03
470.278	6210.92
470.65	6279.4
471.022	6454.53
471.394	6516.68
471.766	6575.43
472.138	6736.79
472.51	6863.56
472.882	6919.38
473.253	6991.69
473.625	7103.33
473.997	7253.38
474.369	7311.46
474.74	7364.34
475.112	7513.71
475.484	7665.58
475.855	7749.19
476.227	7871.67
476.598	8087.49
476.97	8125
477.341	8331.55
477.713	8409.96
478.084	8513.46
478.455	8753.46
478.827	8786.9
479.198	9095.59
479.569	9153.67
479.94	9310.73
480.311	9434.79
480.682	9674.34
481.053	9863.03
481.424	10018.96
481.795	10128.56
482.166	10266.18
482.537	10524.94
482.908	10723.8
483.279	10788.21
483.65	11013.96
484.021	11187.97
484.391	11456.66
484.762	11564.91
485.133	11720.84
485.503	11791.79
485.874	12066.59
486.244	12203.08
486.615	12511.32
486.985	12604.2
487.356	12894.82
487.726	13001.25
488.097	13380.68
488.467	13438.76
488.837	13712.87
489.207	13827.22
489.578	14129.36
489.948	14275.57
490.318	14485.28
490.688	14570.48
491.058	14803.92
491.428	14991.94
491.798	15071.03
492.168	15434.41
492.538	15542.43
492.908	15774.29
493.278	15988.07
493.648	16132.47
494.017	16349.19
494.387	16462.63
494.757	16628.96
495.126	16753.02
495.496	16911.66
495.866	17113.01
496.235	17248.15
496.605	17442.72
496.974	17498.31
497.344	17757.51
497.713	17908.92
498.082	17992.54
498.452	18218.52
498.821	18237.5
499.19	18303.04
499.559	18615.34
499.928	18719.52
500.298	18909.12
500.667	18977.82
501.036	19120.19
501.405	19249.45
501.774	19374.87
502.143	19591.14
502.512	19618.26
502.88	19877.46
503.249	19882.88
503.618	19989.55
503.987	20175.08
504.356	20294.17
504.724	20445.35
505.093	20620.49
505.462	20664.56
505.83	20845.12
506.199	20904.32
506.567	21159.46
506.936	21212.34
507.304	21494.36
507.672	21564.42
508.041	21736.84
508.409	21896.61
508.777	22096.38
509.145	22228.13
509.514	22211.63
509.882	22371.86
510.25	22424.06
510.618	22677.61
510.986	22749.02
511.354	22899.3
511.722	23120.31
512.09	23338.16
512.458	23278.72
512.826	23582.67
513.193	23667.19
513.561	23815.89
513.929	24032.38
514.297	24200.73
514.664	24333.16
515.032	24372.71
515.4	24706.26
515.767	24712.81
516.135	24801.62
516.502	24741.28
516.869	25261.95
517.237	25283.64
517.604	25198.67
517.972	25528.38
518.339	25693.35
518.706	25915.04
519.073	25941.93
519.44	26021.02
519.808	26396.61
520.175	26443.61
520.542	26754.11
520.909	26864.62
521.276	26922.47
521.643	27288.34
522.009	27309.8
522.376	27597.93
522.743	27577.14
523.11	28051.48
523.477	28249.67
523.843	28340.74
524.21	28568.98
524.577	28778.92
524.943	28892.59
525.31	28996.77
525.676	29271.79
526.043	29516.98
526.409	29498.9
526.776	29810.08
527.142	30028.38
527.508	30153.57
527.874	30381.59
528.241	30433.34
528.607	30643.95
528.973	30880.11
529.339	30820.45
529.705	31156.03
530.071	31344.95
530.437	31478.96
530.803	31577.26
531.169	31779.29
531.535	31747.65
531.901	31892.51
532.267	31984.03
532.632	32249.34
532.998	32182.44
533.364	32470.12
533.73	32419.5
534.095	32612.49
534.461	32636.67
534.826	32807.97
535.192	32801.41
535.557	33097.9
535.923	33142.65
536.288	33180.38
536.653	33246.37
537.019	33227.39
537.384	33219.93
537.749	33360.27
538.114	33433.26
538.479	33451.11
538.845	33488.17
539.21	33405.92
539.575	33454.95
539.94	33440.04
540.305	33779.24
540.67	33592.13
541.034	33569.3
541.399	33740.14
541.764	33883.87
542.129	33723.87
542.494	33798.9
542.858	33956.18
543.223	33843.87
543.587	34097.65
543.952	33914.6
544.316	33855.85
544.681	33934.94
545.045	34067.82
545.41	34133.35
545.774	34043.64
546.138	33897.43
546.503	34075.05
546.867	34174.71
547.231	34316.85
547.595	34265.33
547.959	34502.61
548.324	34378.55
548.688	34357.08
549.052	34475.72
549.416	34306.46
549.779	34357.98
550.143	34383.97
550.507	34501.93
550.871	34531.31
551.235	34332.67
551.599	34706.22
551.962	34611.31
552.326	34643.62
552.689	34781.25
553.053	34368.15
553.417	34514.13
553.78	34831.19
554.143	34728.37
554.507	34816.95
554.87	34884.75
555.234	35075.48
555.597	34849.04
555.96	35017.85
556.323	35025.53
556.686	34938.08
557.05	35226.21
557.413	35115.47
557.776	35082.26
558.139	35398.63
558.502	35286.77
558.865	35362.25
559.228	35589.59
559.59	35555.92
559.953	35577.16
560.316	35937.83
560.679	35713.2
561.041	35860.54
561.404	35957.94
561.767	36177.14
562.129	36100.53
562.492	36323.35
562.854	36229.12
563.217	36214.88
563.579	36339.17
563.941	36406.74
564.304	36497.59
564.666	36765.38
565.028	36782.1
565.39	36691.25
565.753	36995.88
566.115	37015.99
566.477	37187.06
566.839	37107.29
567.201	37431.35
567.563	37392.93
567.925	37561.96
568.287	37532.59
568.648	37502.53
569.01	37752.02
569.372	37992.24
569.734	37775.29
570.095	37986.59
570.457	38150.88
570.819	38104.55
571.18	38118.56
571.542	38379.8
571.903	38275.39
572.265	38445.56
572.626	38621.15
572.987	38598.32
573.349	38655.72
573.71	38756.74
574.071	38695.95
574.432	38864.75
574.794	39038.99
575.155	38958.31
575.516	39047.57
575.877	38975.03
576.238	39118.76
576.599	39143.84
576.96	39217.06
577.32	39176.61
577.681	39143.84
578.042	39374.57
578.403	39337.51
578.763	39320.56
579.124	39314.46
579.485	39568.24
579.845	39602.81
580.206	39500.44
580.566	39440.11
580.927	39449.37
581.287	39497.51
581.648	39525.53
582.008	39530.95
582.368	39472.42
582.728	39556.94
583.089	39337.74
583.449	39520.33
583.809	39494.12
584.169	39567.11
584.529	39388.13
584.889	39639.2
585.249	39313.56
585.609	39303.16
585.969	39325.53
586.329	39243.05
586.688	39284.18
587.048	39341.13
587.408	39295.7
587.768	39180.45
588.127	39140.23
588.487	39197.63
588.846	39436.27
589.206	39001.02
589.565	39136.84
589.925	39337.74
590.284	39211.19
590.643	39165.99
591.003	39155.14
591.362	39364.18
591.721	39187.91
592.08	39032.66
592.44	39295.7
592.799	38973.23
593.158	39001.7
593.517	38966.9
593.876	39096.16
594.235	38881.93
594.593	38934.36
594.952	39134.35
595.311	39054.35
595.67	39107.23
596.029	39109.49
596.387	39111.98
596.746	39243.05
597.104	39083.51
597.463	39001.02
597.822	39157.63
598.18	39081.25
598.538	38992.89
598.897	39364.63
599.255	39038.99
599.613	39432.65
599.972	39163.5
600.33	39267.23
600.688	39148.14
601.046	39133.9
601.404	39531.18
601.762	39301.35
602.12	39452.76
602.478	39413.89
602.836	39471.97
603.194	39263.16
603.552	39257.74
603.91	39248.47
604.268	39442.59
604.625	39416.83
604.983	39534.79
605.341	39388.36
605.698	39608.24
606.056	39736.6
606.413	39455.93
606.771	39746.54
607.128	39689.82
607.485	39680.1
607.843	39686.88
608.2	39939.53
608.557	39984.5
608.914	39906.31
609.272	40073.31
609.629	40171.84
609.986	40362.34
610.343	40200.09
610.7	40567.99
611.057	40240.76
611.414	40280.54
611.771	40412.06
612.127	40400.99
612.484	40401.89
612.841	40650.7
613.198	40553.75
613.554	40387.65
613.911	40777.7
614.267	40840.97
614.624	40814.99
614.98	40923.68
615.337	41177.91
615.693	41037.81
616.05	41064.7
616.406	41297.91
616.762	41051.14
617.118	41155.77
617.475	41146.95
617.831	41361.41
618.187	41335.42
618.543	41424.01
618.899	41635.76
619.255	41562.99
619.611	41477.12
619.967	41647.28
620.323	41851.12
620.678	41672.36
621.034	41619.94
621.39	41690.67
621.746	41740.61
622.101	42093.82
622.457	41862.42
622.812	41872.13
623.168	41977.67
623.523	41878.01
623.879	42164.56
624.234	42032.81
624.589	42054.95
624.945	42065.35
625.3	42025.8
625.655	42235.29
626.01	42016.08
626.365	42200.71
626.72	42051.56
627.075	41992.13
627.43	42101.96
627.785	42120.94
628.14	42092.92
628.495	42089.08
628.85	42152.58
629.205	41962.07
629.559	42035.29
629.914	41987.61
630.269	42004.56
630.623	41825.13
630.978	41701.74
631.332	42113.71
631.687	42072.35
632.041	41892.02
632.396	41971.79
632.75	41792.81
633.104	41886.37
633.459	41746.04
633.813	41751.46
634.167	41535.87
634.521	41683.89
634.875	41782.19
635.229	41583.55
635.583	41479.15
635.937	41462.2
636.291	41380.62
636.645	41492.48
636.999	41340.4
637.352	41531.35
637.706	41130.46
638.06	41323.45
638.413	41183.34
638.767	41090.01
639.121	41327.29
639.474	41039.61
639.828	41074.87
640.181	41025.6
640.534	41055.66
640.888	40886.62
641.241	40718.94
641.594	40873.06
641.947	40955.32
642.301	40762.78
642.654	40788.77
643.007	40882.1
643.36	40851.6
643.713	40703.35
644.066	40990.8
644.419	40689.11
644.771	40271.5
645.124	39962.35
645.477	39954.9
645.83	39735.92
646.182	39622.25
646.535	39677.16
646.888	39733.66
647.24	39688.24
647.593	39927.1
647.945	39605.75
648.298	39503.61
648.65	39408.7
649.002	39404.18
649.355	39367.34
649.707	39361.47
650.059	39226.33
650.411	39782.92
650.763	39998.74
651.115	40454.54
651.467	40308.33
651.819	40412.96
652.171	40359.63
652.523	40304.49
652.875	40315.34
653.227	40106.08
653.578	40466.52
653.93	40315.79
654.282	40182.46
654.633	40144.27
654.985	40309.69
655.337	40227.43
655.688	40436.24
656.039	40343.36
656.391	40003.26
656.742	40245.96
657.094	40183.36
657.445	40259.29
657.796	40330.25
658.147	40265.17
658.498	40387.88
658.849	40605.05
659.2	40373.19
659.551	40269.69
659.902	40661.77
660.253	40375.45
660.604	40450.25
660.955	40420.42
661.306	40697.25
661.656	40427.2
662.007	40542
662.358	40585.39
662.708	40705.38
663.059	40564.82
663.409	40447.99
663.76	40601.43
664.11	40810.92
664.461	40692.5
664.811	40832.61
665.161	40789
665.511	40713.07
665.862	40706.51
666.212	40661.54
666.562	40874.65
666.912	40790.13
667.262	40652.96
667.612	40720.3
667.962	40744.93
668.312	40705.38
668.662	41028.31
669.011	40733.18
669.361	40780.64
669.711	40707.87
670.06	40591.04
670.41	40528.67
670.76	40545.39
671.109	40901.76
671.459	40635.1
671.808	40740.64
672.157	40630.58
672.507	40538.61
672.856	40554.88
673.205	40733.41
673.554	40704.71
673.904	40400.08
674.253	40711.71
674.602	40463.81
674.951	39969.36
675.3	39769.36
675.649	40480.08
675.998	40577.25
676.346	40424.26
676.695	40593.98
677.044	40256.58
677.393	40320.54
677.741	40506.52
678.09	40304.94
678.438	40188.79
678.787	40251.16
679.135	40177.49
679.484	40050.71
679.832	40188.56
680.181	40048.23
680.529	40106.3
680.877	39838.97
681.225	39911.28
681.573	39985.86
681.922	39760.1
682.27	39742.92
682.618	39730.72
682.966	39609.59
683.314	39654.79
683.661	39600.55
684.009	39271.52
684.357	39185.65
684.705	39151.53
685.053	39280.34
685.4	39040.8
685.748	38903.62
686.095	38960.8
686.443	38756.28
686.79	38645.55
687.138	38675.61
687.485	38725.32
687.832	38465.67
688.18	38359.46
688.527	38201.95
688.874	38095.51
689.221	38215.05
689.568	37994.04
689.915	37726.03
690.262	37764.44
690.609	37727.61
690.956	37501.17
691.303	37553.15
691.65	37344.34
691.997	37218.7
692.344	37138.02
692.69	36938.25
693.037	36951.36
693.383	36601.54
693.73	36681.76
694.077	36488.55
694.423	36480.64
694.769	36221.66
695.116	36286.07
695.462	35926.08
695.808	35866.64
696.155	35961.33
696.501	35619.64
696.847	35710.71
697.193	35344.85
697.539	35319.31
697.885	35029.83
698.231	35013.33
698.577	34882.71
698.923	34699.21
699.269	34642.49
699.614	34579.22
699.96	34378.77
700.306	34410.86
700.651	34117.99
700.997	34082.51
701.342	33851.78
701.688	33813.14
702.033	33677.32
702.379	33608.4
702.724	33538.34
703.069	33552.35
703.415	33095.64
703.76	33073.04
704.105	33027.62
704.45	32782.65
704.795	32775.88
705.14	32665.82
705.485	32656.33
705.83	32396.45
706.175	32560.29
706.52	32314.64
706.865	32109
707.209	31966.18
707.554	31967.31
707.899	31890.25
708.243	31712.17
708.588	31792.17
708.932	31495.46
709.277	31647.09
709.621	31469.92
709.966	31212.75
710.31	31395.57
710.654	31128.24
710.998	31158.52
711.342	31112.87
711.687	31050.27
712.031	31015.7
712.375	30884.17
712.719	30763.5
713.063	30629.27
713.407	30739.09
713.75	30639.21
714.094	30671.52
714.438	30417.97
714.782	30544.3
715.125	30362.15
715.469	30637.17
715.812	30366.45
716.156	30234.7
716.499	30195.38
716.843	30273.79
717.186	30084.42
717.53	30267.69
717.873	30256.39
718.216	30200.12
718.559	30139.11
718.902	29808.95
719.246	29854.6
719.589	29867.93
719.932	29840.81
720.275	29877.19
720.617	29845.33
720.96	29883.3
721.303	29944.31
721.646	29951.77
721.989	29628.61
722.331	29805.11
722.674	29763.75
723.016	29754.94
723.359	29652.12
723.701	29628.39
724.044	29643.53
724.386	29460.26
724.729	29632.68
725.071	29698.44
725.413	29676.52
725.755	29647.37
726.097	29518.33
726.439	29531.67
726.782	29523.31
727.124	29693.92
727.465	29585.68
727.807	29466.58
728.149	29602.17
728.491	29542.06
728.833	29720.36
729.175	29621.83
729.516	29579.8
729.858	29537.09
730.199	29725.11
730.541	29683.75
730.882	29502.06
731.224	29649.4
731.565	29562.17
731.906	29690.08
732.248	29742.96
732.589	29595.62
732.93	29572.57
733.271	29725.33
733.612	29744.77
733.953	29879.45
734.294	29798.1
734.635	29772.34
734.976	29949.06
735.317	29778.21
735.658	29734.6
735.999	29799.46
736.339	29864.54
736.68	29967.14
737.021	30039.45
737.361	29893.92
737.702	30131.65
738.042	29989.96
738.383	30190.41
738.723	30304.75
739.063	30338.43
739.404	30450.51
739.744	30382.72
740.084	30373.68
740.424	30534.58
740.764	30426.11
741.104	30785.87
741.444	30669.72
741.784	30610.51
742.124	30859.09
742.464	30857.28
742.804	30850.95
743.143	30859.77
743.483	31090.95
743.823	31001.46
744.162	31142.7
744.502	31411.84
744.841	31279.87
745.181	31587.21
745.52	31605.06
745.86	31701.55
746.199	31782
746.538	31888.22
746.877	32106.74
747.216	32120.75
747.556	32105.61
747.895	32351.03
748.234	32404.81
748.573	32555.32
748.911	32719.83
749.25	32746.5
749.589	32915.53
749.928	32977.9
750.267	33197.11
750.605	33265.13
750.944	33341.74
751.283	33492.24
751.621	33766.58
751.96	33592.13
752.298	33911.66
752.636	34026.69
752.975	34132.9
753.313	34190.53
