Data from 635_FLMS001491_008.txt Node
Date: Thu Apr 19 16:46:32 BST 2018
User: hsy
Spectrometer: FLMS00149
Trigger mode: 0
Integration Time (sec): 1.000000E-2
Scans to average: 10
Electric dark correction enabled: true
Nonlinearity correction enabled: false
Boxcar width: 0
XAxis mode: Wavelengths
Number of Pixels in Spectrum: 2048
>>>>>Begin Spectral Data<<<<<
341.393	-10.76
341.776	-10.76
342.16	-10.76
342.543	-66.35
342.927	-53.02
343.31	-60.03
343.693	-41.95
344.077	-74.72
344.46	-46.24
344.843	-40.59
345.226	-57.99
345.61	-34.26
345.993	-19.58
346.376	-6.02
346.759	5.06
347.142	31.95
347.525	50.93
347.908	36.24
348.291	72.4
348.674	100.87
349.057	83.92
349.44	130.48
349.823	158.95
350.206	171.15
350.588	221.55
350.971	243.47
351.354	255.45
351.737	258.61
352.119	280.53
352.502	312.17
352.884	307.42
353.267	314.43
353.65	336.12
354.032	344.93
354.414	343.13
354.797	336.12
355.179	376.8
355.562	350.13
355.944	367.31
356.326	370.47
356.709	391.49
357.091	394.2
357.473	380.64
357.855	382.9
358.238	405.95
358.62	371.37
359.002	371.6
359.384	395.78
359.766	363.92
360.148	378.15
360.53	390.36
360.912	365.27
361.294	375.44
361.676	375.44
362.057	377.7
362.439	392.16
362.821	371.6
363.203	374.54
363.584	359.4
363.966	381.54
364.348	372.73
364.729	378.15
365.111	370.7
365.493	363.01
365.874	378.83
366.256	371.83
366.637	357.36
367.019	346.29
367.4	377.25
367.781	368.44
368.163	372.5
368.544	353.97
368.925	361.43
369.306	361.43
369.688	358.27
370.069	358.27
370.45	375.67
370.831	379.51
371.212	371.15
371.593	379.06
371.974	383.8
372.355	383.13
372.736	365.05
373.117	370.24
373.498	365.5
373.879	382
374.26	383.8
374.641	393.29
375.021	386.52
375.402	373.63
375.783	390.36
376.163	396.91
376.544	381.77
376.925	400.53
377.305	401.43
377.686	392.84
378.066	392.84
378.447	407.53
378.827	380.64
379.208	379.51
379.588	395.55
379.968	391.94
380.349	404.59
380.729	405.05
381.109	410.24
381.489	410.7
381.87	402.11
382.25	429.9
382.63	434.2
383.01	407.31
383.39	425.16
383.77	444.37
384.15	430.81
384.53	432.39
384.91	433.75
385.29	441.2
385.67	437.81
386.049	450.24
386.429	459.06
386.809	453.41
387.189	454.54
387.568	453.41
387.948	449.79
388.328	439.62
388.707	478.26
389.087	492.05
389.466	493.63
389.846	490.47
390.225	494.08
390.605	499.96
390.984	511.94
391.363	497.7
391.743	505.38
392.122	510.81
392.501	526.85
392.881	524.14
393.26	514.87
393.639	524.14
394.018	534.53
394.397	565.49
394.776	540.18
395.155	539.28
395.534	542.9
395.913	550.58
396.292	571.6
396.671	570.24
397.05	564.36
397.429	574.98
397.808	555.55
398.186	589.22
398.565	593.97
398.944	595.55
399.323	595.78
399.701	615.44
400.08	600.07
400.458	624.7
400.837	635.55
401.215	625.15
401.594	668.77
401.972	642.55
402.351	647.53
402.729	657.02
403.107	663.12
403.486	673.06
403.864	671.48
404.242	692.27
404.62	704.25
404.999	694.3
405.377	714.19
405.755	717.35
406.133	739.95
406.511	769.56
406.889	778.14
407.267	776.11
407.645	776.11
408.023	809.55
408.401	818.37
408.779	814.75
409.156	862.43
409.534	847.52
409.912	892.72
410.29	911.7
410.667	914.41
411.045	914.64
411.422	933.85
411.8	950.12
412.178	972.94
412.555	1001.64
412.933	1009.1
413.31	1039.15
413.687	1029.21
414.065	1062.88
414.442	1069.21
414.819	1111.47
415.197	1126.38
415.574	1148.76
415.951	1167.96
416.328	1157.57
416.705	1183.33
417.082	1191.47
417.46	1218.81
417.837	1223.1
418.214	1243.44
418.591	1249.54
418.967	1273.95
419.344	1286.38
419.721	1315.08
420.098	1288.41
420.475	1321.41
420.852	1329.09
421.228	1377.22
421.605	1410.67
421.982	1406.38
422.358	1412.7
422.735	1430.1
423.111	1437.56
423.488	1487.5
423.864	1486.37
424.241	1533.83
424.617	1513.04
424.994	1523.66
425.37	1549.65
425.746	1590.1
426.123	1605.24
426.499	1627.84
426.875	1656.31
427.251	1691.34
427.627	1718.68
428.003	1716.88
428.379	1765.24
428.756	1759.13
429.132	1808.17
429.507	1797.55
429.883	1835.06
430.259	1890.43
430.635	1901.96
431.011	1904.44
431.387	1943.76
431.763	1975.17
432.138	1980.6
432.514	2024.66
432.89	2061.95
433.265	2088.62
433.641	2126.36
434.016	2150.08
434.392	2185.79
434.767	2205.45
435.143	2191.21
435.518	2268.5
435.894	2275.96
436.269	2332.9
436.644	2413.58
437.02	2352.11
437.395	2397.99
437.77	2425.78
438.145	2498.78
438.52	2487.93
438.895	2562.5
439.271	2587.59
439.646	2647.47
440.021	2637.98
440.395	2642.73
440.77	2623.07
441.145	2658.77
441.52	2718.88
441.895	2729.73
442.27	2781.71
442.645	2767.7
443.019	2774.93
443.394	2810.63
443.769	2801.14
444.143	2802.04
444.518	2901.7
444.892	2862.61
445.267	2870.97
445.641	2940.35
446.016	2937.18
446.39	2959.1
446.764	2947.58
447.139	3001.59
447.513	3011.98
447.887	3091.75
448.262	3086.78
448.636	3099.44
449.01	3162.71
449.384	3196.61
449.758	3195.03
450.132	3218.31
450.506	3249.49
450.88	3281.13
451.254	3314.57
451.628	3395.93
452.002	3415.36
452.376	3401.8
452.75	3454.01
453.123	3490.84
453.497	3562.48
453.871	3589.14
454.244	3645.86
454.618	3696.48
454.992	3723.15
455.365	3762.25
455.739	3889.47
456.112	3879.08
456.486	3914.56
456.859	3952.07
457.232	4058.06
457.606	4072.97
457.979	4140.99
458.352	4207.21
458.725	4293.53
459.099	4322.68
459.472	4356.35
459.845	4472.51
460.218	4471.61
460.591	4565.61
460.964	4552.73
461.337	4605.39
461.71	4717.7
462.083	4810.58
462.456	4794.31
462.829	4766.51
463.201	4931.93
463.574	4995.66
463.947	5050.12
464.32	5115.66
464.692	5157.69
465.065	5218.03
465.438	5308.65
465.81	5345.93
466.183	5363.33
466.555	5544.57
466.928	5609.2
467.3	5560.84
467.672	5637.22
468.045	5797.22
468.417	5789.31
468.789	5800.84
469.161	5852.59
469.534	6012.36
469.906	6112.01
470.278	6166.7
470.65	6266.36
471.022	6411.44
471.394	6431.55
471.766	6529.63
472.138	6659.8
472.51	6737.99
472.882	6880.81
473.253	6906.12
473.625	7077.19
473.997	7173.68
474.369	7217.52
474.74	7248.48
475.112	7471.98
475.484	7581.13
475.855	7706.32
476.227	7794.46
476.598	8015.69
476.97	8019.99
477.341	8224.05
477.713	8378.17
478.084	8468.11
478.455	8735
478.827	8682.57
479.198	9029.9
479.569	9020.19
479.94	9260.86
480.311	9364.36
480.682	9530.46
481.053	9848.64
481.424	9984.23
481.795	10095.19
482.166	10248.63
482.537	10317.78
482.908	10579.92
483.279	10764.32
483.65	10929.97
484.021	11053.13
484.391	11267.13
484.762	11354.81
485.133	11449.5
485.503	11707.35
485.874	11994.57
486.244	12040.45
486.615	12380.78
486.985	12508.23
487.356	12752.52
487.726	12884.04
488.097	13170.81
488.467	13273.63
488.837	13570.12
489.207	13678.37
489.578	13979.83
489.948	14123.1
490.318	14280.61
490.688	14396.32
491.058	14690.77
491.428	14965.34
491.798	15009.86
492.168	15374.82
492.538	15451.88
492.908	15619.79
493.278	15815.49
493.648	15934.81
494.017	16166.44
494.387	16367.56
494.757	16531.4
495.126	16671.74
495.496	16753.54
495.866	16999.86
496.235	17099.52
496.605	17307.88
496.974	17466.97
497.344	17532.96
497.713	17789.9
498.082	17998.71
498.452	18116.22
498.821	18212.49
499.19	18240.74
499.559	18477.57
499.928	18653.61
500.298	18710.1
500.667	18904.9
501.036	19031
501.405	19181.73
501.774	19189.18
502.143	19477.09
502.512	19582.85
502.88	19795.04
503.249	19801.82
503.618	19900.8
503.987	20041.59
504.356	20222.38
504.724	20286.11
505.093	20422.6
505.462	20529.04
505.83	20669.37
506.199	20826.66
506.567	21159.75
506.936	21100.32
507.304	21386.64
507.672	21453.98
508.041	21569.91
508.409	21789.79
508.777	22046.51
509.145	22155.21
509.514	22201.53
509.882	22288.54
510.25	22395.2
510.618	22444.24
510.986	22604.24
511.354	22878.13
511.722	23159.7
512.09	23218.46
512.458	23142.53
512.826	23498.22
513.193	23627.71
513.561	23719.24
513.929	23922.85
514.297	24097.76
514.664	24280.58
515.032	24364.19
515.4	24503.62
515.767	24553.79
516.135	24702.03
516.502	24618.87
516.869	25033.78
517.237	25191.96
517.604	25108.35
517.972	25584.04
518.339	25558.51
518.706	25738.39
519.073	25836.69
519.44	25964.15
519.808	26251.37
520.175	26318.26
520.542	26593.51
520.909	26661.3
521.276	26789.44
521.643	27028.3
522.009	27248.63
522.376	27343.77
522.743	27538.12
523.11	27777.43
523.477	28041.61
523.843	28145.79
524.21	28392.56
524.577	28493.57
524.943	28748.48
525.31	28780.57
525.676	29115.93
526.043	29242.25
526.409	29350.5
526.776	29589.14
527.142	29721.11
527.508	29826.19
527.874	30052.85
528.241	30321.1
528.607	30480.64
528.973	30631.82
529.339	30607.64
529.705	30938.25
530.071	31146.38
530.437	31200.17
530.803	31346.38
531.169	31550.67
531.535	31553.83
531.901	31640.83
532.267	31815.52
532.632	31978.23
532.998	32016.87
533.364	32259.12
533.73	32212.35
534.095	32300.25
534.461	32392.23
534.826	32521.04
535.192	32603.97
535.557	32843.51
535.923	32657.53
536.288	32839.45
536.653	32956.73
537.019	32811.2
537.384	32997.41
537.749	33047.8
538.114	33111.98
538.479	33034.92
538.845	33115.37
539.21	33133.22
539.575	33134.58
539.94	33382.26
540.305	33378.87
540.67	33311.07
541.034	33490.05
541.399	33315.37
541.764	33471.97
542.129	33468.36
542.494	33456.83
542.858	33540.67
543.223	33594.91
543.587	33617.28
543.952	33684.4
544.316	33717.84
544.681	33518.75
545.045	33876.03
545.41	33810.27
545.774	33679.2
546.138	33765.07
546.503	33766.65
546.867	33843.71
547.231	33940.21
547.595	33889.82
547.959	33982.02
548.324	33901.11
548.688	33933.2
549.052	33996.93
549.416	33859.99
549.779	33974.11
550.143	33995.35
550.507	34124.61
550.871	34145.4
551.235	34155.8
551.599	34349.24
551.962	34237.15
552.326	34390.37
552.689	34229.47
553.053	34127.32
553.417	34226.98
553.78	34591.94
554.143	34540.65
554.507	34452.06
554.87	34476.24
555.234	34827.19
555.597	34408.67
555.96	34679.62
556.323	34626.07
556.686	34625.39
557.05	34875.78
557.413	34798.94
557.776	34707.42
558.139	34927.08
558.502	34944.25
558.865	34896.57
559.228	35033.06
559.59	35023.12
559.953	35032.61
560.316	35322.77
560.679	35385.6
561.041	35326.39
561.404	35548.53
561.767	35864.68
562.129	35547.62
562.492	35707.39
562.854	35859.25
563.217	35764.79
563.579	35818.58
563.941	35881.4
564.304	36118.68
564.666	36306.93
565.028	36223.99
565.39	36259.92
565.753	36367.04
566.115	36439.35
566.477	36661.27
566.839	36574.04
567.201	36842.05
567.563	36767.93
567.925	36959.79
568.287	36857.65
568.648	37044.31
569.01	37129.28
569.372	37355.03
569.734	37162.72
570.095	37425.99
570.457	37702.6
570.819	37509.83
571.18	37513.22
571.542	37795.48
571.903	37734.91
572.265	37775.59
572.626	38122.47
572.987	37889.03
573.349	38046.99
573.71	38157.95
574.071	38194.79
574.432	38274.11
574.794	38494.21
575.155	38530.82
575.516	38505.96
575.877	38554.1
576.238	38460.09
576.599	38621.44
576.96	38634.78
577.32	38747.99
577.681	38857.59
578.042	38954.54
578.403	38940.76
578.763	38768.1
579.124	38845.84
579.485	38958.16
579.845	38957.48
580.206	38873.19
580.566	38870.93
580.927	38899.17
581.287	38949.57
581.648	38905.28
582.008	39042.22
582.368	39111.37
582.728	39052.84
583.089	38938.72
583.449	38850.81
583.809	38997.03
584.169	38965.84
584.529	38747.54
584.889	39159.28
585.249	38890.14
585.609	38724.04
585.969	38953.64
586.329	38693.76
586.688	38773.98
587.048	38884.49
587.408	38597.04
587.768	38717.48
588.127	38734.89
588.487	38759.07
588.846	38928.55
589.206	38544.83
589.565	38585.06
589.925	38651.27
590.284	38590.03
590.643	38611.05
591.003	38595.45
591.362	38726.3
591.721	38524.27
592.08	38547.09
592.44	38673.42
592.799	38439.07
593.158	38534.21
593.517	38467.55
593.876	38499.64
594.235	38319.08
594.593	38507.55
594.952	38496.93
595.311	38350.49
595.67	38503.25
596.029	38556.59
596.387	38495.34
596.746	38655.11
597.104	38329.02
597.463	38373.09
597.822	38479.98
598.18	38291.28
598.538	38460.54
598.897	38684.27
599.255	38399.98
599.613	38786.64
599.972	38495.12
600.33	38659.18
600.688	38504.84
601.046	38674.32
601.404	38791.38
601.762	38679.07
602.12	38689.46
602.478	38871.38
602.836	38929.46
603.194	38504.38
603.552	38759.29
603.91	38616.24
604.268	38863.24
604.625	38809.23
604.983	38974.88
605.341	38778.27
605.698	39068.44
606.056	39175.1
606.413	38877.71
606.771	39253.52
607.128	39146.17
607.485	39099.17
607.843	39040.87
608.2	39316.57
608.557	39431.82
608.914	39160.64
609.272	39478.82
609.629	39512.27
609.986	39612.6
610.343	39638.14
610.7	39925.14
611.057	39632.94
611.414	39537.8
611.771	39900.73
612.127	39826.61
612.484	39989.99
612.841	40055.08
613.198	39820.73
613.554	39892.82
613.911	40204.45
614.267	40047.17
614.624	40030.67
614.98	40214.85
615.337	40407.38
615.693	40375.97
616.05	40350.44
616.406	40490.09
616.762	40409.64
617.118	40505.46
617.475	40563.76
617.831	40845.79
618.187	40734.83
618.543	40856.41
618.899	40911.33
619.255	40876.07
619.611	40914.04
619.967	41076.52
620.323	41219.34
620.678	41034.94
621.034	40925.34
621.39	41139.57
621.746	41053.02
622.101	41409.84
622.457	41116.07
622.812	41294.59
623.168	41517.86
623.523	41380.01
623.879	41487.58
624.234	41309.51
624.589	41270.41
624.945	41369.62
625.3	41512.44
625.655	41536.85
626.01	41553.34
626.365	41440.35
626.72	41236.74
627.075	41391.99
627.43	41490.52
627.785	41401.93
628.14	41294.37
628.495	41594.02
628.85	41431.76
629.205	41306.12
629.559	41394.02
629.914	41323.07
630.269	41255.27
630.623	41258.66
630.978	41244.42
631.332	41348.83
631.687	41395.38
632.041	41285.55
632.396	41188.61
632.75	41267.93
633.104	41312.22
633.459	41023.64
633.813	41017.76
634.167	41031.32
634.521	40914.04
634.875	40987.26
635.229	40854.83
635.583	40759.69
635.937	40712.91
636.291	40808.28
636.645	40745.45
636.999	40485.57
637.352	40726.25
637.706	40469.53
638.06	40686.92
638.413	40469.98
638.767	40478.34
639.121	40525.35
639.474	40343.43
639.828	40346.82
640.181	40322.19
640.534	40457.1
640.888	40202.64
641.241	39990.67
641.594	40254.85
641.947	40245.35
642.301	40208.75
642.654	40153.61
643.007	40059.6
643.36	40210.55
643.713	40057.56
644.066	40107.73
644.419	40029.31
644.771	39611.47
645.124	39210.81
645.477	39234.31
645.83	39023.24
646.182	39015.78
646.535	38889.01
646.888	39038.61
647.24	39046.06
647.593	39175.78
647.945	38862.34
648.298	38982.11
648.65	38742.34
649.002	38644.94
649.355	38671.16
649.707	38594.78
650.059	38591.61
650.411	39109.79
650.763	39376
651.115	39755.65
651.467	39552.04
651.819	39783.9
652.171	39646.27
652.523	39588.42
652.875	39608.08
653.227	39487.18
653.578	39730.11
653.93	39688.53
654.282	39561.3
654.633	39653.96
654.985	39491.25
655.337	39674.52
655.688	39547.29
656.039	39791.13
656.391	39303.23
656.742	39596.56
657.094	39443.34
657.445	39630.68
657.796	39767.85
658.147	39613.05
658.498	39673.62
658.849	39956.1
659.2	39572.83
659.551	39616.67
659.902	39842.88
660.253	39750
660.604	39884.46
660.955	39762.43
661.306	39861.64
661.656	39824.8
662.007	39767.85
662.358	40018.47
662.708	39849.43
663.059	39872.03
663.409	39612.83
663.76	39903.22
664.11	39939.83
664.461	39985.25
664.811	40079.48
665.161	40154.06
665.511	40006.04
665.862	40109.76
666.212	40201.29
666.562	40248.52
666.912	39925.59
667.262	40054.4
667.612	40011.69
667.962	39915.19
668.312	39895.08
668.662	40161.97
669.011	40153.83
669.361	40091.91
669.711	40056.66
670.06	40025.92
670.41	40093.49
670.76	39865.7
671.109	40094.85
671.459	39944.57
671.808	39992.48
672.157	40012.82
672.507	39681.53
672.856	39785.03
673.205	39826.16
673.554	39699.61
673.904	39673.62
674.253	40036.09
674.602	39907.28
674.951	39382.33
675.3	39080.87
675.649	39655.77
675.998	39776.21
676.346	39766.27
676.695	39726.72
677.044	39511.36
677.393	39614.18
677.741	39578.48
678.09	39492.83
678.438	39386.62
678.787	39623
679.135	39531.7
679.484	39310.69
679.832	39462.1
680.181	39229.11
680.529	39264.82
680.877	39091.26
681.225	39129.23
681.573	39319.28
681.922	39106.4
682.27	38825.73
682.618	38889.01
682.966	38893.98
683.314	38942.79
683.661	38788.67
684.009	38564.49
684.357	38507.77
684.705	38499.19
685.053	38510.26
685.4	38336.48
685.748	38336.03
686.095	38082.25
686.443	38085.86
686.79	37964.06
687.138	38011.51
687.485	37903.04
687.832	37760.45
688.18	37763.61
688.527	37608.14
688.874	37546.89
689.221	37479.33
689.568	37292.66
689.915	37106.45
690.262	37105.78
690.609	37160.46
690.956	36841.83
691.303	36881.6
691.65	36517.77
691.997	36639.12
692.344	36383.76
692.69	36374.95
693.037	36408.39
693.383	36125.46
693.73	36161.17
694.077	35859.93
694.423	35830.78
694.769	35762.76
695.116	35641.63
695.462	35436.89
695.808	35400.28
696.155	35377.23
696.501	35045.49
696.847	35084.59
697.193	34796.23
697.539	34861.09
697.885	34476.01
698.231	34476.92
698.577	34390.59
698.923	34275.57
699.269	33959.64
699.614	33986.08
699.96	33769.14
700.306	33659.09
700.651	33546.77
700.997	33417.51
701.342	33413.67
701.688	33264.75
702.033	33153.79
702.379	33054.13
702.724	32927.81
703.069	32968.26
703.415	32535.5
703.76	32564.88
704.105	32529.17
704.45	32328.27
704.795	32260.48
705.14	32110.2
705.485	32155.17
705.83	31794.95
706.175	31874.27
706.52	31868.17
706.865	31607.84
707.209	31520.84
707.554	31481.74
707.899	31432.7
708.243	31214.86
708.588	31168.76
708.932	31023.68
709.277	31022.77
709.621	30819.61
709.966	30571.03
710.31	30707.98
710.654	30377.14
710.998	30597.7
711.342	30507.53
711.687	30477.93
712.031	30266.41
712.375	30218.95
712.719	30151.38
713.063	30127.88
713.407	30291.94
713.75	30125.62
714.094	29945.29
714.438	29831.39
714.782	29894.21
715.125	29727.44
715.469	29933.76
715.812	29663.71
716.156	29627.78
716.499	29694.45
716.843	29569.25
717.186	29503.49
717.53	29619.19
717.873	29534.68
718.216	29458.52
718.559	29444.06
718.902	29075.48
719.246	29339.2
719.589	29298.98
719.932	29225.98
720.275	29244.06
720.617	29284.74
720.96	29162.71
721.303	29211.75
721.646	29336.94
721.989	29063.95
722.331	29161.13
722.674	29148.02
723.016	29169.49
723.359	28975.37
723.701	29113.9
724.044	28971.53
724.386	28878.65
724.729	29071.64
725.071	29118.42
725.413	28863.05
725.755	28928.59
726.097	28954.8
726.439	28909.38
726.782	28953.22
727.124	28966.33
727.465	28947.8
727.807	28903.28
728.149	28962.04
728.491	28911.64
728.833	29148.7
729.175	28953
729.516	28912.77
729.858	28927.01
730.199	29073.9
730.541	29052.88
730.882	29022.37
731.224	29076.38
731.565	28941.92
731.906	28945.09
732.248	29095.82
732.589	28834.81
732.93	28887.46
733.271	29000
733.612	29229.82
733.953	29174.46
734.294	29153.22
734.635	29157.28
734.976	29387.11
735.317	29282.93
735.658	29171.75
735.999	29191.41
736.339	29368.13
736.68	29370.39
737.021	29386.43
737.361	29315.02
737.702	29639.98
738.042	29399.31
738.383	29557.95
738.723	29638.63
739.063	29628.68
739.404	29784.39
739.744	29894.21
740.084	29718.85
740.424	29867.32
740.764	29940.77
741.104	30087.2
741.444	29984.61
741.784	30045.62
742.124	30126.75
742.464	30173.3
742.804	30180.76
743.143	30232.28
743.483	30424.82
743.823	30382.11
744.162	30527.19
744.502	30641.09
744.841	30668.2
745.181	30922.21
745.52	30820.07
745.86	30934.41
746.199	31064.8
746.538	31202.88
746.877	31388.86
747.216	31431.12
747.556	31394.51
747.895	31725.35
748.234	31801.96
748.573	31944.78
748.911	32019.58
749.25	32188.84
749.589	32139.8
749.928	32480.59
750.267	32586.57
750.605	32603.07
750.944	32835.38
751.283	32898.65
751.621	33170.74
751.96	33086.67
752.298	33309.72
752.636	33385.65
752.975	33472.88
753.313	33668.58
