Data from 635_FLMS001491_007.txt Node
Date: Thu Apr 19 16:46:29 BST 2018
User: hsy
Spectrometer: FLMS00149
Trigger mode: 0
Integration Time (sec): 1.000000E-2
Scans to average: 10
Electric dark correction enabled: true
Nonlinearity correction enabled: false
Boxcar width: 0
XAxis mode: Wavelengths
Number of Pixels in Spectrum: 2048
>>>>>Begin Spectral Data<<<<<
341.393	-13.18
341.776	-13.18
342.16	-13.18
342.543	-69.67
342.927	-61.09
343.31	-58.6
343.693	-75.32
344.077	-61.09
344.46	-76.45
344.843	-46.85
345.226	-60.63
345.61	-18.83
345.993	-21.09
346.376	2.87
346.759	-9.11
347.142	38.12
347.525	48.06
347.908	74.05
348.291	75.41
348.674	89.87
349.057	99.59
349.44	122.41
349.823	136.2
350.206	182.3
350.588	222.52
350.971	243.54
351.354	276.31
351.737	273.82
352.119	280.83
352.502	284.67
352.884	304.78
353.267	306.81
353.65	334.84
354.032	330.99
354.414	338.45
354.797	342.29
355.179	365.8
355.562	368.73
355.944	382.29
356.326	377.77
356.709	394.27
357.091	368.51
357.473	384.78
357.855	388.62
358.238	373.93
358.62	398.56
359.002	381.16
359.384	396.98
359.766	395.4
360.148	382.97
360.53	385.23
360.912	392.91
361.294	374.83
361.676	378.45
362.057	359.69
362.439	376.87
362.821	384.55
363.203	358.56
363.584	370.99
363.966	366.93
364.348	391.11
364.729	350.88
365.111	362.63
365.493	356.3
365.874	379.81
366.256	366.25
366.637	355.17
367.019	359.47
367.4	342.29
367.781	367.38
368.163	361.95
368.544	372.35
368.925	366.02
369.306	359.02
369.688	348.39
370.069	360.6
370.45	355.4
370.831	385.23
371.212	352.24
371.593	375.74
371.974	361.5
372.355	372.8
372.736	355.63
373.117	368.51
373.498	368.51
373.879	339.36
374.26	384.1
374.641	370.09
375.021	396.08
375.402	389.52
375.783	399.47
376.163	401.27
376.544	382.52
376.925	380.71
377.305	386.36
377.686	390.65
378.066	379.13
378.447	406.25
378.827	397.21
379.208	405.57
379.588	394.27
379.968	413.48
380.349	427.26
380.729	410.54
381.109	430.88
381.489	416.42
381.87	420.48
382.25	435.62
382.63	440.37
383.01	434.49
383.39	441.27
383.77	424.78
384.15	443.76
384.53	439.92
384.91	440.37
385.29	447.15
385.67	460.93
386.049	460.93
386.429	461.61
386.809	457.32
387.189	473.82
387.568	469.75
387.948	458.45
388.328	494.38
388.707	478.56
389.087	462.29
389.466	495.51
389.846	490.76
390.225	497.09
390.605	501.84
390.984	501.16
391.363	494.38
391.743	501.84
392.122	521.27
392.501	531.67
392.881	520.14
393.26	526.24
393.639	527.6
394.018	526.24
394.397	550.65
394.776	557.2
395.155	534.6
395.534	547.49
395.913	561.72
396.292	561.5
396.671	566.02
397.05	570.08
397.429	586.81
397.808	572.8
398.186	608.27
398.565	585.22
398.944	604.66
399.323	610.99
399.701	582.06
400.08	599.24
400.458	627.48
400.837	629.74
401.215	621.16
401.594	626.81
401.972	630.42
402.351	649.63
402.729	645.34
403.107	661.38
403.486	679.91
403.864	680.59
404.242	692.79
404.62	704.77
404.999	705.9
405.377	705.67
405.755	743.41
406.133	766.46
406.511	763.53
406.889	761.27
407.267	798.78
407.645	783.19
408.023	801.26
408.401	811.66
408.779	850.3
409.156	857.53
409.534	838.1
409.912	874.71
410.29	891.88
410.667	921.49
411.045	935.95
411.422	950.19
411.8	959.45
412.178	995.16
412.555	993.58
412.933	1040.35
413.31	1000.13
413.687	1057.75
414.065	1071.77
414.442	1094.59
414.819	1096.85
415.197	1134.14
415.574	1129.62
415.951	1149.05
416.328	1165.32
416.705	1189.73
417.082	1205.1
417.46	1198.32
417.837	1246.68
418.214	1268.14
418.591	1285.32
418.967	1278.77
419.344	1326.67
419.721	1299.33
420.098	1313.34
420.475	1350.4
420.852	1356.28
421.228	1369.84
421.605	1392.89
421.982	1421.81
422.358	1424.3
422.735	1472.43
423.111	1447.35
423.488	1490.96
423.864	1497.97
424.241	1499.78
424.617	1551.08
424.994	1575.93
425.37	1570.51
425.746	1608.02
426.123	1621.58
426.499	1635.37
426.875	1680.56
427.251	1689.83
427.627	1727.57
428.003	1730.51
428.379	1717.17
428.756	1762.37
429.132	1798.75
429.507	1848.02
429.883	1830.39
430.259	1862.93
430.635	1917.39
431.011	1908.13
431.387	1971.18
431.763	2023.15
432.138	1968.01
432.514	2055.02
432.89	2045.07
433.265	2123.94
433.641	2172.75
434.016	2131.4
434.392	2219.08
434.767	2219.76
435.143	2245.52
435.518	2285.07
435.894	2309.47
436.269	2337.27
436.644	2384.73
437.02	2446.87
437.395	2432.41
437.77	2466.98
438.145	2495.46
438.52	2508.79
438.895	2539.3
439.271	2557.6
439.646	2584.95
440.021	2655.68
440.395	2656.36
440.77	2626.98
441.145	2679.86
441.52	2727.99
441.895	2741.33
442.27	2774.09
442.645	2791.04
443.019	2835.11
443.394	2814.09
443.769	2851.38
444.143	2877.82
444.518	2897.03
444.892	2901.32
445.267	2920.98
445.641	2946.07
446.016	3003.69
446.39	2976.8
446.764	3058.83
447.139	3026.74
447.513	3067.65
447.887	3112.84
448.262	3096.57
448.636	3105.61
449.01	3178.6
449.384	3178.38
449.758	3236.68
450.132	3267.64
450.506	3289.56
450.88	3282.33
451.254	3304.93
451.628	3364.13
452.002	3398.94
452.376	3429.67
452.75	3520.51
453.123	3516
453.497	3576.56
453.871	3618.14
454.244	3684.13
454.618	3731.13
454.992	3736.55
455.365	3786.95
455.739	3840.73
456.112	3903.33
456.486	4005.02
456.859	4002.54
457.232	4106.26
457.606	4162.98
457.979	4202.76
458.352	4294.05
458.725	4312.13
459.099	4369.98
459.472	4405.92
459.845	4474.84
460.218	4498.34
460.591	4566.14
460.964	4623.54
461.337	4695.4
461.71	4826.02
462.083	4849.52
462.456	4873.93
462.829	4859.91
463.201	5029.4
463.574	5002.51
463.947	5074.37
464.32	5132
464.692	5245.67
465.065	5278.89
465.438	5310.98
465.81	5415.61
466.183	5469.62
466.555	5583.29
466.928	5591.19
467.3	5617.41
467.672	5717.52
468.045	5856.5
468.417	5843.84
468.789	5848.14
469.161	5988.02
469.534	6094.68
469.906	6179.2
470.278	6206.32
470.65	6334.68
471.022	6473.43
471.394	6551.17
471.766	6610.15
472.138	6683.37
472.51	6892.4
472.882	6882.91
473.253	6974.89
473.625	7089.46
473.997	7259.4
474.369	7353.41
474.74	7364.03
475.112	7576.91
475.484	7628.66
475.855	7725.38
476.227	7868.2
476.598	8081.07
476.97	8148.87
477.341	8316.55
477.713	8439.03
478.084	8530.1
478.455	8760.83
478.827	8761.73
479.198	9093.48
479.569	9122.4
479.94	9369.4
480.311	9457.53
480.682	9685.55
481.053	9888.71
481.424	10048.48
481.795	10135.26
482.166	10265.42
482.537	10403.05
482.908	10625.86
483.279	10866.31
483.65	11032.86
484.021	11224.27
484.391	11377.48
484.762	11592.84
485.133	11656.12
485.503	11786.74
485.874	12114.87
486.244	12205.94
486.615	12494.52
486.985	12720.95
487.356	12864.45
487.726	13069.42
488.097	13325
488.467	13406.36
488.837	13692.68
489.207	13790.3
489.578	14093.8
489.948	14173.57
490.318	14495.59
490.688	14468.93
491.058	14771.74
491.428	15052.87
491.798	15105.75
492.168	15416.47
492.538	15562.46
492.908	15763.13
493.278	15970.36
493.648	16066.63
494.017	16383.68
494.387	16530.34
494.757	16577.57
495.126	16795.87
495.496	16874.97
495.866	17152.02
496.235	17224.56
496.605	17500.94
496.974	17643.76
497.344	17846.92
497.713	17945.67
498.082	17997.2
498.452	18242.39
498.821	18441.93
499.19	18413.23
499.559	18647.12
499.928	18877.17
500.298	18881.01
500.667	19107
501.036	19178.41
501.405	19406.2
501.774	19392.19
502.143	19606.19
502.512	19802.8
502.88	19904.72
503.249	19930.25
503.618	20124.37
503.987	20111.04
504.356	20349
504.724	20582.89
505.093	20526.85
505.462	20744.69
505.83	20837.35
506.199	21007.74
506.567	21299.26
506.936	21315.08
507.304	21612.69
507.672	21769.07
508.041	21744.89
508.409	22001.61
508.777	22184.88
509.145	22321.83
509.514	22287.7
509.882	22453.12
510.25	22586.68
510.618	22846.11
510.986	22842.27
511.354	23051.98
511.722	23265.08
512.09	23457.17
512.458	23366.32
512.826	23722.92
513.193	23784.61
513.561	23918.62
513.929	24016.47
514.297	24288.56
514.664	24403.36
515.032	24534.88
515.4	24827.07
515.767	24870.01
516.135	24917.69
516.502	24776.91
516.869	25351.13
517.237	25393.39
517.604	25293.73
517.972	25800.15
518.339	25830.21
518.706	25972.81
519.073	26070.2
519.44	26212.35
519.808	26448.05
520.175	26533.24
520.542	26859.56
520.909	26883.29
521.276	27017.75
521.643	27286.9
522.009	27372.99
522.376	27567.11
522.743	27765.3
523.11	28045.29
523.477	28223.14
523.843	28336.13
524.21	28651.83
524.577	28844.37
524.943	28929.56
525.31	29008.66
525.676	29338.59
526.043	29538.36
526.409	29650.9
526.776	29826.72
527.142	29995.75
527.508	30120.04
527.874	30373.14
528.241	30439.13
528.607	30576.75
528.973	30816.75
529.339	30830.76
529.705	31166.34
530.071	31275.72
530.437	31493.56
530.803	31574.01
531.169	31734.01
531.535	31717.29
531.901	31873.44
532.267	31978.75
532.632	32235.69
532.998	32164.96
533.364	32395.24
533.73	32430.49
534.095	32579.86
534.461	32602.46
534.826	32777.82
535.192	32908.89
535.557	32999.74
535.923	32943.7
536.288	33094.65
536.653	33171.71
537.019	33114.76
537.384	33273.86
537.749	33367.41
538.114	33255.33
538.479	33312.73
538.845	33395.21
539.21	33289.9
539.575	33357.7
539.94	33586.16
540.305	33543.23
540.67	33567.86
541.034	33558.82
541.399	33684.69
541.764	33715.2
542.129	33739.61
542.494	33786.84
542.858	33832.49
543.223	33683.11
543.587	33977.79
543.952	33852.15
544.316	33820.06
544.681	33785.93
545.045	34025.93
545.41	34059.82
545.774	33952.48
546.138	33952.48
546.503	33897.34
546.867	33961.75
547.231	34229.76
547.595	34046.72
547.959	34113.16
548.324	34077.9
548.688	34028.87
549.052	34128.52
549.416	34066.38
549.779	34130.11
550.143	34147.28
550.507	34314.06
550.871	34315.19
551.235	34192.02
551.599	34414.62
551.962	34432.7
552.326	34460.94
552.689	34444
553.053	34334.17
553.417	34449.87
553.78	34598.57
554.143	34505.46
554.507	34607.16
554.87	34574.61
555.234	34896.86
555.597	34574.16
555.96	34613.26
556.323	34789.07
556.686	34814.16
557.05	34940.93
557.413	34948.39
557.776	34921.5
558.139	35148.16
558.502	35072
558.865	35083.53
559.228	35306.57
559.59	35224.09
559.953	35273.58
560.316	35565.55
560.679	35456.17
561.041	35657.3
561.404	35814.81
561.767	35848.93
562.129	35875.14
562.492	35931.64
562.854	35913.56
563.217	35980
563.579	36093.44
563.941	36316.94
564.304	36249.6
564.666	36598.29
565.028	36301.8
565.39	36481.46
565.753	36790.15
566.115	36713.31
566.477	36784.72
566.839	36790.6
567.201	37206.41
567.563	37215
567.925	37272.85
568.287	37100.87
568.648	37177.03
569.01	37425.39
569.372	37743.34
569.734	37563.69
570.095	37664.93
570.457	37925.94
570.819	37843.45
571.18	37889.1
571.542	38142.2
571.903	38148.76
572.265	38087.74
572.626	38257.91
572.987	38223.33
573.349	38290.45
573.71	38375.19
574.071	38495.41
574.432	38501.06
574.794	38851.79
575.155	38638.91
575.516	38675.97
575.877	38782.19
576.238	38678.01
576.599	38947.61
576.96	38915.29
577.32	38826.25
577.681	38823.54
578.042	39013.59
578.403	38995.51
578.763	38906.48
579.124	39129.75
579.485	39302.17
579.845	39195.06
580.206	39199.58
580.566	39197.99
580.927	39089.52
581.287	39321.16
581.648	39141.27
582.008	39233.25
582.368	39214.27
582.728	39225.79
583.089	39111.9
583.449	39144.21
583.809	39137.43
584.169	39204.55
584.529	39151.44
584.889	39369.06
585.249	39169.07
585.609	39065.34
585.969	39170.65
586.329	39044.55
586.688	39110.99
587.048	38986.93
587.408	39028.73
587.768	38922.07
588.127	38939.7
588.487	38921.62
588.846	39284.09
589.206	38790.77
589.565	38832.13
589.925	38899.25
590.284	38920.26
590.643	38874.84
591.003	38928.4
591.362	39005.91
591.721	39011.11
592.08	38926.82
592.44	38954.84
592.799	38668.07
593.158	38697.89
593.517	38678.01
593.876	38823.77
594.235	38645.92
594.593	38641.63
594.952	38849.3
595.311	38638.91
595.67	38750.1
596.029	38888.17
596.387	38996.42
596.746	38882.52
597.104	38659.48
597.463	38732.47
597.822	38800.04
598.18	38672.58
598.538	38596.2
598.897	39020.15
599.255	38741.74
599.613	39243.87
599.972	38761.62
600.33	38911.9
600.688	38785.35
601.046	38869.19
601.404	39059.47
601.762	39007.04
602.12	39090.88
602.478	39147.15
602.836	39065.34
603.194	38866.03
603.552	39045.23
603.91	38977.89
604.268	38987.83
604.625	38910.54
604.983	39139.69
605.341	38889.3
605.698	39310.76
606.056	39390.08
606.413	39103.31
606.771	39431.21
607.128	39420.36
607.485	39251.33
607.843	39282.51
608.2	39401.61
608.557	39468.95
608.914	39455.16
609.272	39681.82
609.629	39774.93
609.986	39819.22
610.343	39669.39
610.7	39993
611.057	39929.95
611.414	39774.93
611.771	40152.77
612.127	40007.24
612.484	40182.83
612.841	40314.35
613.198	40064.86
613.554	40236.84
613.911	40376.27
614.267	40382.82
614.624	40483.61
614.98	40496.04
615.337	40638.18
615.693	40494.68
616.05	40675.24
616.406	40919.31
616.762	40721.57
617.118	40682.7
617.475	40824.62
617.831	40950.49
618.187	40908.91
618.543	41084.72
618.899	41160.88
619.255	41195.91
619.611	41175.57
619.967	41380.99
620.323	41449.01
620.678	41212.18
621.034	41253.76
621.39	41231.16
621.746	41290.6
622.101	41670.02
622.457	41320.88
622.812	41517.03
623.168	41621.89
623.523	41614.88
623.879	41766.74
624.234	41478.16
624.589	41638.16
624.945	41608.1
625.3	41661.43
625.655	41725.61
626.01	41598.16
626.365	41699.85
626.72	41699.4
627.075	41582.56
627.43	41695.1
627.785	41642.68
628.14	41572.17
628.495	41613.75
628.85	41720.64
629.205	41682.45
629.559	41816.91
629.914	41650.81
630.269	41670.47
630.623	41427.54
630.978	41457.14
631.332	41617.14
631.687	41621.21
632.041	41646.29
632.396	41552.06
632.75	41432.96
633.104	41533.07
633.459	41278.62
633.813	41281.56
634.167	41305.51
634.521	41306.41
634.875	41214.89
635.229	41110.03
635.583	41002.47
635.937	41027.55
636.291	41004.05
636.645	40975.35
636.999	40705.75
637.352	41115.01
637.706	40758.86
638.06	40976.25
638.413	40748.46
638.767	40659.88
639.121	40761.34
639.474	40601.12
639.828	40557.28
640.181	40567.9
640.534	40700.1
640.888	40499.88
641.241	40393.9
641.594	40505.98
641.947	40535.59
642.301	40276.61
642.654	40396.83
643.007	40240.91
643.36	40321.36
643.713	40347.57
644.066	40506.66
644.419	40143.51
644.771	39861.93
645.124	39458.1
645.477	39458.78
645.83	39286.35
646.182	39296.52
646.535	39227.37
646.888	39256.07
647.24	39302.85
647.593	39495.84
647.945	39285.22
648.298	39223.3
648.65	38934.05
649.002	38884.78
649.355	38937.44
649.707	38807.04
650.059	38833.48
650.411	39292.23
650.763	39443.86
651.115	40040.46
651.467	39912.55
651.819	40005.66
652.171	39871.2
652.523	39834.14
652.875	39930.63
653.227	39867.81
653.578	40011.76
653.93	39840.01
654.282	39716.4
654.633	39771.54
654.985	39776.96
655.337	39888.15
655.688	39689.06
656.039	39988.48
656.391	39714.59
656.742	39844.76
657.094	39823.74
657.445	39785.1
657.796	40018.09
658.147	39778.32
658.498	39897.19
658.849	40032.55
659.2	39853.12
659.551	39828.49
659.902	39826.45
660.253	39791.65
660.604	40041.36
660.955	39924.08
661.306	40040.46
661.656	40004.98
662.007	40080.68
662.358	40113
662.708	39902.38
663.059	39973.12
663.409	39959.78
663.76	40121.36
664.11	40283.62
664.461	40160.91
664.811	40203.39
665.161	40159.33
665.511	40142.38
665.862	40191.64
666.212	40273.22
666.562	40350.96
666.912	40254.92
667.262	40143.96
667.612	40219.44
667.962	40263.73
668.312	40234.35
668.662	40342.37
669.011	40365.2
669.361	40203.39
669.711	40342.15
670.06	40267.12
670.41	40098.76
670.76	40132.21
671.109	40244.29
671.459	40211.53
671.808	40214.47
672.157	40253.79
672.507	39909.61
672.856	39984.41
673.205	40088.37
673.554	40138.54
673.904	39857.41
674.253	40136.05
674.602	39979.44
674.951	39548.27
675.3	39215.17
675.649	40051.08
675.998	39864.64
676.346	40040.01
676.695	39992.32
677.044	39678.21
677.393	39840.92
677.741	39894.93
678.09	39863.51
678.438	39763.63
678.787	39870.75
679.135	39661.94
679.484	39549.17
679.832	39561.83
680.181	39434.82
680.529	39495.39
680.877	39522.05
681.225	39344.21
681.573	39661.26
681.922	39216.3
682.27	39122.52
682.618	39070.54
682.966	39199.58
683.314	39050.43
683.661	39050.65
684.009	38867.16
684.357	38735.63
684.705	38603.43
685.053	38599.37
685.4	38493.61
685.748	38369.54
686.095	38423.78
686.443	38194.86
686.79	38182.43
687.138	38187.17
687.485	38130.23
687.832	38019.49
688.18	37998.48
688.527	37878.26
688.874	37720.29
689.221	37551.94
689.568	37494.31
689.915	37457.25
690.262	37325.95
690.609	37227.43
690.956	37060.42
691.303	36982.46
691.65	36830.83
691.997	36779.75
692.344	36359.88
692.69	36493.66
693.037	36605.75
693.383	36139.77
693.73	36345.41
694.077	36012.09
694.423	36092.99
694.769	35962.15
695.116	35866.56
695.462	35659.78
695.808	35479.9
696.155	35595.6
696.501	35179.57
696.847	35269.51
697.193	35032.91
697.539	34976.64
697.885	34607.38
698.231	34540.72
698.577	34583.88
698.923	34530.09
699.269	34265.02
699.614	34138.69
699.96	33931.92
700.306	33980.96
700.651	33841.3
700.997	33596.33
701.342	33469.33
701.688	33507.52
702.033	33341.2
702.379	33257.36
702.724	33038.16
703.069	33142.79
703.415	32772.4
703.76	32663.25
704.105	32661.9
704.45	32463.48
704.795	32454.67
705.14	32390.04
705.485	32269.82
705.83	31903.27
706.175	32212.42
706.52	31948.02
706.865	31818.3
707.209	31670.06
707.554	31654.46
707.899	31571.75
708.243	31317.52
708.588	31458.31
708.932	31198.66
709.277	31245.89
709.621	31099.45
709.966	30805
710.31	30914.6
710.654	30767.03
710.998	30762.06
711.342	30745.11
711.687	30565.45
712.031	30507.38
712.375	30434.61
712.719	30483.87
713.063	30275.97
713.407	30473.7
713.75	30220.6
714.094	30273.94
714.438	30143.32
714.782	30126.14
715.125	29930.22
715.469	30197.78
715.812	29884.34
716.156	29776.77
716.499	29772.48
716.843	29879.14
717.186	29689.54
717.53	29889.31
717.873	29954.85
718.216	29812.7
718.559	29704.46
718.902	29439.16
719.246	29680.05
719.589	29513.5
719.932	29473.5
720.275	29453.39
720.617	29497.91
720.96	29456.56
721.303	29533.84
721.646	29565.93
721.989	29402.09
722.331	29517.35
722.674	29354.86
723.016	29493.62
723.359	29275.09
723.701	29390.57
724.044	29266.5
724.386	29280.74
724.729	29392.15
725.071	29274.87
725.413	29229.22
725.755	29160.52
726.097	29290.01
726.439	29092.5
726.782	29178.6
727.124	29177.24
727.465	29173.85
727.807	29158.71
728.149	29226.05
728.491	29094.08
728.833	29293.62
729.175	29204.81
729.516	29132.04
729.858	29086.4
730.199	29226.28
730.541	29254.08
730.882	29142.67
731.224	29266.96
731.565	29199.39
731.906	29170.46
732.248	29221.08
732.589	29160.97
732.93	29159.84
733.271	29252.27
733.612	29297.01
733.953	29362.1
734.294	29200.07
734.635	29239.61
734.976	29471.24
735.317	29354.64
735.658	29403.9
735.999	29414.98
736.339	29581.75
736.68	29607.29
737.021	29478.48
737.361	29574.97
737.702	29774.74
738.042	29753.27
738.383	29748.53
738.723	29864.91
739.063	29823.78
739.404	30029.2
739.744	29989.88
740.084	29856.77
740.424	29994.39
740.764	30058.8
741.104	30216.54
741.444	30038.69
741.784	30172.47
742.124	30384.22
742.464	30461.73
742.804	30445.68
743.143	30369.53
743.483	30653.36
743.823	30656.07
744.162	30669.41
744.502	30852.23
744.841	30829.85
745.181	31089.51
745.52	31188.26
745.86	31421.02
746.199	31329.95
746.538	31471.64
746.877	31622.6
747.216	31640
747.556	31597.29
747.895	31901.01
748.234	31940.11
748.573	32087.22
748.911	32304.62
749.25	32211.29
749.589	32380.55
749.928	32508.91
750.267	32735.57
750.605	32829.57
750.944	32832.96
751.283	32919.06
751.621	33225.04
751.96	33270.02
752.298	33409.45
752.636	33587.52
752.975	33653.51
753.313	33753.62
753.651	34033.38
