Data from 635_FLMS001491_010.txt Node
Date: Thu Apr 19 16:46:37 BST 2018
User: hsy
Spectrometer: FLMS00149
Trigger mode: 0
Integration Time (sec): 1.000000E-2
Scans to average: 10
Electric dark correction enabled: true
Nonlinearity correction enabled: false
Boxcar width: 0
XAxis mode: Wavelengths
Number of Pixels in Spectrum: 2048
>>>>>Begin Spectral Data<<<<<
341.393	-5.75
341.776	-5.75
342.16	-5.75
342.543	-67.22
342.927	-78.29
343.31	-69.25
343.693	-56.14
344.077	-74.45
344.46	-73.32
344.843	-56.82
345.226	-37.39
345.61	-31.74
345.993	-19.76
346.376	5.32
346.759	1.48
347.142	20.92
347.525	49.39
347.908	56.17
348.291	90.75
348.674	100.69
349.057	94.14
349.44	121.93
349.823	137.52
350.206	171.87
350.588	227.01
350.971	259.56
351.354	265.88
351.737	263.85
352.119	278.76
352.502	287.8
352.884	284.41
353.267	313.57
353.65	296.16
354.032	345.43
354.414	322.83
354.797	366.9
355.179	344.3
355.562	379.78
355.944	375.03
356.326	353.56
356.709	353.79
357.091	345.65
357.473	377.52
357.855	366.67
358.238	368.7
358.62	371.19
359.002	377.29
359.384	379.78
359.766	359.89
360.148	359.67
360.53	362.38
360.912	369.16
361.294	373.22
361.676	376.16
362.057	365.54
362.439	360.8
362.821	364.64
363.203	374.13
363.584	364.64
363.966	368.03
364.348	381.13
364.729	366.9
365.111	341.59
365.493	358.99
365.874	365.77
366.256	345.65
366.637	338.65
367.019	353.56
367.4	348.82
367.781	345.65
368.163	358.08
368.544	355.82
368.925	351.98
369.306	364.64
369.688	385.65
370.069	397.63
370.45	368.93
370.831	371.87
371.212	352.43
371.593	354.47
371.974	357.41
372.355	381.36
372.736	350.63
373.117	359.89
373.498	360.12
373.879	376.16
374.26	389.5
374.641	380.23
375.021	364.86
375.402	375.71
375.783	377.07
376.163	383.62
376.544	388.37
376.925	393.56
377.305	368.48
377.686	397.18
378.066	404.18
378.447	409.61
378.827	385.88
379.208	392.21
379.588	405.99
379.968	410.51
380.349	402.83
380.729	398.31
381.109	397.18
381.489	408.93
381.87	433.11
382.25	428.36
382.63	421.13
383.01	427.01
383.39	434.01
383.77	421.13
384.15	426.33
384.53	426.1
384.91	455.71
385.29	434.24
385.67	439.66
386.049	456.39
386.429	454.13
386.809	460.68
387.189	445.31
387.568	481.7
387.948	467.91
388.328	458.19
388.707	485.76
389.087	485.54
389.466	473.56
389.846	472.21
390.225	495.03
390.605	509.49
390.984	448.93
391.363	497.06
391.743	469.04
392.122	518.53
392.501	517.85
392.881	515.14
393.26	521.47
393.639	544.97
394.018	519.44
394.397	544.97
394.776	535.25
395.155	520.57
395.534	543.16
395.913	534.8
396.292	548.36
396.671	561.69
397.05	549.27
397.429	561.92
397.808	555.59
398.186	589.49
398.565	607.57
398.944	583.84
399.323	577.51
399.701	594.24
400.08	598.76
400.458	606.66
400.837	607.57
401.215	626.55
401.594	624.97
401.972	630.17
402.351	670.17
402.729	650.51
403.107	650.73
403.486	672.88
403.864	681.24
404.242	678.98
404.62	696.38
404.999	727.79
405.377	711.52
405.755	754.01
406.133	726.21
406.511	739.09
406.889	749.49
407.267	779.54
407.645	776.83
408.023	805.3
408.401	794.68
408.779	817.05
409.156	844.62
409.534	845.08
409.912	862.25
410.29	881.01
410.667	897.05
411.045	928.24
411.422	950.84
411.8	946.54
412.178	971.4
412.555	998.74
412.933	999.42
413.31	1026.99
413.687	1045.52
414.065	1047.11
414.442	1075.13
414.819	1088.91
415.197	1111.96
415.574	1135.46
415.951	1127.1
416.328	1153.77
416.705	1156.48
417.082	1167.55
417.46	1218.63
417.837	1204.84
418.214	1230.38
418.591	1265.4
418.967	1266.99
419.344	1272.86
419.721	1247.78
420.098	1326.42
420.475	1318.74
420.852	1310.38
421.228	1350.6
421.605	1345.63
421.982	1400.99
422.358	1384.72
422.735	1400.99
423.111	1440.09
423.488	1444.38
423.864	1455.23
424.241	1481.44
424.617	1537.04
424.994	1545.17
425.37	1543.36
425.746	1540.65
426.123	1607.77
426.499	1619.97
426.875	1644.6
427.251	1657.26
427.627	1669.24
428.003	1690.93
428.379	1720.08
428.756	1717.82
429.132	1781.1
429.507	1763.92
429.883	1816.8
430.259	1868.33
430.635	1861.55
431.011	1898.61
431.387	1954.2
431.763	1955.78
432.138	1984.26
432.514	2012.96
432.89	2036.23
433.265	2058.83
433.641	2096.8
434.016	2142.9
434.392	2183.35
434.767	2204.59
435.143	2225.15
435.518	2238.94
435.894	2289.33
436.269	2330.24
436.644	2335.88
437.02	2351.03
437.395	2386.28
437.77	2419.95
438.145	2448.88
438.52	2476.9
438.895	2528.42
439.271	2513.06
439.646	2593.96
440.021	2628.98
440.395	2614.97
440.77	2566.84
441.145	2631.02
441.52	2695.2
441.895	2713.5
442.27	2736.78
442.645	2731.58
443.019	2760.51
443.394	2786.04
443.769	2832.14
444.143	2773.61
444.518	2834.63
444.892	2861.29
445.267	2874.85
445.641	2910.33
446.016	2924.8
446.39	2971.12
446.764	2958.47
447.139	2951.91
447.513	3017.9
447.887	3032.36
448.262	3031.23
448.636	3073.72
449.01	3107.84
449.384	3113.49
449.758	3174.05
450.132	3228.29
450.506	3195.52
450.88	3238.69
451.254	3219.93
451.628	3298.12
452.002	3333.15
452.376	3423.31
452.75	3477.32
453.123	3467.83
453.497	3499.24
453.871	3542.86
454.244	3630.09
454.618	3656.08
454.992	3717.32
455.365	3735.17
455.739	3861.95
456.112	3863.3
456.486	3912.11
456.859	3943.3
457.232	4066.01
457.606	4023.07
457.979	4089.96
458.352	4199.56
458.725	4216.29
459.099	4283.4
459.472	4331.54
459.845	4377.87
460.218	4405.89
460.591	4502.61
460.964	4545.32
461.337	4609.72
461.71	4648.59
462.083	4718.65
462.456	4762.04
462.829	4760.68
463.201	4864.63
463.574	4912.31
463.947	4992.31
464.32	5067.11
464.692	5169.48
465.065	5101.01
465.438	5239.54
465.81	5295.13
466.183	5336.26
466.555	5417.61
466.928	5539.64
467.3	5515.46
467.672	5574.22
468.045	5702.35
468.417	5742.35
468.789	5767.43
469.161	5871.39
469.534	5995
469.906	6067.76
470.278	6106.86
470.65	6219.62
471.022	6338.94
471.394	6459.62
471.766	6475.21
472.138	6569.22
472.51	6700.52
472.882	6787.29
473.253	6858.03
473.625	6984.12
473.997	7132.14
474.369	7163.1
474.74	7267.28
475.112	7431.8
475.484	7463.66
475.855	7623.2
476.227	7742.75
476.598	7951.56
476.97	8039.92
477.341	8199.69
477.713	8300.02
478.084	8381.15
478.455	8605.1
478.827	8700.92
479.198	8888.03
479.569	8967.35
479.94	9159.43
480.311	9307.68
480.682	9528.46
481.053	9597.39
481.424	9815.46
481.795	9929.58
482.166	10153.53
482.537	10303.59
482.908	10503.13
483.279	10617.25
483.65	10803.91
484.021	11031.48
484.391	11127.97
484.762	11266.05
485.133	11398.7
485.503	11556.89
485.874	11915.29
486.244	11993.03
486.615	12235.74
486.985	12346.92
487.356	12633.24
487.726	12711.88
488.097	13126.79
488.467	13112.78
488.837	13435.48
489.207	13540.56
489.578	13723.83
489.948	14019.87
490.318	14182.13
490.688	14273.2
491.058	14509.12
491.428	14706.63
491.798	14822.34
492.168	15172.61
492.538	15263
492.908	15507.29
493.278	15714.29
493.648	15742.09
494.017	16055.98
494.387	16195.86
494.757	16285.8
495.126	16464.33
495.496	16559.92
495.866	16803.53
496.235	16990.64
496.605	17198.77
496.974	17212.33
497.344	17471.53
497.713	17596.05
498.082	17686.89
498.452	17918.07
498.821	18078.97
499.19	18170.72
499.559	18254.34
499.928	18436.7
500.298	18557.38
500.667	18736.81
501.036	18807.09
501.405	18877.6
501.774	19054.09
502.143	19151.26
502.512	19387.87
502.88	19568.88
503.249	19569.1
503.618	19800.96
503.987	19786.05
504.356	19993.05
504.724	20129.09
505.093	20248.41
505.462	20331.8
505.83	20345.35
506.199	20659.47
506.567	20901.27
506.936	20877.09
507.304	21114.83
507.672	21279.57
508.041	21407.7
508.409	21480.92
508.777	21766.56
509.145	21915.71
509.514	21870.51
509.882	22025.76
510.25	22167
510.618	22406.32
510.986	22402.7
511.354	22693.99
511.722	22785.06
512.09	23002.69
512.458	23003.36
512.826	23242
513.193	23282.23
513.561	23442.9
513.929	23496.68
514.297	23881.31
514.664	23961.08
515.032	24074.3
515.4	24326.04
515.767	24342.99
516.135	24499.37
516.502	24407.62
516.869	24875.18
517.237	24869.98
517.604	24832.02
517.972	25264.32
518.339	25322.4
518.706	25341.61
519.073	25514.48
519.44	25690.75
519.808	25976.39
520.175	26002.83
520.542	26275.82
520.909	26386.78
521.276	26508.13
521.643	26854.79
522.009	26905.86
522.376	27078.06
522.743	27209.58
523.11	27470.59
523.477	27613.41
523.843	27859.73
524.21	28148.77
524.577	28302.43
524.943	28483.67
525.31	28525.03
525.676	28875.3
526.043	28983.77
526.409	29157.33
526.776	29330.2
527.142	29446.36
527.508	29640.48
527.874	29726.13
528.241	29971.09
528.607	30139.22
528.973	30376.28
529.339	30205.89
529.705	30677.29
530.071	30798.64
530.437	30912.76
530.803	31122.47
531.169	31212.64
531.535	31167.9
531.901	31270.49
532.267	31438.62
532.632	31594.55
532.998	31746.41
533.364	31823.7
533.73	32004.03
534.095	32133.29
534.461	32151.15
534.826	32272.05
535.192	32280.63
535.557	32500.52
535.923	32365.38
536.288	32629.78
536.653	32709.55
537.019	32578.93
537.384	32687.4
537.749	32838.81
538.114	32786.38
538.479	32839.04
538.845	32934.85
539.21	32910.45
539.575	33107.28
539.94	33043.1
540.305	33204.68
540.67	33117.9
541.034	33202.42
541.399	33171.68
541.764	33224.11
542.129	33178.46
542.494	33294.39
542.858	33370.1
543.223	33312.25
543.587	33440.6
543.952	33373.49
544.316	33525.35
544.681	33368.97
545.045	33560.6
545.41	33542.97
545.774	33511.56
546.138	33441.51
546.503	33468.4
546.867	33549.75
547.231	33587.27
547.595	33646.47
547.959	33675.85
548.324	33661.16
548.688	33801.05
549.052	33785.68
549.416	33662.52
549.779	33650.32
550.143	33731.67
550.507	33899.57
550.871	33956.3
551.235	33874.49
551.599	34150.87
551.962	34021.61
552.326	34047.37
552.689	34121.94
553.053	33850.54
553.417	34090.08
553.78	34431.99
554.143	34254.82
554.507	34349.51
554.87	34328.49
555.234	34472.67
555.597	34239.68
555.96	34382.5
556.323	34485.32
556.686	34407.36
557.05	34602.61
557.413	34523.06
557.776	34630.85
558.139	34739.78
558.502	34634.47
558.865	34563.29
559.228	34961.47
559.59	34842.6
559.953	34889.83
560.316	35172.76
560.679	35176.6
561.041	35265.41
561.404	35443.49
561.767	35558.51
562.129	35472.41
562.492	35706.76
562.854	35625.41
563.217	35701.34
563.579	35734.33
563.941	35912.18
564.304	35953.98
564.666	36317.36
565.028	36046.18
565.39	36080.76
565.753	36227.65
566.115	36337.02
566.477	36485.27
566.839	36442.33
567.201	36878.03
567.563	36654.3
567.925	36851.81
568.287	36877.12
568.648	36913.96
569.01	37169.32
569.372	37329.32
569.734	37147.62
570.095	37430.1
570.457	37564.11
570.819	37545.35
571.18	37441.18
571.542	37686.82
571.903	37559.14
572.265	37869.87
572.626	37852.69
572.987	37994.83
573.349	38066.7
573.71	38106.92
574.071	38123.64
574.432	38352.57
574.794	38489.06
575.155	38408.61
575.516	38314.15
575.877	38670.3
576.238	38537.87
576.599	38553.01
576.96	38539.9
577.32	38624.87
577.681	38678.88
578.042	38759.79
578.403	38818.77
578.763	38804.98
579.124	38728.37
579.485	39016.73
579.845	38912.32
580.206	38888.37
580.566	38836.17
580.927	38925.21
581.287	38985.54
581.648	38800.69
582.008	38963.62
582.368	38976.5
582.728	39004.98
583.089	38964.3
583.449	38898.99
583.809	38887.24
584.169	38983.51
584.529	38766.34
584.889	39160.91
585.249	38878.88
585.609	38711.2
585.969	38970.18
586.329	38747.13
586.688	38858.77
587.048	38906.45
587.408	38618.77
587.768	38628.94
588.127	38656.29
588.487	38567.93
588.846	38882.49
589.206	38543.75
589.565	38716.17
589.925	38663.97
590.284	38587.59
590.643	38463.3
591.003	38545.33
591.362	38741.48
591.721	38561.15
592.08	38578.32
592.44	38669.62
592.799	38411.09
593.158	38556.63
593.517	38377.42
593.876	38545.1
594.235	38477.99
594.593	38549.85
594.952	38398.21
595.311	38302.4
595.67	38471.66
596.029	38590.98
596.387	38440.92
596.746	38642.27
597.104	38381.04
597.463	38492.22
597.822	38559.79
598.18	38465.56
598.538	38383.07
598.897	38771.31
599.255	38350.08
599.613	38874.36
599.972	38520.7
600.33	38589.85
600.688	38590.75
601.046	38673.91
601.404	38794.81
601.762	38718.88
602.12	38823.97
602.478	38735.15
602.836	38739.45
603.194	38629.39
603.552	38776.06
603.91	38720.69
604.268	38699.45
604.625	38765.89
604.983	39070.06
605.341	38647.02
605.698	39066.9
606.056	39136.27
606.413	38785.32
606.771	39106.44
607.128	39063.73
607.485	39017.41
607.843	39113
608.2	39319.55
608.557	39380.56
608.914	39327.45
609.272	39314.12
609.629	39531.97
609.986	39575.58
610.343	39515.47
610.7	39859.64
611.057	39683.83
611.414	39632.76
611.771	39927.44
612.127	40047.89
612.484	39896.71
612.841	40047.89
613.198	39954.78
613.554	39849.47
613.911	40186.87
614.267	40113.87
614.624	40152.97
614.98	40384.83
615.337	40467.99
615.693	40435.9
616.05	40376.92
616.406	40547.08
616.762	40482.45
617.118	40579.4
617.475	40601.09
617.831	40729.9
618.187	40859.84
618.543	40772.84
618.899	41027.97
619.255	41070.91
619.611	40916.11
619.967	41064.13
620.323	41199.04
620.678	40986.39
621.034	41063
621.39	40948.88
621.746	40907.3
622.101	41472.03
622.457	41157.69
622.812	41355.42
623.168	41318.59
623.523	41349.1
623.879	41390
624.234	41183.23
624.589	41390.68
624.945	41319.27
625.3	41422.99
625.655	41564.01
626.01	41504.35
626.365	41637.9
626.72	41350.68
627.075	41433.16
627.43	41339.15
627.785	41434.07
628.14	41327.18
628.495	41543.22
628.85	41572.14
629.205	41479.49
629.559	41562.42
629.914	41471.58
630.269	41485.14
630.623	41326.72
630.978	41188.42
631.332	41485.82
631.687	41404.46
632.041	41274.75
632.396	41311.58
632.75	41329.44
633.104	41168.99
633.459	41125.6
633.813	41094.87
634.167	41106.16
634.521	40987.52
634.875	41145.03
635.229	40898.03
635.583	40900.97
635.937	40825.04
636.291	40774.87
636.645	40785.72
636.999	40472.74
637.352	40696.68
637.706	40545.28
638.06	40703.92
638.413	40487.88
638.767	40535.78
639.121	40460.76
639.474	40403.13
639.828	40401.78
640.181	40444.49
640.534	40452.4
640.888	40234.1
641.241	40055.8
641.594	40229.13
641.947	40383.7
642.301	39990.26
642.654	40221.44
643.007	40021.45
643.36	40157.94
643.713	40069.13
644.066	40171.5
644.419	39932.64
644.771	39612.87
645.124	39251.98
645.477	39212.2
645.83	39094.47
646.182	38962.27
646.535	38932.89
646.888	39096.5
647.24	38938.99
647.593	39145.99
647.945	38982.15
648.298	38812.67
648.65	38750.29
649.002	38640.47
649.355	38625.1
649.707	38558.21
650.059	38538.77
650.411	39140.34
650.763	39321.35
651.115	39916.82
651.467	39669.14
651.819	39679.54
652.171	39549.6
652.523	39447.9
652.875	39590.27
653.227	39397.96
653.578	39737.84
653.93	39696.26
654.282	39378.98
654.633	39507.11
654.985	39663.94
655.337	39600.22
655.688	39553.44
656.039	39721.34
656.391	39419.88
656.742	39515.92
657.094	39523.61
657.445	39618.07
657.796	39712.08
658.147	39553.44
658.498	39658.97
658.849	39736.03
659.2	39636.15
659.551	39573.1
659.902	39808.12
660.253	39582.14
660.604	39727.67
660.955	39607.45
661.306	39710.5
661.656	39756.14
662.007	39806.09
662.358	39794.11
662.708	39791.85
663.059	39747.56
663.409	39612.42
663.76	39791.17
664.11	39970.15
664.461	39936.25
664.811	39982.58
665.161	39929.7
665.511	39876.59
665.862	39908.68
666.212	40079.75
666.562	40083.14
666.912	40028
667.262	39776.26
667.612	39877.72
667.962	40135.79
668.312	39917.27
668.662	40181.22
669.011	40093.54
669.361	39906.87
669.711	40040.88
670.06	39976.03
670.41	39834.56
670.76	39876.82
671.109	40003.14
671.459	40005.18
671.808	39898.97
672.157	40049.47
672.507	39672.98
672.856	39795.92
673.205	39813.77
673.554	40088.34
673.904	39657.39
674.253	39845.86
674.602	39901.45
674.951	39298.75
675.3	39147.8
675.649	39715.47
675.998	39722.92
676.346	39594.79
676.695	39757.5
677.044	39399.32
677.393	39575.36
677.741	39681.34
678.09	39517.28
678.438	39435.02
678.787	39428.24
679.135	39423.05
679.484	39142.6
679.832	39409.03
680.181	39359.54
680.529	39217.18
680.877	39158.19
681.225	39023.28
681.573	39250.85
681.922	39049.5
682.27	38909.16
682.618	38854.47
682.966	38775.83
683.314	38786.68
683.661	38736.96
684.009	38571.32
684.357	38610.64
684.705	38364.32
685.053	38390.53
685.4	38393.92
685.748	38107.15
686.095	38083.42
686.443	37851.79
686.79	37891.79
687.138	38036.64
687.485	37885.01
687.832	37654.5
688.18	37702.64
688.527	37540.38
688.874	37381.29
689.221	37347.62
689.568	37336.77
689.915	37161.41
690.262	37112.37
690.609	37004.58
690.956	36808.2
691.303	36818.59
691.65	36642.1
691.997	36484.82
692.344	36433.29
692.69	36306.07
693.037	36271.94
693.383	36054.32
693.73	35913.99
694.077	35876.02
694.423	35828.11
694.769	35749.47
695.116	35624.73
695.462	35447.33
695.808	35265.64
696.155	35368.01
696.501	35016.83
696.847	35032.65
697.193	34792.21
697.539	34825.65
697.885	34498.43
698.231	34420.01
698.577	34363.74
698.923	34398.77
699.269	33919.24
699.614	33867.03
699.96	33700.71
700.306	33771.22
700.651	33554.05
700.997	33538
701.342	33420.04
701.688	33277.44
702.033	33075.64
702.379	33144.11
702.724	32884.23
703.069	32992.48
703.415	32488.99
703.76	32574.64
704.105	32558.14
704.45	32312.27
704.795	32201.77
705.14	32189.11
705.485	32155.67
705.83	31794.32
706.175	31946.86
706.52	31675.45
706.865	31613.31
707.209	31468.23
707.554	31552.52
707.899	31497.83
708.243	31261
708.588	31151.4
708.932	30958.41
709.277	31118.86
709.621	30899.65
709.966	30754.35
710.31	30761.35
710.654	30490.62
710.998	30621.92
711.342	30431.42
711.687	30417.86
712.031	30308.93
712.375	30221.25
712.719	30160.01
713.063	30148.71
713.407	30296.51
713.75	30198.2
714.094	30117.53
714.438	29944.88
714.782	29881.83
715.125	29718.67
715.469	29973.35
715.812	29613.59
716.156	29628.5
716.499	29680.93
716.843	29658.78
717.186	29496.3
717.53	29725.22
717.873	29635.96
718.216	29536.98
718.559	29545.56
718.902	29172.69
719.246	29408.62
719.589	29198.23
719.932	29148.74
720.275	29184.22
720.617	29322.07
720.96	29243.43
721.303	29280.04
721.646	29237.78
721.989	29038.91
722.331	29183.09
722.674	29111.9
723.016	29138.8
723.359	28990.33
723.701	29142.19
724.044	28954.39
724.386	28889.31
724.729	29066.71
725.071	28949.42
725.413	28987.61
725.755	28878.92
726.097	28835.3
726.439	28812.48
726.782	28776.77
727.124	29053.15
727.465	28933.6
727.807	28903.1
728.149	28940.38
728.491	28934.73
728.833	28943.55
729.175	28918.46
729.516	28946.48
729.858	28937.9
730.199	28985.81
730.541	28924.11
730.882	28858.8
731.224	28994.62
731.565	28994.17
731.906	29000.72
732.248	29106.25
732.589	29015.86
732.93	29002.53
733.271	29028.29
733.612	29001.17
733.953	29351.9
734.294	29122.07
734.635	29111.68
734.976	29233.71
735.317	29240.26
735.658	29119.59
735.999	29236.19
736.339	29303.54
736.68	29373.59
737.021	29311.9
737.361	29303.99
737.702	29623.75
738.042	29431.44
738.383	29540.14
738.723	29645.22
739.063	29600.25
739.404	29820.81
739.744	29654.49
740.084	29660.82
740.424	29793.24
740.764	29664.21
741.104	30101.26
741.444	29824.43
741.784	29943.97
742.124	30129.28
742.464	30304.64
742.804	30131.54
743.143	30258.09
743.483	30392.77
743.823	30392.1
744.162	30488.37
744.502	30658.53
744.841	30609.49
745.181	30751.63
745.52	30856.94
745.86	31024.62
746.199	31082.47
746.538	31094.68
746.877	31405.86
747.216	31320.66
747.556	31409.47
747.895	31583.93
748.234	31727.43
748.573	31720.2
748.911	31851.04
749.25	32030.47
749.589	32023.24
749.928	32108.89
750.267	32463
750.605	32333.74
750.944	32674.97
751.283	32756.55
751.621	32884.46
751.96	32791.58
752.298	32925.36
752.636	33225.24
752.975	33287.84
753.313	33369.42
753.651	33784.1
753.989	33617.77
