Data from 635_FLMS001491_009.txt Node
Date: Thu Apr 19 16:46:34 BST 2018
User: hsy
Spectrometer: FLMS00149
Trigger mode: 0
Integration Time (sec): 1.000000E-2
Scans to average: 10
Electric dark correction enabled: true
Nonlinearity correction enabled: false
Boxcar width: 0
XAxis mode: Wavelengths
Number of Pixels in Spectrum: 2048
>>>>>Begin Spectral Data<<<<<
341.393	-7.57
341.776	-7.57
342.16	-7.57
342.543	-36.04
342.927	-59.77
343.31	-85.53
343.693	-68.81
344.077	-62.26
344.46	-55.03
344.843	-69.26
345.226	-57.74
345.61	-27.23
345.993	-16.84
346.376	-7.57
346.759	-0.79
347.142	24.97
347.525	50.28
347.908	72.65
348.291	77.17
348.674	108.36
349.057	117.62
349.44	119.66
349.823	148.58
350.206	169.37
350.588	217.06
350.971	252.31
351.354	254.57
351.737	277.17
352.119	278.3
352.502	298.18
352.884	293.66
353.267	307
353.65	335.47
354.032	339.31
354.414	348.13
354.797	348.13
355.179	356.49
355.562	354.23
355.944	356.71
356.326	358.3
356.709	371.85
357.091	351.52
357.473	378.18
357.855	389.26
358.238	378.86
358.62	389.48
359.002	403.49
359.384	382.25
359.766	386.32
360.148	379.76
360.53	375.92
360.912	374.11
361.294	370.95
361.676	369.14
362.057	388.13
362.439	385.19
362.821	384.28
363.203	358.97
363.584	366.21
363.966	371.4
364.348	379.31
364.729	351.29
365.111	369.82
365.493	372.76
365.874	362.59
366.256	381.35
366.637	364.17
367.019	368.46
367.4	367.79
367.781	356.04
368.163	363.04
368.544	380.44
368.925	356.71
369.306	375.7
369.688	355.13
370.069	352.19
370.45	378.41
370.831	363.27
371.212	368.69
371.593	387.67
371.974	358.97
372.355	392.65
372.736	375.24
373.117	365.3
373.498	381.35
373.879	375.47
374.26	379.76
374.641	381.8
375.021	380.22
375.402	370.27
375.783	393.32
376.163	411.4
376.544	400.1
376.925	384.28
377.305	383.61
377.686	384.28
378.066	386.54
378.447	395.13
378.827	406.43
379.208	433.55
379.588	406.66
379.968	403.04
380.349	407.56
380.729	416.83
381.109	431.51
381.489	431.29
381.87	413.66
382.25	418.41
382.63	425.41
383.01	432.19
383.39	423.83
383.77	432.19
384.15	435.13
384.53	439.88
384.91	445.75
385.29	419.99
385.67	456.82
386.049	484.62
386.429	471.96
386.809	478.07
387.189	448.46
387.568	478.74
387.948	489.37
388.328	476.71
388.707	496.6
389.087	482.59
389.466	487.33
389.846	504.28
390.225	469.71
390.605	501.79
390.984	504.96
391.363	508.57
391.743	514.45
392.122	502.7
392.501	518.29
392.881	535.47
393.26	526.65
393.639	554.45
394.018	538.63
394.397	539.31
394.776	546.99
395.155	531.17
395.534	542.92
395.913	553.32
396.292	560.1
396.671	562.58
397.05	556.71
397.429	580.89
397.808	578.4
398.186	579.53
398.565	605.07
398.944	594
399.323	603.26
399.701	620.66
400.08	602.13
400.458	648.68
400.837	653.43
401.215	648.46
401.594	650.94
401.972	652.3
402.351	699.76
402.729	662.69
403.107	686.87
403.486	684.61
403.864	687.55
404.242	690.26
404.62	699.3
404.999	725.74
405.377	744.73
405.755	732.75
406.133	762.13
406.511	763.26
406.889	771.39
407.267	803.93
407.645	826.08
408.023	816.59
408.401	821.79
408.779	817.94
409.156	845.51
409.534	851.39
409.912	858.4
410.29	923.25
410.667	947.66
411.045	929.35
411.422	971.61
411.8	963.93
412.178	1011.16
412.555	1021.33
412.933	1047.54
413.31	1024.94
413.687	1086.41
414.065	1065.4
414.442	1117.15
414.819	1132.29
415.197	1148.78
415.574	1171.38
415.951	1169.8
416.328	1156.69
416.705	1237.37
417.082	1202.79
417.46	1252.96
417.837	1233.75
418.214	1268.55
418.591	1299.06
418.967	1279.63
419.344	1305.84
419.721	1329.34
420.098	1333.86
420.475	1372.73
420.852	1378.61
421.228	1378.16
421.605	1411.83
421.982	1427.87
422.358	1483.24
422.735	1477.59
423.111	1477.81
423.488	1541.54
423.864	1525.04
424.241	1553.97
424.617	1593.52
424.994	1582.9
425.37	1619.96
425.746	1585.16
426.123	1611.82
426.499	1643.23
426.875	1675.55
427.251	1697.02
427.627	1753.51
428.003	1737.02
428.379	1784.02
428.756	1813.85
429.132	1822.44
429.507	1859.05
429.883	1872.38
430.259	1892.94
430.635	1925.71
431.011	1952.38
431.387	1999.38
431.763	2019.95
432.138	2039.83
432.514	2074.86
432.89	2083.67
433.265	2122.54
433.641	2154.63
434.016	2200.96
434.392	2230.11
434.767	2292.71
435.143	2266.27
435.518	2303.56
435.894	2369.32
436.269	2398.24
436.644	2408.41
437.02	2449.54
437.395	2447.96
437.77	2507.17
438.145	2553.49
438.52	2563.66
438.895	2591.01
439.271	2612.93
439.646	2644.79
440.021	2701.74
440.395	2710.32
440.77	2649.08
441.145	2753.03
441.52	2795.97
441.895	2778.57
442.27	2818.8
442.645	2801.85
443.019	2876.2
443.394	2915.52
443.769	2890.66
444.143	2891.11
444.518	2932.92
444.892	2943.76
445.267	2995.06
445.641	3017.89
446.016	3052.46
446.39	3097.43
446.764	3065.34
447.139	3078.22
447.513	3086.81
447.887	3149.63
448.262	3174.72
448.636	3189.41
449.01	3233.25
449.384	3212.91
449.758	3254.49
450.132	3343.53
450.506	3310.99
450.88	3340.14
451.254	3428.27
451.628	3424.66
452.002	3470.98
452.376	3524.09
452.75	3544.2
453.123	3536.97
453.497	3637.53
453.871	3644.76
454.244	3739.45
454.618	3790.52
454.992	3819.67
455.365	3868.94
455.739	3927.92
456.112	3996.62
456.486	4036.39
456.859	4064.19
457.232	4136.5
457.606	4143.05
457.979	4244.07
458.352	4330.39
458.725	4376.04
459.099	4422.82
459.472	4470.28
459.845	4558.41
460.218	4588.69
460.591	4660.33
460.964	4695.81
461.337	4799.08
461.71	4893.09
462.083	4896.93
462.456	4925.18
462.829	4953.43
463.201	5096.02
463.574	5060.54
463.947	5124.5
464.32	5197.04
464.692	5355.23
465.065	5357.49
465.438	5409.91
465.81	5511.38
466.183	5571.94
466.555	5656.91
466.928	5722.67
467.3	5715.89
467.672	5840.64
468.045	6006.96
468.417	5943.01
468.789	6027.75
469.161	6090.35
469.534	6147.97
469.906	6290.12
470.278	6317.69
470.65	6430.68
471.022	6581.41
471.394	6688.07
471.766	6690.33
472.138	6741.4
472.51	6929.87
472.882	7018.23
473.253	7069.08
473.625	7198.12
473.997	7420.26
474.369	7365.57
474.74	7482.18
475.112	7629.52
475.484	7798.55
475.855	7908.83
476.227	8034.25
476.598	8278.54
476.97	8341.14
477.341	8389.72
477.713	8575.48
478.084	8645.99
478.455	8932.31
478.827	8996.26
479.198	9255.24
479.569	9228.57
479.94	9489.81
480.311	9560.09
480.682	9819.06
481.053	10025.84
481.424	10208.66
481.795	10278.03
482.166	10482.32
482.537	10550.8
482.908	10856.1
483.279	10959.37
483.65	11202.08
484.021	11456.53
484.391	11621.73
484.762	11692.01
485.133	11871.21
485.503	12014.03
485.874	12301.71
486.244	12368.83
486.615	12707.35
486.985	12859.44
487.356	13012.65
487.726	13227.56
488.097	13533.32
488.467	13580.09
488.837	13900.54
489.207	14101.89
489.578	14294.88
489.948	14517.92
490.318	14719.27
490.688	14841.3
491.058	15060.96
491.428	15265.47
491.798	15438.8
492.168	15686.25
492.538	15810.09
492.908	16046.7
493.278	16318.55
493.648	16365.78
494.017	16562.39
494.387	16771.65
494.757	16902.72
495.126	17135.93
495.496	17231.07
495.866	17441.46
496.235	17597.84
496.605	17749.02
496.974	17977.95
497.344	18109.47
497.713	18297.71
498.082	18357.14
498.452	18544.71
498.821	18653.18
499.19	18754.2
499.559	18896.57
499.928	19117.35
500.298	19191.25
500.667	19299.49
501.036	19435.99
501.405	19577
501.774	19697.45
502.143	19843.66
502.512	20029.64
502.88	20131.56
503.249	20168.62
503.618	20406.58
503.987	20433.93
504.356	20669.85
504.724	20778.32
505.093	20998.43
505.462	20951.43
505.83	21122.72
506.199	21359.55
506.567	21726.1
506.936	21618.3
507.304	21923.38
507.672	21912.08
508.041	22084.5
508.409	22315.46
508.777	22602.68
509.145	22694.21
509.514	22700.31
509.882	22819.63
510.25	22872.73
510.618	23114.31
510.986	23131.48
511.354	23429.1
511.722	23670.45
512.09	23852.59
512.458	23855.3
512.826	24080.61
513.193	24140.04
513.561	24245.8
513.929	24511.11
514.297	24741.16
514.664	24764.66
515.032	24879.23
515.4	25218.66
515.767	25256.17
516.135	25423.4
516.502	25201.03
516.869	25729.15
517.237	25839.89
517.604	25658.42
517.972	26150.84
518.339	26285.98
518.706	26457.72
519.073	26507.89
519.44	26550.38
519.808	26972.29
520.175	27004.37
520.542	27214.76
520.909	27306.29
521.276	27471.03
521.643	27715.09
522.009	27861.75
522.376	28068.53
522.743	28154.4
523.11	28514.84
523.477	28748.06
523.843	28811.78
524.21	29301.94
524.577	29330.42
524.943	29397.08
525.31	29535.38
525.676	29952.32
526.043	30131.3
526.409	30161.58
526.776	30476.83
527.142	30585.52
527.508	30728.34
527.874	30998.85
528.241	31108.22
528.607	31334.88
528.973	31543.24
529.339	31480.19
529.705	31881.31
530.071	32083.79
530.437	32222.09
530.803	32241.07
531.169	32476.1
531.535	32418.47
531.901	32576.21
532.267	32726.71
532.632	32968.96
532.998	32989.98
533.364	33208.05
533.73	33166.25
534.095	33447.6
534.461	33564.65
534.826	33540.7
535.192	33688.72
535.557	33832.9
535.923	33771.88
536.288	33925.32
536.653	34061.14
537.019	33936.62
537.384	34123.96
537.749	34117.18
538.114	34167.8
538.479	34163.51
538.845	34268.14
539.21	34172.77
539.575	34379.1
539.94	34445.08
540.305	34457.29
540.67	34370.73
541.034	34509.71
541.399	34552.42
541.764	34516.04
542.129	34578.86
542.494	34828.58
542.858	34870.83
543.223	34817.95
543.587	34818.41
543.952	34841.91
544.316	34841.91
544.681	34801.01
545.045	35035.35
545.41	35048.91
545.774	34901.79
546.138	34919.65
546.503	35072.86
546.867	35044.62
547.231	35235.34
547.595	35223.59
547.959	35224.72
548.324	35078.74
548.688	35166.87
549.052	35160.77
549.416	35223.82
549.779	35161.9
550.143	35229.02
550.507	35426.98
550.871	35447.77
551.235	35410.71
551.599	35625.62
551.962	35499.74
552.326	35692.28
552.689	35666.29
553.053	35436.47
553.417	35471.27
553.78	35837.81
554.143	35848.66
554.507	35871.71
554.87	35934.99
555.234	36051.37
555.597	35830.81
555.96	35884.59
556.323	36096.11
556.686	36083.91
557.05	36215.88
557.413	36277.58
557.776	36248.65
558.139	36414.52
558.502	36389.44
558.865	36366.39
559.228	36593.5
559.59	36664.23
559.953	36652.71
560.316	37054.51
560.679	36762.54
561.041	37054.51
561.404	37148.97
561.767	37400.03
562.129	37202.3
562.492	37471.67
562.854	37527.71
563.217	37312.8
563.579	37436.64
563.941	37664.89
564.304	37616.3
564.666	37954.37
565.028	37934.93
565.39	37951.43
565.753	38221.71
566.115	38155.72
566.477	38418.31
566.839	38446.33
567.201	38741.24
567.563	38583.96
567.925	38751.41
568.287	38804.97
568.648	38857.62
569.01	39033.21
569.372	39181.91
569.734	39066.88
570.095	39377.16
570.457	39416.93
570.819	39446.99
571.18	39482.24
571.542	39514.33
571.903	39493.99
572.265	39681.1
572.626	39759.75
572.987	39749.35
573.349	39990.25
573.71	40127.19
574.071	40260.98
574.432	40178.04
574.794	40436.11
575.155	40569.67
575.516	40287.64
575.877	40489.44
576.238	40397.69
576.599	40559.27
576.96	40477.01
577.32	40531.48
577.681	40663.9
578.042	40812.6
578.403	40739.83
578.763	40784.58
579.124	40655.54
579.485	40939.38
579.845	40984.35
580.206	40879.49
580.566	40944.57
580.927	40785.93
581.287	40995.65
581.648	40964.46
582.008	41112.25
582.368	41089.43
582.728	40992.26
583.089	40899.83
583.449	40933.5
583.809	41030.9
584.169	41057.34
584.529	40932.37
584.889	41258.92
585.249	40911.58
585.609	40779.38
585.969	40835.42
586.329	40682.89
586.688	40859.6
587.048	40766.72
587.408	40814.63
587.768	40744.35
588.127	40589.55
588.487	40693.51
588.846	40975.31
589.206	40509.78
589.565	40589.78
589.925	40806.27
590.284	40721.98
590.643	40635.2
591.003	40559.5
591.362	40784.58
591.721	40724.69
592.08	40548.88
592.44	40863.45
592.799	40782.54
593.158	40599.05
593.517	40501.87
593.876	40638.14
594.235	40564.92
594.593	40551.59
594.952	40705.94
595.311	40527.18
595.67	40512.04
596.029	40751.13
596.387	40638.59
596.746	40754.3
597.104	40542.1
597.463	40579.61
597.822	40707.74
598.18	40568.76
598.538	40525.83
598.897	40779.15
599.255	40493.74
599.613	41028.19
599.972	40658.7
600.33	40705.26
600.688	40610.12
601.046	40709.1
601.404	40978.47
601.762	40921.3
602.12	40858.02
602.478	40821.19
602.836	40945.03
603.194	40699.38
603.552	40850.79
603.91	40749.78
604.268	41003.1
604.625	40833.84
604.983	41008.53
605.341	40813.28
605.698	41146.15
606.056	41214.85
606.413	41063.89
606.771	41321.06
607.128	41091.01
607.485	41086.26
607.843	41284.23
608.2	41312.47
608.557	41575.07
608.914	41444.22
609.272	41643.99
609.629	41785.45
609.986	41784.55
610.343	41570.55
610.7	41999.23
611.057	41903.19
611.414	41836.98
611.771	41980.48
612.127	42052.79
612.484	42152.45
612.841	42236.52
613.198	42097.99
613.554	42055.5
613.911	42307.48
614.267	42361.71
614.624	42351.99
614.98	42478.09
615.337	42589.5
615.693	42507.24
616.05	42582.95
616.406	42868.82
616.762	42770.97
617.118	42806.9
617.475	42853.9
617.831	43009.15
618.187	43091.18
618.543	43087.79
618.899	43295.47
619.255	43197.4
619.611	43191.97
619.967	43398.75
620.323	43428.12
620.678	43226.77
621.034	43259.54
621.39	43365.53
621.746	43268.58
622.101	43547.67
622.457	43287.11
622.812	43618.18
623.168	43590.83
623.523	43542.7
623.879	43794.22
624.234	43536.14
624.589	43584.73
624.945	43648
625.3	43627.44
625.655	43663.15
626.01	43723.26
626.365	43793.09
626.72	43549.93
627.075	43664.5
627.43	43718.96
627.785	43671.51
628.14	43617.27
628.495	43773.43
628.85	43674.9
629.205	43607.33
629.559	43820.66
629.914	43625.86
630.269	43736.14
630.623	43491.62
630.978	43396.71
631.332	43709.02
631.687	43753.76
632.041	43458.41
632.396	43644.16
632.75	43495.24
633.104	43639.19
633.459	43336.6
633.813	43320.78
634.167	43347.9
634.521	43285.98
634.875	43238.75
635.229	43180.45
635.583	43040.34
635.937	43160.79
636.291	43069.49
636.645	42993.11
636.999	42752.44
637.352	42849.38
637.706	42899.55
638.06	42823.85
638.413	42814.35
638.767	42729.84
639.121	42853.22
639.474	42676.05
639.828	42458.88
640.181	42642.83
640.534	42568.49
640.888	42455.04
641.241	42250.08
641.594	42257.08
641.947	42548.82
642.301	42248.95
642.654	42375.27
643.007	42296.18
643.36	42451.65
643.713	42186.8
644.066	42390.64
644.419	42103.19
644.771	41930.54
645.124	41399.25
645.477	41301.63
645.83	41308.41
646.182	41244.45
646.535	41090.78
646.888	41190.44
647.24	40992.03
647.593	41307.28
647.945	41049.2
648.298	40968.08
648.65	40963.33
649.002	40813.96
649.355	40868.19
649.707	40812.37
650.059	40717.01
650.411	41295.52
650.763	41528.51
651.115	42092.79
651.467	41980.48
651.819	41941.16
652.171	42051.89
652.523	41861.61
652.875	41809.86
653.227	41703.65
653.578	41991.1
653.93	41807.6
654.282	41762.4
654.633	41756.76
654.985	41746.13
655.337	41886.02
655.688	41709.52
656.039	41877.43
656.391	41671.33
656.742	41698.23
657.094	41821.84
657.445	41717.89
657.796	41935.06
658.147	41814.83
658.498	41856.87
658.849	42036.52
659.2	41853.25
659.551	41723.76
659.902	41987.94
660.253	41813.7
660.604	42051.21
660.955	41819.35
661.306	42043.08
661.656	41975.96
662.007	41946.13
662.358	42103.64
662.708	42018.44
663.059	41987.03
663.409	41868.62
663.76	42232.9
664.11	42074.03
664.461	42266.12
664.811	42258.89
665.161	42203.75
665.511	42023.41
665.862	42046.69
666.212	42264.09
666.562	42362.61
666.912	42200.59
667.262	42103.19
667.612	42039.46
667.962	42258.21
668.312	42108.61
668.662	42232.22
669.011	42245.1
669.361	42115.39
669.711	42102.28
670.06	42218.66
670.41	41933.47
670.76	42128.95
671.109	42212.34
671.459	42062.96
671.808	42015.05
672.157	42047.59
672.507	41875.4
672.856	41936.19
673.205	41959.69
673.554	41977.09
673.904	41780.94
674.253	42223.41
674.602	42028.16
674.951	41270.44
675.3	41284.9
675.649	41818
675.998	41866.13
676.346	42029.52
676.695	41988.16
677.044	41665.46
677.393	41749.75
677.741	41760.6
678.09	41722.63
678.438	41546.59
678.787	41559.25
679.135	41580.26
679.484	41275.41
679.832	41546.37
680.181	41368.52
680.529	41410.32
680.877	41160.84
681.225	41236.99
681.573	41398.57
681.922	41103.44
682.27	40974.4
682.618	40883.33
682.966	40828.64
683.314	40877.23
683.661	40744.35
684.009	40720.17
684.357	40556.56
684.705	40492.61
685.053	40532.83
685.4	40452.61
685.748	40366.28
686.095	40218.49
686.443	39933.3
686.79	39940.76
687.138	39983.69
687.485	39844.72
687.832	39662.12
688.18	39775.56
688.527	39623.93
688.874	39479.3
689.221	39392.52
689.568	39269.59
689.915	39144.85
690.262	39163.83
690.609	38998.41
690.956	38916.6
691.303	38955.25
691.65	38711.41
691.997	38623.96
692.344	38456.05
692.69	38307.13
693.037	38373.34
693.383	38036.85
693.73	37960.92
694.077	37869.4
694.423	37813.13
694.769	37677.54
695.116	37485.23
695.462	37386.47
695.808	37281.17
696.155	37270.32
696.501	36970.67
696.847	37002.3
697.193	36648.64
697.539	36719.15
697.885	36452.49
698.231	36322.77
698.577	36279.39
698.923	36184.7
699.269	35902.9
699.614	35789.23
699.96	35595.79
700.306	35577.26
700.651	35435.34
700.997	35309.24
701.342	35243.03
701.688	35168.45
702.033	34990.38
702.379	34881.91
702.724	34688.92
703.069	34769.82
703.415	34446.21
703.76	34396.72
704.105	34476.95
704.45	34238.31
704.795	34031.99
705.14	33868.38
705.485	33890.07
705.83	33711.32
706.175	33766.46
706.52	33566.91
706.865	33441.95
707.209	33387.94
707.554	33277.43
707.899	33276.3
708.243	33090.77
708.588	33100.71
708.932	32769.65
709.277	32849.19
709.621	32775.97
709.966	32502.31
710.31	32595.87
710.654	32489.2
710.998	32437.23
711.342	32407.62
711.687	32275.87
712.031	32151.13
712.375	32039.04
712.719	32005.83
713.063	31887.86
713.407	31951.59
713.75	31840.41
714.094	31794.53
714.438	31739.39
714.782	31734.19
715.125	31489.68
715.469	31719.73
715.812	31315.67
716.156	31245.85
716.499	31343.92
716.843	31349.12
717.186	31327.42
717.53	31453.07
717.873	31350.48
718.216	31289.46
718.559	31159.07
718.902	30876.82
719.246	31089.01
719.589	30999.98
719.932	30927.89
720.275	30990.26
720.617	31004.27
720.96	30953.2
721.303	30967.43
721.646	30982.58
721.989	30912.97
722.331	31007.66
722.674	30720.44
723.016	30746.2
723.359	30771.73
723.701	30979.86
724.044	30732.19
724.386	30638.4
724.729	30829.36
725.071	30842.47
725.413	30620.32
725.755	30710.72
726.097	30696.03
726.439	30585.98
726.782	30692.41
727.124	30638.4
727.465	30533.1
727.807	30625.07
728.149	30651.74
728.491	30699.87
728.833	30676.14
729.175	30586.43
729.516	30644.28
729.858	30648.35
730.199	30728.34
730.541	30682.7
730.882	30581
731.224	30772.19
731.565	30639.76
731.906	30623.94
732.248	30740.1
732.589	30626.2
732.93	30621.68
733.271	30698.74
733.612	30786.65
733.953	30923.14
734.294	30817.61
734.635	30812.64
734.976	30916.81
735.317	30816.03
735.658	30889.02
735.999	30825.97
736.339	30943.93
736.68	31091.05
737.021	31020.77
737.361	30921.56
737.702	31215.11
738.042	31075.91
738.383	31262.57
738.723	31306.41
739.063	31229.12
739.404	31449.23
739.744	31392.73
740.084	31434.31
740.424	31522.45
740.764	31463.01
741.104	31679.73
741.444	31596.12
741.784	31562.67
742.124	31925.38
742.464	31825.72
742.804	31863.46
743.143	31837.47
743.483	32102.77
743.823	31951.82
744.162	32179.15
744.502	32365.36
744.841	32172.15
745.181	32481.74
745.52	32310.68
745.86	32589.76
746.199	32772.58
746.538	32900.49
746.877	33068.62
747.216	33069.53
747.556	33068.17
747.895	33251.22
748.234	33387.03
748.573	33445.56
748.911	33502.51
749.25	33748.15
749.589	33674.03
749.928	33979.78
750.267	34051.42
750.605	34129.16
750.944	34243.28
751.283	34347.01
751.621	34541.58
751.96	34501.35
752.298	34639.88
752.636	34885.3
752.975	34915.35
753.313	35036.48
