Data from 7415_FLMS001491_004.txt Node
Date: Thu Apr 19 16:29:47 BST 2018
User: hsy
Spectrometer: FLMS00149
Trigger mode: 0
Integration Time (sec): 1.000000E-2
Scans to average: 10
Electric dark correction enabled: true
Nonlinearity correction enabled: false
Boxcar width: 0
XAxis mode: Wavelengths
Number of Pixels in Spectrum: 2048
>>>>>Begin Spectral Data<<<<<
341.393	-13.32
341.776	-13.32
342.16	-13.32
342.543	-51.51
342.927	-67.55
343.31	-80.44
343.693	-44.05
344.077	-58.74
344.46	-75.01
344.843	-53.09
345.226	-61
345.61	-36.14
345.993	-10.38
346.376	-11.96
346.759	10.64
347.142	15.38
347.525	51.54
347.908	61.03
348.291	64.87
348.674	110.75
349.057	116.62
349.44	125.66
349.823	143.74
350.206	180.12
350.588	236.62
350.971	254.92
351.354	269.84
351.737	273.45
352.119	298.76
352.502	309.61
352.884	305.32
353.267	324.75
353.65	323.85
354.032	328.82
354.414	346.22
354.797	360.23
355.179	368.82
355.562	362.72
355.944	385.99
356.326	379.21
356.709	390.51
357.091	374.92
357.473	374.02
357.855	400
358.238	400.23
358.62	380.12
359.002	380.12
359.384	393.9
359.766	397.74
360.148	397.29
360.53	388.93
360.912	369.5
361.294	390.51
361.676	377.86
362.057	388.25
362.439	383.05
362.821	367.46
363.203	384.18
363.584	384.18
363.966	373.79
364.348	361.36
364.729	360.46
365.111	351.19
365.493	372.43
365.874	360.68
366.256	366.78
366.637	390.74
367.019	364.75
367.4	373.11
367.781	378.08
368.163	370.4
368.544	369.5
368.925	383.51
369.306	385.54
369.688	362.72
370.069	361.59
370.45	376.5
370.831	375.6
371.212	385.31
371.593	365.43
371.974	359.33
372.355	383.96
372.736	395.94
373.117	388.25
373.498	390.29
373.879	383.73
374.26	359.78
374.641	378.76
375.021	371.98
375.402	382.15
375.783	404.75
376.163	404.3
376.544	391.87
376.925	397.52
377.305	408.82
377.686	408.14
378.066	406.11
378.447	407.69
378.827	416.05
379.208	414.47
379.588	425.77
379.968	407.24
380.349	407.46
380.729	427.8
381.109	439.78
381.489	447.69
381.87	438.19
382.25	423.28
382.63	389.83
383.01	422.6
383.39	432.77
383.77	450.17
384.15	436.61
384.53	439.78
384.91	428.93
385.29	443.17
385.67	435.03
386.049	456.27
386.429	458.08
386.809	470.51
387.189	436.61
387.568	461.47
387.948	481.58
388.328	488.59
388.707	466.89
389.087	477.29
389.466	481.13
389.846	472.54
390.225	479.32
390.605	500.34
390.984	480.23
391.363	498.08
391.743	482.94
392.122	522.49
392.501	516.84
392.881	516.16
393.26	516.84
393.639	527.91
394.018	516.61
394.397	545.99
394.776	549.38
395.155	527.46
395.534	520.68
395.913	529.72
396.292	531.53
396.671	547.57
397.05	581.92
397.429	559.55
397.808	545.99
398.186	559.1
398.565	550.06
398.944	573.11
399.323	578.3
399.701	581.24
400.08	589.83
400.458	570.85
400.837	581.24
401.215	607.46
401.594	615.14
401.972	594.35
402.351	602.71
402.729	610.62
403.107	617.4
403.486	604.07
403.864	632.99
404.242	609.26
404.62	659.66
404.999	645.87
405.377	640.45
405.755	651.07
406.133	642.26
406.511	666.66
406.889	655.59
407.267	705.31
407.645	701.46
408.023	689.04
408.401	715.7
408.779	705.53
409.156	742.37
409.534	738.75
409.912	754.12
410.29	760.45
410.667	783.72
411.045	783.04
411.422	784.85
411.8	794.34
412.178	791.86
412.555	832.31
412.933	842.25
413.31	863.27
413.687	871.63
414.065	885.19
414.442	896.49
414.819	914.57
415.197	923.61
415.574	949.14
415.951	942.59
416.328	932.64
416.705	959.31
417.082	968.35
417.46	983.72
417.837	983.27
418.214	999.76
418.591	1005.86
418.967	1001.57
419.344	1019.42
419.721	1024.39
420.098	1025.07
420.475	1052.64
420.852	1051.96
421.228	1097.61
421.605	1094
421.982	1079.53
422.358	1114.79
422.735	1079.76
423.111	1105.3
423.488	1119.31
423.864	1143.03
424.241	1177.61
424.617	1157.27
424.994	1172.86
425.37	1188.01
425.746	1185.29
426.123	1216.03
426.499	1210.38
426.875	1256.25
427.251	1252.41
427.627	1290.83
428.003	1286.08
428.379	1293.77
428.756	1312.07
429.132	1358.85
429.507	1344.61
429.883	1347.32
430.259	1371.96
430.635	1390.94
431.011	1385.29
431.387	1465.51
431.763	1427.55
432.138	1464.16
432.514	1487.66
432.89	1478.17
433.265	1517.04
433.641	1540.54
434.016	1532.4
434.392	1598.62
434.767	1637.03
435.143	1591.16
435.518	1636.13
435.894	1640.87
436.269	1638.16
436.644	1684.94
437.02	1711.83
437.395	1710.93
437.77	1729.23
438.145	1733.98
438.52	1788.67
438.895	1785.28
439.271	1773.75
439.646	1801.77
440.021	1844.71
440.395	1844.94
440.77	1829.8
441.145	1856.01
441.52	1894.88
441.895	1886.29
442.27	1907.08
442.645	1888.33
443.019	1924.48
443.394	1963.13
443.769	1940.08
444.143	1948.89
444.518	1987.98
444.892	1970.36
445.267	1966.74
445.641	2007.42
446.016	2016.46
446.39	2030.47
446.764	2054.88
447.139	2063.46
447.513	2064.37
447.887	2104.59
448.262	2068.21
448.636	2097.13
449.01	2138.04
449.384	2137.59
449.758	2162.22
450.132	2167.41
450.506	2184.14
450.88	2200.18
451.254	2184.36
451.628	2239.73
452.002	2258.03
452.376	2277.24
452.75	2315.21
453.123	2321.54
453.497	2399.5
453.871	2393.4
454.244	2430.91
454.618	2428.65
454.992	2448.99
455.365	2489.21
455.739	2535.77
456.112	2538.93
456.486	2548.2
456.859	2605.6
457.232	2657.35
457.606	2669.77
457.979	2689.89
458.352	2747.74
458.725	2771.69
459.099	2775.31
459.472	2822.09
459.845	2887.85
460.218	2893.27
460.591	2890.79
460.964	2944.8
461.337	2974.85
461.71	3059.82
462.083	3069.09
462.456	3074.51
462.829	3074.74
463.201	3166.71
463.574	3172.59
463.947	3220.95
464.32	3211.46
464.692	3258.23
465.065	3320.15
465.438	3380.94
465.81	3385.91
466.183	3404.67
466.555	3410.77
466.928	3495.52
467.3	3471.79
467.672	3539.81
468.045	3600.6
468.417	3620.48
468.789	3656.19
469.161	3699.13
469.534	3709.75
469.906	3827.48
470.278	3850.08
470.65	3892.34
471.022	3935.05
471.394	3993.81
471.766	4005.56
472.138	4084.43
472.51	4154.26
472.882	4239.9
473.253	4263.4
473.625	4293.01
473.997	4363.29
474.369	4430.86
474.74	4481.93
475.112	4535.04
475.484	4616.84
475.855	4689.16
476.227	4729.83
476.598	4834.01
476.97	4909.26
477.341	4984.97
477.713	5073.78
478.084	5079.88
478.455	5204.62
478.827	5263.83
479.198	5412.08
479.569	5440.1
479.94	5542.92
480.311	5636.93
480.682	5781.33
481.053	5889.12
481.424	5974.32
481.795	6028.56
482.166	6151.94
482.537	6168.89
482.908	6372.95
483.279	6500.86
483.65	6568.43
484.021	6694.98
484.391	6755.32
484.762	6781.76
485.133	6953.28
485.503	6981.07
485.874	7234.63
486.244	7260.39
486.615	7456.77
486.985	7558.23
487.356	7698.57
487.726	7678.23
488.097	7906.7
488.467	7962.29
488.837	8200.7
489.207	8264.88
489.578	8414.26
489.948	8597.98
490.318	8663.74
490.688	8685.89
491.058	8861.93
491.428	9047.69
491.798	9117.74
492.168	9347.11
492.538	9384.4
492.908	9561.57
493.278	9739.42
493.648	9759.31
494.017	9905.52
494.387	10097.83
494.757	10124.49
495.126	10300.53
495.496	10402
495.866	10505.27
496.235	10651.71
496.605	10754.53
496.974	10831.59
497.344	11026.16
497.713	11107.74
498.082	11187.29
498.452	11324.01
498.821	11479.71
499.19	11539.37
499.559	11677
499.928	11780.95
500.298	11892.13
500.667	12051
501.036	12101.16
501.405	12160.37
501.774	12293.48
502.143	12451.89
502.512	12510.19
502.88	12699.57
503.249	12815.27
503.618	12871.31
503.987	12925.78
504.356	13132.1
504.724	13250.51
505.093	13283.96
505.462	13407.57
505.83	13552.65
506.199	13617.06
506.567	13842.59
506.936	13838.07
507.304	14056.37
507.672	14209.58
508.041	14227.89
508.409	14372.07
508.777	14485.96
509.145	14659.06
509.514	14706.97
509.882	14809.12
510.25	14946.29
510.618	14992.39
510.986	15102.44
511.354	15198.94
511.722	15417.69
512.09	15580.62
512.458	15579.04
512.826	15776.1
513.193	15885.25
513.561	15889.77
513.929	15928.63
514.297	16153.04
514.664	16328.17
515.032	16335.4
515.4	16544.89
515.767	16664.21
516.135	16673.47
516.502	16742.17
516.869	17021.94
517.237	17070.07
517.604	17127.93
517.972	17398.2
518.339	17489.27
518.706	17522.72
519.073	17654.92
519.44	17821.24
519.808	17928.81
520.175	17998.41
520.542	18324.28
520.909	18297.61
521.276	18495.12
521.643	18763.36
522.009	18722.69
522.376	18954.54
522.743	19077.25
523.11	19286.96
523.477	19474.53
523.843	19652.38
524.21	19704.13
524.577	19850.34
524.943	19992.26
525.31	20135.53
525.676	20510.66
526.043	20576.2
526.409	20654.84
526.776	20896.19
527.142	21062.74
527.508	21141.61
527.874	21374.37
528.241	21504.31
528.607	21579.33
528.973	21924.18
529.339	21871.3
529.705	22144.06
530.071	22381.8
530.437	22385.41
530.803	22575.69
531.169	22671.96
531.535	22744.27
531.901	22835.12
532.267	23096.13
532.632	23269.01
532.998	23309.46
533.364	23480.53
533.73	23481.2
534.095	23770.91
534.461	23835.09
534.826	23871.25
535.192	24085.71
535.557	24251.81
535.923	24211.58
536.288	24388.3
536.653	24468.98
537.019	24534.06
537.384	24598.01
537.749	24806.14
538.114	24789.87
538.479	24873.03
538.845	25033.25
539.21	25016.53
539.575	25174.72
539.94	25167.04
540.305	25332.68
540.67	25337.43
541.034	25489.97
541.399	25536.52
541.764	25687.93
542.129	25820.13
542.494	25787.36
542.858	25886.11
543.223	25885.89
543.587	26160
543.952	25997.3
544.316	26091.08
544.681	26183.28
545.045	26402.03
545.41	26448.81
545.774	26551.41
546.138	26469.15
546.503	26639.31
546.867	26710.27
547.231	26868.01
547.595	26864.84
547.959	27016.03
548.324	27050.15
548.688	27065.29
549.052	27179.86
549.416	27168.79
549.779	27131.5
550.143	27376.02
550.507	27507.77
550.871	27545.96
551.235	27508.9
551.599	27867.76
551.962	27958.83
552.326	27919.51
552.689	27975.32
553.053	27900.75
553.417	28173.74
553.78	28434.07
554.143	28406.95
554.507	28429.55
554.87	28633.84
555.234	28768.07
555.597	28645.36
555.96	28830.44
556.323	28974.85
556.686	29008.97
557.05	29233.6
557.413	29305.91
557.776	29341.16
558.139	29611.21
558.502	29668.16
558.865	29609.41
559.228	29850.3
559.59	29944.54
559.953	30066.12
560.316	30422.72
560.679	30356.05
561.041	30523.96
561.404	30615.25
561.767	30751.97
562.129	30748.81
562.492	31116.71
562.854	31098.18
563.217	31269.93
563.579	31338.85
563.941	31507.21
564.304	31576.13
564.666	31960.3
565.028	32005.73
565.39	31965.73
565.753	32321.2
566.115	32309.67
566.477	32452.49
566.839	32542.44
567.201	32942.65
567.563	32822.65
567.925	33157.11
568.287	33174.28
568.648	33359.14
569.01	33565.91
569.372	33735.85
569.734	33766.13
570.095	34095.84
570.457	34203.41
570.819	34367.7
571.18	34285.44
571.542	34640.46
571.903	34733.79
572.265	35155.25
572.626	35134.23
572.987	35290.61
573.349	35430.72
573.71	35573.32
574.071	35763.14
574.432	36004.72
574.794	36106.64
575.155	36261.21
575.516	36355.44
575.877	36665.49
576.238	36712.72
576.599	37002.21
576.96	37086.04
577.32	37246.04
577.681	37389.77
578.042	37597.22
578.403	37735.52
578.763	37880.37
579.124	38008.96
579.485	38456.63
579.845	38565.1
580.206	38627.25
580.566	38750.18
580.927	38955.15
581.287	39163.28
581.648	39390.16
582.008	39664.06
582.368	39750.61
582.728	40060.66
583.089	40132.97
583.449	40279.86
583.809	40487.99
584.169	40802.33
584.529	40881.88
584.889	41377.91
585.249	41301.75
585.609	41280.74
585.969	41931.79
586.329	41932.7
586.688	42291.78
587.048	42386.47
587.408	42568.39
587.768	42813.13
588.127	43179.67
588.487	43301.93
588.846	43946.2
589.206	43731.07
589.565	44030.27
589.925	44621.21
590.284	44810.14
590.643	44895.1
591.003	45114.31
591.362	45745.93
591.721	45850.11
592.08	46050.1
592.44	46436.53
592.799	46606.47
593.158	46674.72
593.517	47014.82
593.876	47321.26
594.235	47570.06
594.593	47789.72
594.952	48063.61
595.311	48284.39
595.67	48507.21
596.029	49015.9
596.387	49314.65
596.746	49443.91
597.104	49510.8
597.463	49713.96
597.822	50146.94
598.18	50153.27
598.538	50388.29
598.897	50823.76
599.255	50726.82
599.613	51339
599.972	51210.87
600.33	51629.62
600.688	51650.63
601.046	51802.27
601.404	52271.18
601.762	52284.74
602.12	52538.07
602.478	52789.13
602.836	52989.81
603.194	52939.64
603.552	53179.63
603.91	53299.18
604.268	53511.83
604.625	53652.39
604.983	53899.84
605.341	53855.77
605.698	54235.88
606.056	54464.12
606.413	54424.12
606.771	54780.49
607.128	54864.33
607.485	54892.13
607.843	54994.27
608.2	55249.63
608.557	55419.57
608.914	55449.86
609.272	55724.65
609.629	55867.7
609.986	55979.79
610.343	56021.82
610.7	56337.29
611.057	56348.81
611.414	56359.44
611.771	56546.32
612.127	56687.56
612.484	56779.76
612.841	56898.63
613.198	56913.55
613.554	56922.13
613.911	57156.93
614.267	57250.94
614.624	57300.88
614.98	57437.6
615.337	57591.72
615.693	57632.17
616.05	57760.76
616.406	57894.76
616.762	57831.04
617.118	57944.93
617.475	58004.36
617.831	58180.63
618.187	58233.06
618.543	58306.96
618.899	58513.28
619.255	58466.05
619.611	58480.74
619.967	58680.96
620.323	58770.67
620.678	58661.97
621.034	58627.85
621.39	58754.4
621.746	58802.99
622.101	59111.68
622.457	58909.43
622.812	59075.3
623.168	59127.27
623.523	59162.53
623.879	59280.04
624.234	59145.58
624.589	59252.92
624.945	59298.79
625.3	59344.44
625.655	59358.91
626.01	59394.16
626.365	59400.94
626.72	59391.67
627.075	59398.23
627.43	59452.46
627.785	59481.16
628.14	59564.78
628.495	59548.5
628.85	59559.13
629.205	59532.23
629.559	59671.44
629.914	59504.44
630.269	59643.42
630.623	59498.11
630.978	59428.96
631.332	59623.08
631.687	59626.24
632.041	59601.61
632.396	59479.35
632.75	59506.7
633.104	59582.4
633.459	59467.38
633.813	59536.3
634.167	59460.82
634.521	59533.82
634.875	59510.99
635.229	59439.58
635.583	59278.23
635.937	59319.13
636.291	59280.72
636.645	59268.06
636.999	59263.77
637.352	59336.53
637.706	59219.93
638.06	59308.06
638.413	59266.7
638.767	59165.69
639.121	59205.92
639.474	59096.77
639.828	59180.6
640.181	59119.59
640.534	59207.95
640.888	59061.06
641.241	58959.82
641.594	59033.49
641.947	59055.41
642.301	58888.64
642.654	59074.39
643.007	58921.18
643.36	58978.35
643.713	58885.25
644.066	59012.7
644.419	58793.95
644.771	58607.74
645.124	58345.6
645.477	58357.35
645.83	58212.04
646.182	58172.5
646.535	58065.61
646.888	58177.69
647.24	58149.67
647.593	58222.89
647.945	58117.58
648.298	58080.97
648.65	57893.18
649.002	57864.26
649.355	57894.31
649.707	57835.33
650.059	57862.45
650.411	58191.48
650.763	58180.41
651.115	58530.45
651.467	58383.11
651.819	58434.64
652.171	58362.55
652.523	58209.78
652.875	58393.73
653.227	58247.75
653.578	58401.64
653.93	58344.47
654.282	58200.07
654.633	58217.92
654.985	58181.08
655.337	58160.52
655.688	58148.77
656.039	58237.8
656.391	58034.65
656.742	58038.71
657.094	58055.66
657.445	58181.76
657.796	58099.96
658.147	58036.45
658.498	58098.37
658.849	58132.95
659.2	57939.51
659.551	57939.28
659.902	58101.54
660.253	57987.64
660.604	58009.79
660.955	57833.3
661.306	58023.8
661.656	57872.16
662.007	57885.95
662.358	57943.8
662.708	57888.21
663.059	57849.79
663.409	57733.41
663.76	57799.17
664.11	57821.77
664.461	57951.94
664.811	57874.88
665.161	57851.15
665.511	57794.2
665.862	57748.1
666.212	57834.43
666.562	57835.1
666.912	57745.39
667.262	57616.8
667.612	57722.34
667.962	57706.52
668.312	57659.29
668.662	57810.47
669.011	57768.21
669.361	57723.24
669.711	57749.46
670.06	57582.91
670.41	57663.13
670.76	57585.17
671.109	57706.07
671.459	57636.24
671.808	57574.32
672.157	57622.45
672.507	57529.8
672.856	57512.85
673.205	57644.37
673.554	57605.28
673.904	57514.66
674.253	57665.39
674.602	57567.09
674.951	57218.4
675.3	57097.27
675.649	57495.23
675.998	57519.63
676.346	57549.46
676.695	57584.04
677.044	57378.84
677.393	57491.61
677.741	57473.98
678.09	57422.01
678.438	57396.47
678.787	57490.48
679.135	57426.3
679.484	57338.39
679.832	57416.13
680.181	57288.9
680.529	57411.16
680.877	57212.97
681.225	57254.78
681.573	57415.23
681.922	57245.97
682.27	57174.56
682.618	57186.76
682.966	57089.81
683.314	57168.91
683.661	57158.74
684.009	57021.34
684.357	56994.22
684.705	56942.25
685.053	56982.24
685.4	56906.99
685.748	56848.24
686.095	56844.17
686.443	56703.16
686.79	56745.19
687.138	56854.11
687.485	56782.7
687.832	56686.21
688.18	56617.51
688.527	56608.24
688.874	56533.22
689.221	56528.47
689.568	56426.78
689.915	56342.94
690.262	56442.82
690.609	56376.38
690.956	56280.57
691.303	56245.54
691.65	56171.64
691.997	56021.59
692.344	56037.18
692.69	56029.28
693.037	56066.11
693.383	55820.69
693.73	55910.86
694.077	55736.18
694.423	55756.97
694.769	55567.59
695.116	55652.56
695.462	55562.85
695.808	55425
696.155	55521.04
696.501	55250.54
696.847	55361.04
697.193	55162.86
697.539	55203.31
697.885	55001.96
698.231	54959.92
698.577	54959.25
698.923	54978
699.269	54633.38
699.614	54716.09
699.96	54637.45
700.306	54695.75
700.651	54480.84
700.997	54473.38
701.342	54390.22
701.688	54383.44
702.033	54185.48
702.379	54281.07
702.724	54087.41
703.069	54068.65
703.415	53814.19
703.76	53902.55
704.105	53845.6
704.45	53732.84
704.795	53689
705.14	53502.34
705.485	53596.34
705.83	53369.68
706.175	53450.59
706.52	53336.24
706.865	53274.55
707.209	53185.73
707.554	53157.49
707.899	53157.71
708.243	52997.04
708.588	52995
708.932	52789.81
709.277	52896.25
709.621	52669.59
709.966	52433.89
710.31	52570.61
710.654	52312.31
710.998	52445.41
711.342	52399.31
711.687	52323.61
712.031	52262.37
712.375	52105.76
712.719	52069.61
713.063	51960.46
713.407	52115.25
713.75	52012.66
714.094	51900.57
714.438	51783.96
714.782	51728.15
715.125	51635.27
715.469	51697.64
715.812	51484.76
716.156	51434.14
716.499	51409.96
716.843	51389.17
717.186	51199.35
717.53	51430.07
717.873	51267.82
718.216	51219.46
718.559	51135.84
718.902	50853.59
719.246	50937.21
719.589	50827.38
719.932	50790.54
720.275	50826.02
720.617	50826.02
720.96	50537.22
721.303	50610.43
721.646	50677.55
721.989	50409.76
722.331	50440.72
722.674	50352.36
723.016	50411.57
723.359	50295.64
723.701	50222.65
724.044	50207.51
724.386	50039.83
724.729	50198.02
725.071	49957.57
725.413	49952.6
725.755	49899.27
726.097	49803.68
726.439	49714.87
726.782	49589.67
727.124	49756.45
727.465	49707.63
727.807	49450.69
728.149	49572.27
728.491	49417.02
728.833	49410.47
729.175	49491.14
729.516	49200.75
729.858	49266.52
730.199	49349.68
730.541	49194.43
730.882	49158.27
731.224	49124.82
731.565	48927.09
731.906	48963.02
732.248	48983.13
732.589	48861.33
732.93	48825.17
733.271	48817.49
733.612	48713.31
733.953	48738.85
734.294	48633.54
734.635	48511.73
734.976	48643.93
735.317	48542.47
735.658	48467.44
735.999	48376.37
736.339	48298.18
736.68	48353.54
737.021	48345.41
737.361	48202.59
737.702	48473.54
738.042	48228.58
738.383	48138.86
738.723	48151.52
739.063	48110.39
739.404	48242.59
739.744	48093.66
740.084	48117.17
740.424	48018.86
740.764	47826.1
741.104	48087.34
741.444	47662.72
741.784	47660.91
742.124	47798.31
742.464	47598.08
742.804	47691.87
743.143	47543.4
743.483	47670.4
743.823	47448.71
744.162	47424.08
744.502	47518.76
744.841	47191.99
745.181	47454.59
745.52	47246.68
745.86	47283.52
746.199	47163.97
746.538	47191.99
746.877	47235.38
747.216	47068.83
747.556	47039.46
747.895	47020.92
748.234	46915.16
748.573	46900.7
748.911	46750.65
749.25	46733.25
749.589	46604.89
749.928	46636.75
750.267	46682.63
750.605	46600.6
750.944	46413.48
751.283	46450.09
751.621	46451
751.96	46188.18
752.298	46148.63
752.636	46238.8
752.975	46079.93
753.313	45899.82
753.651	46087.16
753.989	45780.28
