Data from 7415_FLMS001491_008.txt Node
Date: Thu Apr 19 16:29:56 BST 2018
User: hsy
Spectrometer: FLMS00149
Trigger mode: 0
Integration Time (sec): 1.000000E-2
Scans to average: 10
Electric dark correction enabled: true
Nonlinearity correction enabled: false
Boxcar width: 0
XAxis mode: Wavelengths
Number of Pixels in Spectrum: 2048
>>>>>Begin Spectral Data<<<<<
341.393	2.78
341.776	2.78
342.16	2.78
342.543	-53.04
342.927	-47.84
343.31	-62.75
343.693	-70.44
344.077	-66.14
344.46	-57.78
344.843	-61.85
345.226	-49.87
345.61	-55.75
345.993	-14.17
346.376	-0.61
346.759	6.17
347.142	57.92
347.525	47.53
347.908	62.44
348.291	76.45
348.674	82.55
349.057	106.28
349.44	137.92
349.823	173.63
350.206	183.79
350.588	227.86
350.971	257.69
351.354	276.9
351.737	262.66
352.119	303.34
352.502	300.18
352.884	305.37
353.267	308.09
353.65	345.15
354.032	353.51
354.414	362.09
354.797	373.62
355.179	349.21
355.562	374.3
355.944	376.56
356.326	377.46
356.709	380.85
357.091	391.47
357.473	389.89
357.855	393.51
358.238	382.43
358.62	391.47
359.002	386.28
359.384	382.21
359.766	406.16
360.148	381.76
360.53	381.3
360.912	408.65
361.294	386.05
361.676	366.16
362.057	387.41
362.439	346.73
362.821	393.73
363.203	388.08
363.584	364.81
363.966	357.35
364.348	376.11
364.729	389.21
365.111	367.07
365.493	388.53
365.874	380.17
366.256	370.91
366.637	352.83
367.019	388.76
367.4	387.63
367.781	379.27
368.163	379.27
368.544	378.59
368.925	396.67
369.306	389.66
369.688	368.42
370.069	373.85
370.45	396.22
370.831	375.43
371.212	380.4
371.593	361.64
371.974	384.47
372.355	389.21
372.736	369.33
373.117	392.6
373.498	384.24
373.879	390.12
374.26	387.63
374.641	382.43
375.021	367.29
375.402	379.95
375.783	413.85
376.163	404.13
376.544	388.53
376.925	390.34
377.305	400.06
377.686	421.98
378.066	391.92
378.447	404.13
378.827	404.13
379.208	419.04
379.588	410.46
379.968	412.26
380.349	422.43
380.729	421.3
381.109	427.4
381.489	437.8
381.87	441.41
382.25	422.43
382.63	418.82
383.01	432.38
383.39	440.74
383.77	445.93
384.15	442.54
384.53	460.62
384.91	435.09
385.29	455.43
385.67	462.21
386.049	452.71
386.429	473.73
386.809	470.34
387.189	468.76
387.568	473.96
387.948	452.71
388.328	471.24
388.707	482.32
389.087	485.71
389.466	474.18
389.846	468.53
390.225	503.56
390.605	498.81
390.984	499.27
391.363	497.91
391.743	509.89
392.122	496.55
392.501	504.92
392.881	515.09
393.26	523.22
393.639	506.72
394.018	522.54
394.397	537.23
394.776	531.58
395.155	529.1
395.534	536.55
395.913	543.33
396.292	549.43
396.671	540.62
397.05	554.18
397.429	557.57
397.808	534.29
398.186	559.6
398.565	581.75
398.944	565.48
399.323	572.94
399.701	580.85
400.08	607.96
400.458	595.99
400.837	607.06
401.215	615.2
401.594	610.45
401.972	594.18
402.351	610.22
402.729	610.45
403.107	636.66
403.486	645.93
403.864	654.06
404.242	648.87
404.62	644.8
404.999	674.18
405.377	663.78
405.755	679.15
406.133	687.28
406.511	670.56
406.889	688.41
407.267	712.14
407.645	696.55
408.023	713.05
408.401	698.58
408.779	723.44
409.156	737.9
409.534	746.94
409.912	775.42
410.29	763.89
410.667	785.81
411.045	797.56
411.422	783.55
411.8	802.99
412.178	814.96
412.555	799.82
412.933	835.75
413.31	859.71
413.687	868.07
414.065	886.15
414.442	893.83
414.819	894.28
415.197	897.22
415.574	917.33
415.951	952.36
416.328	971.34
416.705	979.71
417.082	970.89
417.46	978.8
417.837	995.52
418.214	992.81
418.591	1024.22
418.967	1041.17
419.344	1047.5
419.721	1044.56
420.098	1055.64
420.475	1059.03
420.852	1047.95
421.228	1072.58
421.605	1106.26
421.982	1127.05
422.358	1111.91
422.735	1120.95
423.111	1121.62
423.488	1146.71
423.864	1125.69
424.241	1159.36
424.617	1168.63
424.994	1155.52
425.37	1188.06
425.746	1218.12
426.123	1210.66
426.499	1211.79
426.875	1258.34
427.251	1266.7
427.627	1282.52
428.003	1304.67
428.379	1292.47
428.756	1343.31
429.132	1364.1
429.507	1346.93
429.883	1388.51
430.259	1376.08
430.635	1390.09
431.011	1421.05
431.387	1482.29
431.763	1469.18
432.138	1472.57
432.514	1493.82
432.89	1522.74
433.265	1562.29
433.641	1581.5
434.016	1583.76
434.392	1607.03
434.767	1619.01
435.143	1626.92
435.518	1639.58
435.894	1665.56
436.269	1680.48
436.644	1703.3
437.02	1735.62
437.395	1711.66
437.77	1777.65
438.145	1767.03
438.52	1770.42
438.895	1827.37
439.271	1816.75
439.646	1845.22
440.021	1849.29
440.395	1859.68
440.77	1860.36
441.145	1878.89
441.52	1911.88
441.895	1939.68
442.27	1928.83
442.645	1948.27
443.019	1946.46
443.394	1983.3
443.769	1976.74
444.143	1930.19
444.518	2007.7
444.892	1973.13
445.267	2030.98
445.641	1988.04
446.016	2019.9
446.39	2076.4
446.764	2045.89
447.139	2058.55
447.513	2071.65
447.887	2091.32
448.262	2120.24
448.636	2134.48
449.01	2159.56
449.384	2158.66
449.758	2174.48
450.132	2172.22
450.506	2180.8
450.88	2202.95
451.254	2225.77
451.628	2246.79
452.002	2275.04
452.376	2304.87
452.75	2323.4
453.123	2316.62
453.497	2386.22
453.871	2379.22
454.244	2398.65
454.618	2440.68
454.992	2478.88
455.365	2514.81
455.739	2521.59
456.112	2551.87
456.486	2577.63
456.859	2614.92
457.232	2672.32
457.606	2686.33
457.979	2712.77
458.352	2741.92
458.725	2792.99
459.099	2812.88
459.472	2855.59
459.845	2886.1
460.218	2894.01
460.591	2949.82
460.964	2985.75
461.337	2998.18
461.71	3091.74
462.083	3066.2
462.456	3083.38
462.829	3073.89
463.201	3165.19
463.574	3152.76
463.947	3254.9
464.32	3294.9
464.692	3336.25
465.065	3333.77
465.438	3380.32
465.81	3417.83
466.183	3441.34
466.555	3484.05
466.928	3515.68
467.3	3541.67
467.672	3580.54
468.045	3649.01
468.417	3636.59
468.789	3669.13
469.161	3742.8
469.534	3784.83
469.906	3843.36
470.278	3885.39
470.65	3932.62
471.022	4007.2
471.394	3997.03
471.766	4043.35
472.138	4117.93
472.51	4186.85
472.882	4265.95
473.253	4339.39
473.625	4352.27
473.997	4445.15
474.369	4455.32
474.74	4464.59
475.112	4581.65
475.484	4663.68
475.855	4704.58
476.227	4779.83
476.598	4850.79
476.97	4928.98
477.341	5011.92
477.713	5098.92
478.084	5145.7
478.455	5262.31
478.827	5305.02
479.198	5494.16
479.569	5464.11
479.94	5592.92
480.311	5630.43
480.682	5798.56
481.053	5950.2
481.424	6061.15
481.795	6133.47
482.166	6173.92
482.537	6224.99
482.908	6397.64
483.279	6482.39
483.65	6662.72
484.021	6746.33
484.391	6858.65
484.762	6894.13
485.133	6958.98
485.503	7103.16
485.874	7311.74
486.244	7297.51
486.615	7473.55
486.985	7563.94
487.356	7750.15
487.726	7833.54
488.097	8012.74
488.467	8096.58
488.837	8249.57
489.207	8330.25
489.578	8535.67
489.948	8631.03
490.318	8813.17
490.688	8822.89
491.058	8989.21
491.428	9102.66
491.798	9286.61
492.168	9386.49
492.538	9612.93
492.908	9720.72
493.278	9883.65
493.648	9840.04
494.017	10122.52
494.387	10140.14
494.757	10243.87
495.126	10348.95
495.496	10482.51
495.866	10701.71
496.235	10782.84
496.605	10900.57
496.974	10946.68
497.344	11117.97
497.713	11249.04
498.082	11222.6
498.452	11478.64
498.821	11586.66
499.19	11684.74
499.559	11893.54
499.928	11994.56
500.298	11990.49
500.667	12279.3
501.036	12204.5
501.405	12390.48
501.774	12407.88
502.143	12612.39
502.512	12756.35
502.88	12879.28
503.249	13015.55
503.618	13104.81
503.987	13138.93
504.356	13255.09
504.724	13416.44
505.093	13435.88
505.462	13606.94
505.83	13701.63
506.199	13770.56
506.567	13980.04
506.936	14070.44
507.304	14241.96
507.672	14380.03
508.041	14389.3
508.409	14531.67
508.777	14710.19
509.145	14803.75
509.514	14845.56
509.882	14981.37
510.25	15035.61
510.618	15280.12
510.986	15327.35
511.354	15495.48
511.722	15602.15
512.09	15711.75
512.458	15695.25
512.826	15991.97
513.193	16044.17
513.561	16199.42
513.929	16207.33
514.297	16445.74
514.664	16569.58
515.032	16611.39
515.4	16743.36
515.767	16940.87
516.135	16958.27
516.502	16993.3
516.869	17197.36
517.237	17386.51
517.604	17381.76
517.972	17675.31
518.339	17717.34
518.706	17755.08
519.073	17926.38
519.44	17972.93
519.808	18210.67
520.175	18235.52
520.542	18549.41
520.909	18532.46
521.276	18686.13
521.643	18976.29
522.009	19011.55
522.376	19256.97
522.743	19294.25
523.11	19517.07
523.477	19733.79
523.843	19920.9
524.21	20053.78
524.577	20168.81
524.943	20350.72
525.31	20460.1
525.676	20716.81
526.043	20906.19
526.409	21050.14
526.776	21320.87
527.142	21287.65
527.508	21362.22
527.874	21704.58
528.241	21695.55
528.607	21860.74
528.973	22185.93
529.339	22216.21
529.705	22410.78
530.071	22576.88
530.437	22693.94
530.803	22912.01
531.169	22995.62
531.535	23127.82
531.901	23161.95
532.267	23291.66
532.632	23490.53
532.998	23591.09
533.364	23729.84
533.73	23900.46
534.095	24103.17
534.461	24111.08
534.826	24201.02
535.192	24317.85
535.557	24568.01
535.923	24572.76
536.288	24664.73
536.653	24879.64
537.019	24812.75
537.384	24921.68
537.749	25127.77
538.114	25173.87
538.479	25212.74
538.845	25238.05
539.21	25339.52
539.575	25406.63
539.94	25581.09
540.305	25688.21
540.67	25706.06
541.034	25731.37
541.399	25806.85
541.764	25990.57
542.129	26000.97
542.494	26109.67
542.858	26240.06
543.223	26226.95
543.587	26346.27
543.952	26486.15
544.316	26515.98
544.681	26520.96
545.045	26767.95
545.41	26664.23
545.774	26723.66
546.138	26767.5
546.503	26956.88
546.867	26998.91
547.231	27220.6
547.595	27188.73
547.959	27358.22
548.324	27435.73
548.688	27423.98
549.052	27522.06
549.416	27524.32
549.779	27656.74
550.143	27630.08
550.507	27845.89
550.871	27885.21
551.235	27892.9
551.599	28168.37
551.962	28170.63
552.326	28176.5
552.689	28284.52
553.053	28194.58
553.417	28334.01
553.78	28675.47
554.143	28689.71
554.507	28791.63
554.87	28757.05
555.234	29078.63
555.597	28789.14
555.96	29041.79
556.323	29302.13
556.686	29303.71
557.05	29618.27
557.413	29525.85
557.776	29525.4
558.139	29839.51
558.502	29802.68
558.865	29796.8
559.228	30102.78
559.59	30210.35
559.953	30274.08
560.316	30481.98
560.679	30526.95
561.041	30730.79
561.404	30947.96
561.767	31144.34
562.129	31096.65
562.492	31153.15
562.854	31258.46
563.217	31372.35
563.579	31460.94
563.941	31709.75
564.304	31908.38
564.666	32047.14
565.028	32066.57
565.39	32213.23
565.753	32608.93
566.115	32495.94
566.477	32736.84
566.839	32832.65
567.201	33114.68
567.563	33135.7
567.925	33469.7
568.287	33511.73
568.648	33615.01
569.01	33717.15
569.372	33962.34
569.734	34038.72
570.095	34365.72
570.457	34560.29
570.819	34699.72
571.18	34740.63
571.542	34952.6
571.903	35012.94
572.265	35141.07
572.626	35449.76
572.987	35427.39
573.349	35778.56
573.71	35870.09
574.071	35941.5
574.432	36292.45
574.794	36627.58
575.155	36561.14
575.516	36694.25
575.877	36856.5
576.238	37048.59
576.599	37126.78
576.96	37423.72
577.32	37593.88
577.681	37854.44
578.042	38092.4
578.403	38204.49
578.763	38194.32
579.124	38270.25
579.485	38770.8
579.845	38839.5
580.206	38836.34
580.566	38947.52
580.927	39229.55
581.287	39609.42
581.648	39587.5
582.008	39813.71
582.368	39983.88
582.728	40349.52
583.089	40406.47
583.449	40603.97
583.809	40843.29
584.169	41104.07
584.529	41202.83
584.889	41785.41
585.249	41539.32
585.609	41647.56
585.969	42266.98
586.329	42248.68
586.688	42682.56
587.048	42900.19
587.408	42951.03
587.768	43128.88
588.127	43490.9
588.487	43684.57
588.846	44391.45
589.206	44128.63
589.565	44438.9
589.925	45106.23
590.284	45087.25
590.643	45419.22
591.003	45666.67
591.362	46113.89
591.721	46235.24
592.08	46454.89
592.44	46914.32
592.799	47015.78
593.158	47350.01
593.517	47407.41
593.876	47849.66
594.235	47992.03
594.593	48213.27
594.952	48634.05
595.311	48653.03
595.67	48994.04
596.029	49388.83
596.387	49746.79
596.746	50009.6
597.104	50024.29
597.463	50211.41
597.822	50566.42
598.18	50473.55
598.538	50815.23
598.897	51270.36
599.255	51260.19
599.613	51842.32
599.972	51750.35
600.33	52014.3
600.688	52055.88
601.046	52349.43
601.404	52721.17
601.762	52737.44
602.12	52998
602.478	53231.89
602.836	53390.31
603.194	53285.45
603.552	53630.75
603.91	53625.1
604.268	53898.99
604.625	53989.39
604.983	54253.79
605.341	54216.72
605.698	54545.76
606.056	54786.65
606.413	54791.62
606.771	55020.09
607.128	55117.27
607.485	55176.47
607.843	55297.83
608.2	55571.94
608.557	55694.88
608.914	55768.1
609.272	56003.34
609.629	56202.21
609.986	56346.39
610.343	56358.59
610.7	56667.06
611.057	56651.91
611.414	56647.62
611.771	56859.14
612.127	57074.73
612.484	57077.89
612.841	57205.12
613.198	57169.87
613.554	57352.91
613.911	57584.77
614.267	57653.92
614.624	57641.04
614.98	57755.84
615.337	57997.19
615.693	57969.17
616.05	58044.87
616.406	58245.09
616.762	58182.5
617.118	58249.84
617.475	58352.43
617.831	58514.69
618.187	58531.19
618.543	58669.26
618.899	58773.44
619.255	58777.73
619.611	58809.15
619.967	58916.04
620.323	59084.39
620.678	58978.41
621.034	59050.27
621.39	59093.66
621.746	59108.8
622.101	59428.79
622.457	59183.6
622.812	59379.75
623.168	59406.87
623.523	59480.77
623.879	59537.94
624.234	59426.76
624.589	59527.77
624.945	59611.16
625.3	59644.15
625.655	59650.71
626.01	59725.05
626.365	59711.72
626.72	59663.59
627.075	59710.14
627.43	59789.68
627.785	59740.42
628.14	59773.41
628.495	59796.01
628.85	59864.03
629.205	59822.23
629.559	59953.3
629.914	59831.27
630.269	59911.04
630.623	59805.96
630.978	59728.22
631.332	59942.9
631.687	59874.43
632.041	59809.8
632.396	59831.49
632.75	59804.83
633.104	59858.61
633.459	59734.32
633.813	59772.28
634.167	59770.7
634.521	59804.15
634.875	59848.21
635.229	59768.44
635.583	59666.52
635.937	59740.19
636.291	59717.6
636.645	59704.26
636.999	59608.67
637.352	59605.96
637.706	59511.73
638.06	59635.11
638.413	59584.27
638.767	59535.91
639.121	59561.89
639.474	59477.38
639.828	59489.13
640.181	59476.92
640.534	59506.98
640.888	59344.72
641.241	59251.17
641.594	59353.76
641.947	59410.03
642.301	59285.29
642.654	59322.58
643.007	59285.97
643.36	59289.81
643.713	59266.08
644.066	59358.96
644.419	59145.63
644.771	58948.8
645.124	58696.15
645.477	58707
645.83	58539.1
646.182	58481.92
646.535	58445.99
646.888	58507.23
647.24	58404.86
647.593	58597.85
647.945	58395.6
648.298	58331.19
648.65	58295.03
649.002	58115.15
649.355	58186.34
649.707	58094.81
650.059	58224.53
650.411	58476.5
650.763	58610.51
651.115	58910.84
651.467	58818.19
651.819	58831.52
652.171	58704.74
652.523	58637.4
652.875	58692.76
653.227	58573.9
653.578	58766.44
653.93	58655.48
654.282	58507.46
654.633	58568.02
654.985	58596.95
655.337	58511.3
655.688	58561.47
656.039	58591.75
656.391	58365.32
656.742	58399.44
657.094	58378.65
657.445	58448.93
657.796	58391.08
658.147	58361.25
658.498	58395.6
658.849	58468.59
659.2	58317.41
659.551	58223.4
659.902	58368.48
660.253	58255.49
660.604	58354.92
660.955	58230.4
661.306	58289.61
661.656	58166.22
662.007	58221.14
662.358	58194.02
662.708	58108.37
663.059	58097.53
663.409	58043.74
663.76	58115.6
664.11	58196.28
664.461	58191.08
664.811	58196.51
665.161	58202.16
665.511	58089.84
665.862	58155.38
666.212	58181.37
666.562	58142.72
666.912	58146.11
667.262	58036.28
667.612	58038.77
667.962	58099.11
668.312	58016.85
668.662	58139.11
669.011	58075.83
669.361	58008.04
669.711	58066.34
670.06	58062.27
670.41	58010.52
670.76	57937.53
671.109	58075.38
671.459	58021.37
671.808	58029.28
672.157	58004.65
672.507	57855.05
672.856	57878.55
673.205	57949.51
673.554	57960.81
673.904	57878.55
674.253	58069.73
674.602	57867.48
674.951	57587.03
675.3	57402.63
675.649	57894.37
675.998	57826.57
676.346	57895.72
676.695	57871.54
677.044	57715.16
677.393	57826.12
677.741	57889.4
678.09	57774.37
678.438	57700.02
678.787	57821.6
679.135	57781.83
679.484	57581.61
679.832	57653.7
680.181	57629.52
680.529	57627.03
680.877	57568.5
681.225	57502.97
681.573	57742.06
681.922	57587.48
682.27	57442.18
682.618	57534.15
682.966	57482.18
683.314	57462.51
683.661	57434.27
684.009	57281.95
684.357	57247.38
684.705	57290.77
685.053	57326.25
685.4	57141.62
685.748	57148.17
686.095	57144.56
686.443	57082.64
686.79	57017.78
687.138	57121.05
687.485	57065.69
687.832	56947.5
688.18	57028.18
688.527	56858.69
688.874	56921.74
689.221	56848.29
689.568	56746.38
689.915	56723.1
690.262	56778.46
690.609	56677.68
690.956	56650.11
691.303	56609.88
691.65	56510
691.997	56500.05
692.344	56387.29
692.69	56297.12
693.037	56345.03
693.383	56144.13
693.73	56273.62
694.077	56113.85
694.423	56110.69
694.769	56008.32
695.116	56021.65
695.462	55876.12
695.808	55762.22
696.155	55924.7
696.501	55639.06
696.847	55725.39
697.193	55564.26
697.539	55601.77
697.885	55424.15
698.231	55416.24
698.577	55356.36
698.923	55333.08
699.269	55156.36
699.614	55095.35
699.96	54978.96
700.306	55021.22
700.651	54857.61
700.997	54818.29
701.342	54768.57
701.688	54686.99
702.033	54624.85
702.379	54590.5
702.724	54517.28
703.069	54509.15
703.415	54263.5
703.76	54348.47
704.105	54283.39
704.45	54122.49
704.795	54119.33
705.14	53937.18
705.485	53977.86
705.83	53839.56
706.175	53883.63
706.52	53830.52
706.865	53637.3
707.209	53580.58
707.554	53534.93
707.899	53476.4
708.243	53397.31
708.588	53352.34
708.932	53240.48
709.277	53229.86
709.621	53065.57
709.966	52970.2
710.31	53017.89
710.654	52784.9
710.998	52869.64
711.342	52852.92
711.687	52679.82
712.031	52658.8
712.375	52534.96
712.719	52528.18
713.063	52486.15
713.407	52604.11
713.75	52321.41
714.094	52351.46
714.438	52202.99
714.782	52250.9
715.125	52042.77
715.469	52170.22
715.812	51829.67
716.156	51864.7
716.499	51819.95
716.843	51874.86
717.186	51662.89
717.53	51744.47
717.873	51824.47
718.216	51646.85
718.559	51709.45
718.902	51319.17
719.246	51356.91
719.589	51328.89
719.932	51177.48
720.275	51095.68
720.617	51248.21
720.96	51150.59
721.303	51078.95
721.646	51097.71
721.989	50886.87
722.331	50976.58
722.674	50821.11
723.016	50935.68
723.359	50812.97
723.701	50737.95
724.044	50607.33
724.386	50473.55
724.729	50684.84
725.071	50561.68
725.413	50467.44
725.755	50431.29
726.097	50249.14
726.439	50175.25
726.782	50174.12
727.124	50366.43
727.465	50222.93
727.807	50064.52
728.149	50165.98
728.491	49954.92
728.833	50002.15
729.175	49989.49
729.516	49856.39
729.858	49845.54
730.199	49964.18
730.541	49677.63
730.882	49646.9
731.224	49764.86
731.565	49581.59
731.906	49566.45
732.248	49551.31
732.589	49391.99
732.93	49310.41
733.271	49354.03
733.612	49390.41
733.953	49439.22
734.294	49264.54
734.635	49185.67
734.976	49340.69
735.317	49167.59
735.658	48962.4
735.999	48951.78
736.339	48869.97
736.68	48961.95
737.021	48970.76
737.361	48806.92
737.702	48983.42
738.042	48768.51
738.383	48708.85
738.723	48864.1
739.063	48548.85
739.404	48729.86
739.744	48594.5
740.084	48574.61
740.424	48666.81
740.764	48381.17
741.104	48519.02
741.444	48314.05
741.784	48154.06
742.124	48438.8
742.464	48222.31
742.804	48081.52
743.143	47973.27
743.483	48124.91
743.823	47884.46
744.162	47979.6
744.502	47931.69
744.841	47898.02
745.181	47965.36
745.52	47873.61
745.86	47854.41
746.199	47704.8
746.538	47791.13
746.877	47878.13
747.216	47656.67
747.556	47582.77
747.895	47586.16
748.234	47371.71
748.573	47524.47
748.911	47248.55
749.25	47342.55
749.589	47232.73
749.928	47148.44
750.267	47238.15
750.605	47072.96
750.944	47032.96
751.283	46896.24
751.621	46928.78
751.96	46707.54
752.298	46719.07
752.636	46739.18
752.975	46491.96
753.313	46415.12
753.651	46565.63
753.989	46393.43
