Data from 7415_FLMS001491_005.txt Node
Date: Thu Apr 19 16:29:49 BST 2018
User: hsy
Spectrometer: FLMS00149
Trigger mode: 0
Integration Time (sec): 1.000000E-2
Scans to average: 10
Electric dark correction enabled: true
Nonlinearity correction enabled: false
Boxcar width: 0
XAxis mode: Wavelengths
Number of Pixels in Spectrum: 2048
>>>>>Begin Spectral Data<<<<<
341.393	10.59
341.776	10.59
342.16	10.59
342.543	-50.65
342.927	-64.66
343.31	-55.39
343.693	-66.47
344.077	-66.47
344.46	-50.87
344.843	-58.78
345.226	-38.22
345.61	-39.8
345.993	-15.17
346.376	-16.07
346.759	1.1
347.142	29.35
347.525	31.16
347.908	62.79
348.291	77.03
348.674	78.39
349.057	127.43
349.44	127.65
349.823	129.69
350.206	170.81
350.588	233.19
350.971	247.87
351.354	270.47
351.737	263.69
352.119	292.85
352.502	302.79
352.884	308.21
353.267	328.1
353.65	332.39
354.032	345.05
354.414	360.41
354.797	364.26
355.179	377.59
355.562	386.63
355.944	375.33
356.326	373.97
356.709	397.48
357.091	378.04
357.473	373.3
357.855	393.63
358.238	380.75
358.62	372.39
359.002	378.49
359.384	402.9
359.766	395.67
360.148	367.65
360.53	384.82
360.912	391.6
361.294	389.34
361.676	397.25
362.057	391.6
362.439	388.89
362.821	379.85
363.203	392.05
363.584	355.67
363.966	388.66
364.348	367.19
364.729	377.36
365.111	359.74
365.493	353.86
365.874	386.18
366.256	357.25
366.637	389.11
367.019	380.53
367.4	367.19
367.781	365.16
368.163	382.11
368.544	367.42
368.925	368.78
369.306	382.33
369.688	362.45
370.069	371.26
370.45	380.53
370.831	363.35
371.212	378.49
371.593	361.09
371.974	379.85
372.355	369.45
372.736	390.47
373.117	380.98
373.498	372.39
373.879	372.62
374.26	368.55
374.641	375.78
375.021	389.57
375.402	399.74
375.783	409.45
376.163	423.46
376.544	406.06
376.925	402.9
377.305	406.29
377.686	394.31
378.066	389.11
378.447	422.33
378.827	407.19
379.208	408.1
379.588	403.58
379.968	430.24
380.349	420.07
380.729	405.38
381.109	424.37
381.489	438.15
381.87	422.79
382.25	405.61
382.63	421.43
383.01	444.93
383.39	457.13
383.77	435.21
384.15	436.34
384.53	460.98
384.91	442.45
385.29	456.68
385.67	451.03
386.049	461.88
386.429	442.67
386.809	467.53
387.189	456.68
387.568	451.03
387.948	445.84
388.328	456
388.707	482.9
389.087	472.73
389.466	466.4
389.846	501.65
390.225	488.77
390.605	493.29
390.984	499.85
391.363	504.82
391.743	520.18
392.122	490.13
392.501	502.56
392.881	522.22
393.26	495.78
393.639	539.17
394.018	532.39
394.397	526.51
394.776	512.95
395.155	500.98
395.534	540.3
395.913	538.94
396.292	536
396.671	553.4
397.05	556.12
397.429	561.09
397.808	559.51
398.186	566.06
398.565	575.55
398.944	564.25
399.323	557.25
399.701	578.26
400.08	574.19
400.458	601.31
400.837	608.32
401.215	598.6
401.594	602.22
401.972	585.72
402.351	601.31
402.729	612.84
403.107	620.07
403.486	623.46
403.864	631.59
404.242	629.33
404.62	659.16
404.999	635.44
405.377	668.43
405.755	664.14
406.133	665.49
406.511	689.67
406.889	671.59
407.267	671.37
407.645	712.95
408.023	715.43
408.401	712.27
408.779	727.86
409.156	733.29
409.534	738.48
409.912	767.86
410.29	766.96
410.667	775.54
411.045	773.51
411.422	800.4
411.8	835.2
412.178	809.67
412.555	846.28
412.933	851.02
413.31	846.28
413.687	871.59
414.065	896.22
414.442	881.53
414.819	898.93
415.197	900.06
415.574	912.94
415.951	919.04
416.328	934.18
416.705	941.64
417.082	950.46
417.46	995.43
417.837	1009.66
418.214	994.07
418.591	997.69
418.967	1021.87
419.344	1030.68
419.721	1047.63
420.098	1016.44
420.475	1043.11
420.852	1058.25
421.228	1059.83
421.605	1089.21
421.982	1091.92
422.358	1109.1
422.735	1128.53
423.111	1092.15
423.488	1140.05
423.864	1142.31
424.241	1152.26
424.617	1183.9
424.994	1173.05
425.37	1194.74
425.746	1199.71
426.123	1208.3
426.499	1221.41
426.875	1242.88
427.251	1237.45
427.627	1259.15
428.003	1268.86
428.379	1298.47
428.756	1312.25
429.132	1307.28
429.507	1344.12
429.883	1338.24
430.259	1386.38
430.635	1381.63
431.011	1420.95
431.387	1430.67
431.763	1450.1
432.138	1469.99
432.514	1504.56
432.89	1487.84
433.265	1518.58
433.641	1547.05
434.016	1545.69
434.392	1587.27
434.767	1606.71
435.143	1598.8
435.518	1613.26
435.894	1627.27
436.269	1631.79
436.644	1684.9
437.02	1705.92
437.395	1678.12
437.77	1735.97
438.145	1766.03
438.52	1743.2
438.895	1775.74
439.271	1799.7
439.646	1833.6
440.021	1819.81
440.395	1858.23
440.77	1799.02
441.145	1821.17
441.52	1873.14
441.895	1869.75
442.27	1882.41
442.645	1849.87
443.019	1961.95
443.394	1930.54
443.769	1910.66
444.143	1949.53
444.518	1988.62
444.892	1936.42
445.267	1995.4
445.641	2001.95
446.016	2032.91
446.39	2023.87
446.764	2024.78
447.139	2018.45
447.513	2035.4
447.887	2035.62
448.262	2091.44
448.636	2098.22
449.01	2106.36
449.384	2129.18
449.758	2176.19
450.132	2161.95
450.506	2170.08
450.88	2194.49
451.254	2187.03
451.628	2235.62
452.002	2252.79
452.376	2278.1
452.75	2293.92
453.123	2296.41
453.497	2354.03
453.871	2340.48
454.244	2398.33
454.618	2428.83
454.992	2455.73
455.365	2491.66
455.739	2509.96
456.112	2507.48
456.486	2546.57
456.859	2606
457.232	2633.35
457.606	2658.66
457.979	2678.09
458.352	2756.51
458.725	2756.74
459.099	2800.12
459.472	2767.13
459.845	2839.22
460.218	2855.49
460.591	2916.73
460.964	2921.02
461.337	2919.44
461.71	3045.32
462.083	3053.9
462.456	3035.6
462.829	3055.03
463.201	3147.91
463.574	3136.39
463.947	3196.05
464.32	3247.12
464.692	3258.87
465.065	3281.47
465.438	3337.96
465.81	3347.23
466.183	3364.18
466.555	3464.06
466.928	3524.4
467.3	3467
467.672	3471.29
468.045	3600.1
468.417	3572.53
468.789	3639.2
469.161	3674
469.534	3695.02
469.906	3761.91
470.278	3801.45
470.65	3832.19
471.022	3892.52
471.394	3964.61
471.766	3985.86
472.138	4061.79
472.51	4180.88
472.882	4186.53
473.253	4218.17
473.625	4258.84
473.997	4290.25
474.369	4417.03
474.74	4477.14
475.112	4560.76
475.484	4517.59
475.855	4656.12
476.227	4696.57
476.598	4795.55
476.97	4855.66
477.341	5029.67
477.713	5017.24
478.084	5066.28
478.455	5187.63
478.827	5208.65
479.198	5382.43
479.569	5348.98
479.94	5526.61
480.311	5600.95
480.682	5696.77
481.053	5804.56
481.424	5946.93
481.795	5966.14
482.166	6075.52
482.537	6147.15
482.908	6310.77
483.279	6388.73
483.65	6508.5
484.021	6594.15
484.391	6715.5
484.762	6787.59
485.133	6839.34
485.503	7016.74
485.874	7154.81
486.244	7244.98
486.615	7390.29
486.985	7470.28
487.356	7593.22
487.726	7669.37
488.097	7849.93
488.467	8028.46
488.837	8179.87
489.207	8228.91
489.578	8359.3
489.948	8476.59
490.318	8656.24
490.688	8656.92
491.058	8839.29
491.428	8976.91
491.798	9093.74
492.168	9328.09
492.538	9305.04
492.908	9558.82
493.278	9627.97
493.648	9761.75
494.017	9847.62
494.387	9953.38
494.757	10138.69
495.126	10191.79
495.496	10303.66
495.866	10413.03
496.235	10591.78
496.605	10726.92
496.974	10809.41
497.344	10944.54
497.713	11041.49
498.082	11091.88
498.452	11292.56
498.821	11406
499.19	11496.84
499.559	11654.58
499.928	11737.74
500.298	11818.19
500.667	11990.62
501.036	12052.99
501.405	12150.84
501.774	12263.38
502.143	12334.11
502.512	12486.88
502.88	12652.29
503.249	12615.46
503.618	12827.21
503.987	12853.42
504.356	13022
504.724	13191.72
505.093	13186.52
505.462	13350.81
505.83	13413.86
506.199	13546.28
506.567	13694.07
506.936	13814.52
507.304	14005.48
507.672	14055.65
508.041	14130.67
508.409	14338.13
508.777	14429.2
509.145	14585.58
509.514	14578.12
509.882	14773.59
510.25	14811.33
510.618	15009.07
510.986	15017.2
511.354	15133.36
511.722	15284.54
512.09	15457.64
512.458	15446.12
512.826	15659
513.193	15689.5
513.561	15899.89
513.929	15965.88
514.297	16127.91
514.664	16237.51
515.032	16369.48
515.4	16515.24
515.767	16668.01
516.135	16738.74
516.502	16597.95
516.869	16968.79
517.237	16938.51
517.604	16893.99
517.972	17347.31
518.339	17360.19
518.706	17435.22
519.073	17575.1
519.44	17630.92
519.808	17877.24
520.175	17970.35
520.542	18154.97
520.909	18276.33
521.276	18323.11
521.643	18479.94
522.009	18653.04
522.376	18839.7
522.743	18927.38
523.11	19198.56
523.477	19294.38
523.843	19496.18
524.21	19682.17
524.577	19823.18
524.943	19988.82
525.31	20091.65
525.676	20334.8
526.043	20438.98
526.409	20562.59
526.776	20744.96
527.142	20855.47
527.508	21015.92
527.874	21199.41
528.241	21317.6
528.607	21500.2
528.973	21733.64
529.339	21652.06
529.705	21898.15
530.071	22143.8
530.437	22320.74
530.803	22431.92
531.169	22572.49
531.535	22638.02
531.901	22758.02
532.267	22851.8
532.632	23044.79
532.998	23179.93
533.364	23213.37
533.73	23347.61
534.095	23588.05
534.461	23583.53
534.826	23760.02
535.192	23763.64
535.557	24029.62
535.923	23996.4
536.288	24101.71
536.653	24273.46
537.019	24270.52
537.384	24318.88
537.749	24459.22
538.114	24601.13
538.479	24567.24
538.845	24758.19
539.21	24697.85
539.575	24969.26
539.94	24881.8
540.305	25146.43
540.67	25152.76
541.034	25255.13
541.399	25338.06
541.764	25474.56
542.129	25353.88
542.494	25543.25
542.858	25710.26
543.223	25507.78
543.587	25828.9
543.952	25838.39
544.316	25974.88
544.681	25916.35
545.045	26035.22
545.41	26249.45
545.774	26215.33
546.138	26195.67
546.503	26319.05
546.867	26503.46
547.231	26700.29
547.595	26658.93
547.959	26660.29
548.324	26836.1
548.688	26809.21
549.052	26960.17
549.416	27008.53
549.779	27022.99
550.143	27096.43
550.507	27253.49
550.871	27399.25
551.235	27319.71
551.599	27566.7
551.962	27527.16
552.326	27712.01
552.689	27789.75
553.053	27633.37
553.417	27764.44
553.78	28056.41
554.143	28198.55
554.507	28270.87
554.87	28248.49
555.234	28500.69
555.597	28308.38
555.96	28430.86
556.323	28526.45
556.686	28622.27
557.05	28888.48
557.413	28897.07
557.776	29110.17
558.139	29203.5
558.502	29304.96
558.865	29302.93
559.228	29657.05
559.59	29647.1
559.953	29597.84
560.316	29948.56
560.679	29965.96
561.041	30158.73
561.404	30288.89
561.767	30488.66
562.129	30404.37
562.492	30650.69
562.854	30622.9
563.217	30719.84
563.579	30856.56
563.941	31139.72
564.304	31337
564.666	31412.71
565.028	31540.61
565.39	31667.39
565.753	31828.97
566.115	31878.46
566.477	32121.39
566.839	32197.32
567.201	32581.94
567.563	32486.35
567.925	32709.39
568.287	32724.08
568.648	32915.49
569.01	33111.87
569.372	33402.03
569.734	33233.67
570.095	33641.8
570.457	33750.72
570.819	33769.93
571.18	33907.78
571.542	34362.68
571.903	34266.87
572.265	34403.36
572.626	34671.83
572.987	34675.22
573.349	34952.73
573.71	35160.18
574.071	35374.18
574.432	35626.83
574.794	35814.62
575.155	35909.76
575.516	35960.38
575.877	36240.83
576.238	36113.6
576.599	36441.73
576.96	36646.47
577.32	36786.35
577.681	37029.51
578.042	37246.22
578.403	37247.13
578.763	37332.1
579.124	37418.42
579.485	37928.92
579.845	38095.02
580.206	38006.88
580.566	38221.34
580.927	38431.73
581.287	38809.12
581.648	38787.88
582.008	39124.59
582.368	39324.36
582.728	39517.58
583.089	39557.8
583.449	39746.27
583.809	39976.77
584.169	40366.82
584.529	40315.3
584.889	40831.67
585.249	40840.71
585.609	40848.84
585.969	41340.81
586.329	41505.55
586.688	41849.94
587.048	42104.63
587.408	42159.54
587.768	42443.6
588.127	42891.95
588.487	43131.94
588.846	43599.73
589.206	43422.56
589.565	43803.34
589.925	44241.07
590.284	44327.85
590.643	44596.99
591.003	44921.05
591.362	45368.95
591.721	45556.74
592.08	45777.3
592.44	46193.11
592.799	46406.21
593.158	46638.52
593.517	46710.83
593.876	47245.06
594.235	47411.15
594.593	47674.2
594.952	48018.6
595.311	48049.78
595.67	48478.92
596.029	48853.38
596.387	49023.99
596.746	49263.31
597.104	49378.11
597.463	49565.45
597.822	49974.7
598.18	50051.09
598.538	50301.47
598.897	50822.82
599.255	50687.68
599.613	51286.08
599.972	51236.36
600.33	51558.16
600.688	51624.15
601.046	51915.67
601.404	52255.09
601.762	52441.08
602.12	52670.45
602.478	52731.47
602.836	52976.43
603.194	52902.99
603.552	53229.08
603.91	53340.94
604.268	53550.43
604.625	53735.73
604.983	53999.46
605.341	53842.62
605.698	54188.83
606.056	54408.03
606.413	54479.67
606.771	54737.74
607.128	54819.1
607.485	54882.82
607.843	55010.05
608.2	55242.81
608.557	55377.95
608.914	55443.03
609.272	55639.64
609.629	55808
609.986	56002.12
610.343	55924.83
610.7	56258.61
611.057	56274.88
611.414	56370.47
611.771	56580.4
612.127	56643.23
612.484	56787.63
612.841	56905.14
613.198	56952.37
613.554	56959.6
613.911	57165.02
614.267	57267.39
614.624	57349.65
614.98	57431
615.337	57652.24
615.693	57621.28
616.05	57817.89
616.406	57870.77
616.762	57893.59
617.118	58026.02
617.475	58030.76
617.831	58163.41
618.187	58198.67
618.543	58336.06
618.899	58514.82
619.255	58481.15
619.611	58481.6
619.967	58658.32
620.323	58670.07
620.678	58682.95
621.034	58727.92
621.39	58727.69
621.746	58781.7
622.101	59129.72
622.457	58933.11
622.812	59099.66
623.168	59114.12
623.523	59146.89
623.879	59259.43
624.234	59120.9
624.589	59222.14
624.945	59303.5
625.3	59318.19
625.655	59347.11
626.01	59433.89
626.365	59454.91
626.72	59470.27
627.075	59404.51
627.43	59453.78
627.785	59449.48
628.14	59520.21
628.495	59541.23
628.85	59555.47
629.205	59551.63
629.559	59622.13
629.914	59549.59
630.269	59554.79
630.623	59443.61
630.978	59482.02
631.332	59657.61
631.687	59623.04
632.041	59549.59
632.396	59607.22
632.75	59526.32
633.104	59570.61
633.459	59490.16
633.813	59437.73
634.167	59470.72
634.521	59475.24
634.875	59496.26
635.229	59430.05
635.583	59387.79
635.937	59368.35
636.291	59433.66
636.645	59387.11
636.999	59326.1
637.352	59376.04
637.706	59172.2
638.06	59324.51
638.413	59239.09
638.767	59155.25
639.121	59212.65
639.474	59174.46
639.828	59148.92
640.181	59148.47
640.534	59253.1
640.888	59110.06
641.241	59015.82
641.594	59018.53
641.947	59172.2
642.301	59044.29
642.654	59067.12
643.007	59010.85
643.36	59037.29
643.713	58957.52
644.066	59057.85
644.419	58864.19
644.771	58622.84
645.124	58404.54
645.477	58417.64
645.83	58249.97
646.182	58237.08
646.535	58216.07
646.888	58223.75
647.24	58154.37
647.593	58243.86
647.945	58113.7
648.298	58108.73
648.65	58000.25
649.002	57895.17
649.355	57935.62
649.707	57914.16
650.059	57865.57
650.411	58162.74
650.763	58316.63
651.115	58673.01
651.467	58578.54
651.819	58527.7
652.171	58467.13
652.523	58403.18
652.875	58387.82
653.227	58334.26
653.578	58483.41
653.93	58419.9
654.282	58247.93
654.633	58186.01
654.985	58297.2
655.337	58247.25
655.688	58248.16
656.039	58335.61
656.391	58020.14
656.742	58121.16
657.094	58082.96
657.445	58165
657.796	58044.77
658.147	58093.59
658.498	58050.2
658.849	58131.1
659.2	58040.93
659.551	57985.34
659.902	58034.38
660.253	57926.13
660.604	58042.06
660.955	57890.43
661.306	58058.33
661.656	57889.52
662.007	57915.74
662.358	57870.54
662.708	57862.63
663.059	57809.3
663.409	57711.67
663.76	57852.01
664.11	57871.67
664.461	57888.17
664.811	57887.26
665.161	57758.23
665.511	57790.99
665.862	57777.21
666.212	57876.87
666.562	57854.27
666.912	57779.02
667.262	57690.43
667.612	57697.44
667.962	57762.52
668.312	57708.51
668.662	57816.98
669.011	57835.97
669.361	57734.27
669.711	57678
670.06	57695.4
670.41	57705.8
670.76	57588.29
671.109	57700.83
671.459	57647.5
671.808	57671.22
672.157	57759.58
672.507	57537.44
672.856	57540.15
673.205	57681.62
673.554	57694.05
673.904	57575.18
674.253	57722.75
674.602	57586.71
674.951	57238.92
675.3	57138.81
675.649	57605.46
675.998	57513.04
676.346	57553.94
676.695	57662.41
677.044	57379.71
677.393	57521.4
677.741	57512.13
678.09	57509.42
678.438	57443.66
678.787	57517.56
679.135	57456.54
679.484	57293.15
679.832	57418.57
680.181	57312.14
680.529	57320.95
680.877	57342.42
681.225	57281.86
681.573	57481.17
681.922	57321.4
682.27	57219.94
682.618	57202.08
682.966	57086.83
683.314	57272.36
683.661	57188.75
684.009	57127.28
684.357	57031.24
684.705	57018.13
685.053	57073.27
685.4	56926.61
685.748	56866.27
686.095	56869.44
686.443	56772.72
686.79	56759.16
687.138	56841.87
687.485	56805.26
687.832	56715.54
688.18	56702.44
688.527	56659.05
688.874	56586.51
689.221	56593.51
689.568	56496.79
689.915	56461.31
690.262	56430.35
690.609	56434.65
690.956	56327.53
691.303	56262.67
691.65	56212.05
691.997	56170.92
692.344	55980.19
692.69	56041.21
693.037	56050.25
693.383	55871.05
693.73	55911.27
694.077	55806.64
694.423	55763.03
694.769	55650.94
695.116	55739.52
695.462	55580.21
695.808	55483.48
696.155	55521
696.501	55310.38
696.847	55390.61
697.193	55303.83
697.539	55352.64
697.885	55080.56
698.231	55081.24
698.577	55038.07
698.923	54975.7
699.269	54807.8
699.614	54794.69
699.96	54698.65
700.306	54688.25
700.651	54605.99
700.997	54531.65
701.342	54408.71
701.688	54341.59
702.033	54307.24
702.379	54279.22
702.724	54214.82
703.069	54224.76
703.415	53952.68
703.76	53904.77
704.105	53959.23
704.45	53852.34
704.795	53785
705.14	53639.47
705.485	53704.77
705.83	53477.66
706.175	53582.29
706.52	53423.65
706.865	53350.89
707.209	53200.61
707.554	53289.42
707.899	53225.01
708.243	53048.75
708.588	52975.53
708.932	52897.34
709.277	52968.97
709.621	52791.13
709.966	52567.86
710.31	52703.44
710.654	52499.61
710.998	52522.66
711.342	52526.05
711.687	52364.92
712.031	52332.61
712.375	52077.25
712.719	52192.72
713.063	52079.28
713.407	52168.54
713.75	52044.03
714.094	51943.46
714.438	51870.92
714.782	51855.11
715.125	51602.23
715.469	51869.12
715.812	51536.7
716.156	51529.69
716.499	51555.23
716.843	51522.01
717.186	51291.28
717.53	51423.7
717.873	51449.69
718.216	51285.85
718.559	51295.35
718.902	50845.41
719.246	51006.99
719.589	50962.02
719.932	50869.14
720.275	50844.74
720.617	50889.71
720.96	50730.39
721.303	50690.62
721.646	50711.18
721.989	50535.37
722.331	50610.17
722.674	50479.1
723.016	50502.6
723.359	50314.36
723.701	50403.39
724.044	50249.72
724.386	50058.99
724.729	50243.85
725.071	50084.08
725.413	50066
725.755	50005.44
726.097	49891.54
726.439	49766.8
726.782	49656.97
727.124	49948.26
727.465	49712.34
727.807	49648.38
728.149	49584.2
728.491	49604.54
728.833	49606.35
729.175	49539.46
729.516	49335.85
729.858	49456.3
730.199	49558.67
730.541	49358.45
730.882	49253.14
731.224	49418.11
731.565	49113.93
731.906	49182.86
732.248	49224.89
732.589	48986.48
732.93	48892.02
733.271	48932.24
733.612	48925.69
733.953	48936.09
734.294	48859.25
734.635	48671.01
734.976	48866.26
735.317	48694.74
735.658	48609.54
735.999	48579.71
736.339	48605.7
736.68	48482.31
737.021	48487.06
737.361	48350.79
737.702	48572.48
738.042	48332.71
738.383	48354.18
738.723	48254.07
739.063	48006.39
739.404	48335.65
739.744	48097.92
740.084	48159.61
740.424	48088.42
740.764	47847.08
741.104	48073.06
741.444	47788.77
741.784	47808.21
742.124	47930.24
742.464	47745.38
742.804	47658.83
743.143	47585.16
743.483	47678.72
743.823	47521.89
744.162	47454.32
744.502	47540.42
744.841	47407.99
745.181	47451.61
745.52	47370.25
745.86	47354.43
746.199	47287.09
746.538	47363.25
746.877	47243.02
747.216	47124.83
747.556	47074.89
747.895	47138.62
748.234	47017.94
748.573	46927.33
748.911	46822.24
749.25	46828.57
749.589	46761.23
749.928	46703.38
750.267	46746.09
750.605	46669.25
750.944	46514.68
751.283	46512.2
751.621	46569.37
751.96	46289.38
752.298	46413.67
752.636	46347.68
752.975	46159.89
753.313	46027.46
753.651	46184.52
753.989	45995.37
754.327	45975.94
754.666	45528.27
