Data from 7415_FLMS001491_001.txt Node
Date: Thu Apr 19 16:29:39 BST 2018
User: hsy
Spectrometer: FLMS00149
Trigger mode: 0
Integration Time (sec): 1.000000E-2
Scans to average: 10
Electric dark correction enabled: true
Nonlinearity correction enabled: false
Boxcar width: 0
XAxis mode: Wavelengths
Number of Pixels in Spectrum: 2048
>>>>>Begin Spectral Data<<<<<
341.393	-0.24
341.776	-0.24
342.16	-0.24
342.543	-57.87
342.927	-89.28
343.31	-61.71
343.693	-61.03
344.077	-66.91
344.46	-73.68
344.843	-53.57
345.226	-54.93
345.61	-38.43
345.993	5.18
346.376	-6.57
346.759	24.17
347.142	36.37
347.525	50.15
347.908	35.24
348.291	70.27
348.674	85.18
349.057	110.27
349.44	137.84
349.823	143.03
350.206	192.3
350.588	236.14
350.971	233.43
351.354	239.75
351.737	274.33
352.119	284.72
352.502	290.83
352.884	318.85
353.267	317.04
353.65	336.93
354.032	319.98
354.414	328.11
354.797	365.17
355.179	339.64
355.562	366.08
355.944	366.3
356.326	359.98
356.709	369.69
357.091	378.51
357.473	391.84
357.855	388.9
358.238	392.29
358.62	368.11
359.002	385.74
359.384	372.86
359.766	394.1
360.148	369.92
360.53	382.57
360.912	382.35
361.294	369.02
361.676	396.13
362.057	391.84
362.439	378.06
362.821	381.67
363.203	372.63
363.584	373.99
363.966	352.07
364.348	380.31
364.729	366.53
365.111	375.12
365.493	392.74
365.874	372.63
366.256	349.58
366.637	366.3
367.019	378.96
367.4	364.27
367.781	368.34
368.163	374.44
368.544	359.3
368.925	354.55
369.306	395
369.688	373.31
370.069	361.11
370.45	380.09
370.831	360.65
371.212	381.44
371.593	367.21
371.974	367.43
372.355	369.92
372.736	366.53
373.117	398.39
373.498	386.87
373.879	381.22
374.26	363.14
374.641	362.24
375.021	394.33
375.402	377.38
375.783	403.82
376.163	398.39
376.544	400.43
376.925	406.3
377.305	396.13
377.686	369.47
378.066	399.07
378.447	393.87
378.827	391.39
379.208	411.73
379.588	405.4
379.968	421.44
380.349	413.99
380.729	403.82
381.109	400.2
381.489	409.69
381.87	416.02
382.25	432.29
382.63	432.52
383.01	435.45
383.39	431.61
383.77	430.93
384.15	427.09
384.53	441.1
384.91	437.94
385.29	462.12
385.67	443.36
386.049	458.05
386.429	451.5
386.809	459.63
387.189	463.48
387.568	461.89
387.948	463.93
388.328	465.28
388.707	464.15
389.087	481.56
389.466	497.15
389.846	493.31
390.225	481.33
390.605	471.39
390.984	481.1
391.363	480.88
391.743	507.32
392.122	498.28
392.501	515
392.881	517.49
393.26	519.97
393.639	497.83
394.018	505.74
394.397	541.67
394.776	530.82
395.155	528.33
395.534	541.89
395.913	537.37
396.292	537.15
396.671	532.4
397.05	546.41
397.429	564.49
397.808	565.17
398.186	579.18
398.565	549.8
398.944	587.09
399.323	585.28
399.701	573.53
400.08	566.52
400.458	586.19
400.837	586.41
401.215	612.17
401.594	594.32
401.972	596.58
402.351	592.96
402.729	605.62
403.107	631.38
403.486	631.83
403.864	642.91
404.242	627.09
404.62	641.55
404.999	665.73
405.377	649.46
405.755	667.76
406.133	676.8
406.511	681.78
406.889	684.04
407.267	694.43
407.645	719.74
408.023	725.62
408.401	726.07
408.779	755.22
409.156	751.83
409.534	748.44
409.912	752.51
410.29	758.16
410.667	788.89
411.045	794.99
411.422	802.68
411.8	803.13
412.178	841.77
412.555	854.43
412.933	867.08
413.31	852.62
413.687	888.78
414.065	884.03
414.442	913.63
414.819	893.3
415.197	928.78
415.574	936.46
415.951	950.92
416.328	962.22
416.705	963.58
417.082	975.55
417.46	985.72
417.837	999.51
418.214	1039.96
418.591	1009.68
418.967	1017.59
419.344	1035.89
419.721	1052.84
420.098	1044.7
420.475	1062.33
420.852	1080.86
421.228	1071.37
421.605	1126.74
421.982	1129.9
422.358	1119.73
422.735	1143.01
423.111	1110.01
423.488	1152.95
423.864	1172.16
424.241	1180.75
424.617	1220.74
424.994	1186.4
425.37	1235.43
425.746	1199.5
426.123	1252.16
426.499	1249.44
426.875	1268.2
427.251	1292.16
427.627	1299.39
428.003	1307.75
428.379	1334.64
428.756	1339.84
429.132	1389.33
429.507	1380.29
429.883	1421.19
430.259	1440.63
430.635	1439.04
431.011	1411.93
431.387	1487.4
431.763	1482.66
432.138	1495.77
432.514	1521.98
432.89	1524.47
433.265	1551.36
433.641	1581.87
434.016	1580.96
434.392	1610.11
434.767	1646.5
435.143	1616.67
435.518	1670.22
435.894	1665.25
436.269	1699.15
436.644	1733.27
437.02	1743.89
437.395	1790
437.77	1757.23
438.145	1808.3
438.52	1819.37
438.895	1848.98
439.271	1825.7
439.646	1842.42
440.021	1871.8
440.395	1871.8
440.77	1853.72
441.145	1907.96
441.52	1939.37
441.895	1924.23
442.27	1960.16
442.645	1923.1
443.019	1960.61
443.394	1948.41
443.769	1990.44
444.143	1987.5
444.518	2035.41
444.892	2034.96
445.267	2026.6
445.641	2050.55
446.016	2048.75
446.39	2067.5
446.764	2082.19
447.139	2098.46
447.513	2093.72
447.887	2132.36
448.262	2110.44
448.636	2161.74
449.01	2152.7
449.384	2183.43
449.758	2214.84
450.132	2250.77
450.506	2258.23
450.88	2262.07
451.254	2251.9
451.628	2312.69
452.002	2316.31
452.376	2326.03
452.75	2370.32
453.123	2386.14
453.497	2439.02
453.871	2457.55
454.244	2505
454.618	2514.04
454.992	2551.78
455.365	2560.37
455.739	2602.86
456.112	2599.69
456.486	2642.85
456.859	2680.37
457.232	2695.51
457.606	2720.14
457.979	2728.28
458.352	2831.1
458.725	2841.72
459.099	2863.41
459.472	2945.67
459.845	2952
460.218	2977.08
460.591	3032.67
460.964	2997.65
461.337	3039.68
461.71	3145.21
462.083	3168.26
462.456	3187.25
462.829	3192.22
463.201	3257.08
463.574	3240.8
463.947	3289.16
464.32	3368.03
464.692	3400.8
465.065	3432.44
465.438	3383.4
465.81	3470.63
466.183	3466.56
466.555	3582.72
466.928	3621.13
467.3	3610.29
467.672	3635.37
468.045	3739.55
468.417	3761.92
468.789	3742.03
469.161	3789.26
469.534	3843.27
469.906	3895.48
470.278	3942.71
470.65	4012.31
471.022	4088.47
471.394	4111.29
471.766	4156.49
472.138	4211.17
472.51	4319.65
472.882	4363.71
473.253	4378.18
473.625	4436.03
473.997	4532.97
474.369	4551.05
474.74	4600.54
475.112	4706.3
475.484	4733.42
475.855	4828.56
476.227	4882.12
476.598	5043.24
476.97	5062.9
477.341	5143.81
477.713	5172.73
478.084	5307.19
478.455	5404.82
478.827	5412.72
479.198	5651.81
479.569	5627.86
479.94	5756.67
480.311	5803.9
480.682	5932.49
481.053	6053.84
481.424	6139.26
481.795	6188.52
482.166	6315.07
482.537	6377.9
482.908	6584.22
483.279	6694.27
483.65	6795.06
484.021	6919.35
484.391	7023.08
484.762	7072.12
485.133	7127.71
485.503	7260.36
485.874	7436.4
486.244	7475.27
486.615	7687.69
486.985	7801.36
487.356	7980.12
487.726	8016.72
488.097	8278.64
488.467	8263.5
488.837	8470.72
489.207	8541
489.578	8709.81
489.948	8827.55
490.318	8931.28
490.688	9070.93
491.058	9209.91
491.428	9367.42
491.798	9456.46
492.168	9641.09
492.538	9754.08
492.908	9910.69
493.278	10113.62
493.648	10138.02
494.017	10273.61
494.387	10452.14
494.757	10510.67
495.126	10606.94
495.496	10695.75
495.866	10895.07
496.235	10999.92
496.605	11131.9
496.974	11250.99
497.344	11404.21
497.713	11500.02
498.082	11686.68
498.452	11799.68
498.821	11877.19
499.19	11934.59
499.559	12122.15
499.928	12161.47
500.298	12374.35
500.667	12545.87
501.036	12509.04
501.405	12746.54
501.774	12780.44
502.143	12907.67
502.512	12981.79
502.88	13143.82
503.249	13181.79
503.618	13294.55
503.987	13472.85
504.356	13576.8
504.724	13713.07
505.093	13794.65
505.462	13833.52
505.83	14043.68
506.199	14098.15
506.567	14291.59
506.936	14378.59
507.304	14603.67
507.672	14635.31
508.041	14778.35
508.409	14878.24
508.777	14973.38
509.145	15127.72
509.514	15222.41
509.882	15459.01
510.25	15465.34
510.618	15581.72
510.986	15590.08
511.354	15804.09
511.722	15980.13
512.09	16177.64
512.458	16177.19
512.826	16436.62
513.193	16391.42
513.561	16545.99
513.929	16642.94
514.297	16888.36
514.664	16956.6
515.032	17015.13
515.4	17181.23
515.767	17296.48
516.135	17443.37
516.502	17232.75
516.869	17698.05
517.237	17785.28
517.604	17752.97
517.972	17989.34
518.339	18138.27
518.706	18251.26
519.073	18244.93
519.44	18378.94
519.808	18696.67
520.175	18708.65
520.542	19045.13
520.909	19065.7
521.276	19113.16
521.643	19514.05
522.009	19441.96
522.376	19637.21
522.743	19764.66
523.11	20024.54
523.477	20201.04
523.843	20274.26
524.21	20486.9
524.577	20724.86
524.943	20869.27
525.31	21016.61
525.676	21255.47
526.043	21312.65
526.409	21416.82
526.776	21745.63
527.142	21924.61
527.508	21885.29
527.874	22103.59
528.241	22276.01
528.607	22405.72
528.973	22676.23
529.339	22599.17
529.705	22950.12
530.071	23137.68
530.437	23289.09
530.803	23442.76
531.169	23553.26
531.535	23554.85
531.901	23785.8
532.267	23794.61
532.632	24080.71
532.998	24109.86
533.364	24288.61
533.73	24317.09
534.095	24618.1
534.461	24631.88
534.826	24727.7
535.192	24916.39
535.557	25000.68
535.923	25011.31
536.288	25201.81
536.653	25413.78
537.019	25374.69
537.384	25609.71
537.749	25646.09
538.114	25753.88
538.479	25644.28
538.845	25976.25
539.21	25882.02
539.575	26004.27
539.94	26202.69
540.305	26290.37
540.67	26244.04
541.034	26472.96
541.399	26618.04
541.764	26466.18
542.129	26653.97
542.494	26756.57
542.858	26877.25
543.223	26800.19
543.587	27018.94
543.952	26970.8
544.316	27085.15
544.681	27146.84
545.045	27403.56
545.41	27359.94
545.774	27310.45
546.138	27451.47
546.503	27543.44
546.867	27678.13
547.231	27775.3
547.595	27806.49
547.959	27921.96
548.324	27904.56
548.688	28016.2
549.052	28038.57
549.416	28088.29
549.779	28182.97
550.143	28190.66
550.507	28445.57
550.871	28450.54
551.235	28510.2
551.599	28699.12
551.962	28735.5
552.326	28852.79
552.689	28894.14
553.053	28885.33
553.417	29070.86
553.78	29345.65
554.143	29300.91
554.507	29354.24
554.87	29552.43
555.234	29770.73
555.597	29616.38
555.96	29788.81
556.323	29956.26
556.686	29948.58
557.05	30224.28
557.413	30152.64
557.776	30239.64
558.139	30498.84
558.502	30619.52
558.865	30622.46
559.228	30900.87
559.59	31009.34
559.953	31037.14
560.316	31428.76
560.679	31421.76
561.041	31539.27
561.404	31634.18
561.767	31965.7
562.129	31841.18
562.492	32086.83
562.854	32142.64
563.217	32118.69
563.579	32235.52
563.941	32580.82
564.304	32769.97
564.666	33033.69
565.028	33009.51
565.39	33040.25
565.753	33242.5
566.115	33398.66
566.477	33544.41
566.839	33709.83
567.201	34003.84
567.563	33959.09
567.925	34254.68
568.287	34374.22
568.648	34383.49
569.01	34739.41
569.372	35106.18
569.734	34893.31
570.095	35214.43
570.457	35455.55
570.819	35530.58
571.18	35718.82
571.542	35834.52
571.903	35898.93
572.265	36187.51
572.626	36408.52
572.987	36530.32
573.349	36727.16
573.71	36980.26
574.071	37156.52
574.432	37250.76
574.794	37540.69
575.155	37551.54
575.516	37525.55
575.877	37893.9
576.238	37921.02
576.599	38238.08
576.96	38271.75
577.32	38514.91
577.681	38793.09
578.042	38995.57
578.403	39028.56
578.763	39204.38
579.124	39398.72
579.485	39752.84
579.845	39941.53
580.206	40145.37
580.566	40152.6
580.927	40315.31
581.287	40552.14
581.648	40641.18
582.008	40894.96
582.368	40933.37
582.728	41166.36
583.089	41342.63
583.449	41653.13
583.809	41843.63
584.169	42125.66
584.529	42115.71
584.889	42653.78
585.249	42608.13
585.609	42678.19
585.969	43052.64
586.329	43220.77
586.688	43532.85
587.048	43886.74
587.408	43929.45
587.768	44194.53
588.127	44315.66
588.487	44606.95
588.846	45194.73
589.206	45070.89
589.565	45364.67
589.925	45845.33
590.284	46053.69
590.643	46160.58
591.003	46507.01
591.362	46954.46
591.721	47162.36
592.08	47236.03
592.44	47745.4
592.799	47883.25
593.158	47955.11
593.517	48184.71
593.876	48562.1
594.235	48679.16
594.593	48926.61
594.952	49298.8
595.311	49440.49
595.67	49794.38
596.029	50091.78
596.387	50288.38
596.746	50571.76
597.104	50642.72
597.463	50746.45
597.822	51177.17
598.18	51269.37
598.538	51411.97
598.897	51863.93
599.255	51708.91
599.613	52378.04
599.972	52357.48
600.33	52492.16
600.688	52666.17
601.046	52868.2
601.404	53180.96
601.762	53342.76
602.12	53586.37
602.478	53789.08
602.836	53893.71
603.194	53924.22
603.552	54107.49
603.91	54133.48
604.268	54463.19
604.625	54544.09
604.983	54846.91
605.341	54793.8
605.698	55113.79
606.056	55351.98
606.413	55368.25
606.771	55568.47
607.128	55691.4
607.485	55758.29
607.843	55870.16
608.2	56034.22
608.557	56242.35
608.914	56223.14
609.272	56466.3
609.629	56648.44
609.986	56837.36
610.343	56841.66
610.7	57130.69
611.057	57071.25
611.414	57059.95
611.771	57319.83
612.127	57454.07
612.484	57504.46
612.841	57718.02
613.198	57648.87
613.554	57714.4
613.911	58003.21
614.267	58068.97
614.624	58118.23
614.98	58241.62
615.337	58420.14
615.693	58485.91
616.05	58504.44
616.406	58699.01
616.762	58681.83
617.118	58785.33
617.475	58777.42
617.831	58992.79
618.187	59070.75
618.543	59089.05
618.899	59293.57
619.255	59221.93
619.611	59243.85
619.967	59453.79
620.323	59550.74
620.678	59456.5
621.034	59519.78
621.39	59535.37
621.746	59571.3
622.101	59867.11
622.457	59697.17
622.812	59876.6
623.168	59922.03
623.523	59948.47
623.879	59993.21
624.234	59934.68
624.589	60006.32
624.945	60037.96
625.3	60091.29
625.655	60137.16
626.01	60162.25
626.365	60164.05
626.72	60132.87
627.075	60106.65
627.43	60231.85
627.785	60183.94
628.14	60263.03
628.495	60267.1
628.85	60277.72
629.205	60268.68
629.559	60379.87
629.914	60230.94
630.269	60326.99
630.623	60213.32
630.978	60108.91
631.332	60360.43
631.687	60361.34
632.041	60308.46
632.396	60326.54
632.75	60237.05
633.104	60297.84
633.459	60192.98
633.813	60197.73
634.167	60171.51
634.521	60277.05
634.875	60185.07
635.229	60155.24
635.583	60045.86
635.937	60056.26
636.291	60086.54
636.645	60096.71
636.999	59987.34
637.352	60109.82
637.706	59928.58
638.06	60014.68
638.413	59997.28
638.767	59863.27
639.121	59973.1
639.474	59844.51
639.828	59884.29
640.181	59863.27
640.534	59940.1
640.888	59840.9
641.241	59751.41
641.594	59730.39
641.947	59776.72
642.301	59739.88
642.654	59817.17
643.007	59630.51
643.36	59682.71
643.713	59593.45
644.066	59707.79
644.419	59515.94
644.771	59373.11
645.124	59088.38
645.477	59157.3
645.83	58998.89
646.182	58934.48
646.535	58908.04
646.888	58908.27
647.24	58842.28
647.593	59011.99
647.945	58870.75
648.298	58814.94
648.65	58696.3
649.002	58588.95
649.355	58664.21
649.707	58595.96
650.059	58601.61
650.411	58889.28
650.763	58935.61
651.115	59260.57
651.467	59138.32
651.819	59220.12
652.171	59094.93
652.523	59058.55
652.875	59076.17
653.227	58961.83
653.578	59132.44
653.93	59074.82
654.282	59010.64
654.633	58915.27
654.985	58938.1
655.337	59004.54
655.688	58974.25
656.039	58956.4
656.391	58812.22
656.742	58806.8
657.094	58822.62
657.445	58948.49
657.796	58858.55
658.147	58719.35
658.498	58854.71
658.849	58858.1
659.2	58809.74
659.551	58645.9
659.902	58866.01
660.253	58707.82
660.604	58758.44
660.955	58658.56
661.306	58734.94
661.656	58633.47
662.007	58615.39
662.358	58625.56
662.708	58657.65
663.059	58590.76
663.409	58528.84
663.76	58649.07
664.11	58633.25
664.461	58679.35
664.811	58580.59
665.161	58602.51
665.511	58506.24
665.862	58507.6
666.212	58641.38
666.562	58622.17
666.912	58464.89
667.262	58476.19
667.612	58408.17
667.962	58494.49
668.312	58449.97
668.662	58599.12
669.011	58426.92
669.361	58447.04
669.711	58480.03
670.06	58380.82
670.41	58401.84
670.76	58379.24
671.109	58527.71
671.459	58392.57
671.808	58418.79
672.157	58393.48
672.507	58256.31
672.856	58332.92
673.205	58364.1
673.554	58449.75
673.904	58331.11
674.253	58490.88
674.602	58357.55
674.951	58026.71
675.3	57965.24
675.649	58329.98
675.998	58387.6
676.346	58360.26
676.695	58373.82
677.044	58177.21
677.393	58294.72
677.741	58300.37
678.09	58215.4
678.438	58180.15
678.787	58250.21
679.135	58280.26
679.484	58082.75
679.832	58273.71
680.181	58153.71
680.529	58217.66
680.877	58069.87
681.225	58070.32
681.573	58236.19
681.922	58082.75
682.27	57983.55
682.618	57993.72
682.966	57931.12
683.314	58022.42
683.661	57988.29
684.009	57866.94
684.357	57820.84
684.705	57753.72
685.053	57814.51
685.4	57742.87
685.748	57650.67
686.095	57713.5
686.443	57537
686.79	57501.07
687.138	57583.33
687.485	57528.87
687.832	57465.14
688.18	57497.01
688.527	57354.86
688.874	57359.16
689.221	57410.91
689.568	57230.8
689.915	57165.49
690.262	57223.11
690.609	57136.79
690.956	57066.51
691.303	57000.07
691.65	56941.77
691.997	56913.29
692.344	56825.16
692.69	56756.91
693.037	56847.08
693.383	56554.88
693.73	56749.45
694.077	56510.82
694.423	56557.14
694.769	56456.35
695.116	56500.2
695.462	56309.24
695.808	56242.12
696.155	56343.82
696.501	56119.87
696.847	56170.49
697.193	55972.53
697.539	56075.12
697.885	55773.66
698.231	55838.52
698.577	55881.91
698.923	55820.21
699.269	55573.89
699.614	55533.44
699.96	55392.43
700.306	55482.37
700.651	55366.89
700.997	55284.41
701.342	55218.65
701.688	55151.98
702.033	55119.89
702.379	55123.28
702.724	54946.56
703.069	55080.8
703.415	54692.33
703.76	54843.29
704.105	54783.18
704.45	54634.26
704.795	54526.69
705.14	54512.9
705.485	54490.3
705.83	54296.19
706.175	54437.65
706.52	54297.77
706.865	54208.05
707.209	54178.45
707.554	54057.1
707.899	54161.95
708.243	53927.38
708.588	53872.92
708.932	53826.14
709.277	53895.29
709.621	53692.59
709.966	53438.13
710.31	53611.91
710.654	53379.6
710.998	53405.36
711.342	53386.38
711.687	53308.19
712.031	53232.71
712.375	53109.78
712.719	53055.77
713.063	52954.75
713.407	53127.18
713.75	52953.4
714.094	52953.17
714.438	52791.37
714.782	52796.56
715.125	52638.83
715.469	52815.77
715.812	52430.02
716.156	52490.13
716.499	52409.91
716.843	52494.42
717.186	52196.58
717.53	52494.65
717.873	52309.57
718.216	52152.51
718.559	52197.26
718.902	51899.19
719.246	51982.35
719.589	51868
719.932	51764.95
720.275	51827.55
720.617	51813.76
720.96	51729.02
721.303	51764.73
721.646	51793.65
721.989	51489.71
722.331	51530.38
722.674	51398.63
723.016	51376.71
723.359	51328.35
723.701	51367.67
724.044	51203.16
724.386	51110.73
724.729	51106.66
725.071	51092.65
725.413	51057.17
725.755	50966.56
726.097	50889.5
726.439	50757.07
726.782	50735.15
727.124	50920
727.465	50841.13
727.807	50604.53
728.149	50704.19
728.491	50500.58
728.833	50478.21
729.175	50515.49
729.516	50477.08
729.858	50348.27
730.199	50362.5
730.541	50247.25
730.882	50189.4
731.224	50295.39
731.565	50078.22
731.906	50118.22
732.248	50189.17
732.589	49849.3
732.93	49912.57
733.271	50035.28
733.612	49830.31
733.953	49944.44
734.294	49893.82
734.635	49694.72
734.976	49871.22
735.317	49610.88
735.658	49623.31
735.999	49480.04
736.339	49522.53
736.68	49521.62
737.021	49418.35
737.361	49212.03
737.702	49555.07
738.042	49327.73
738.383	49462.87
738.723	49413.6
739.063	49221.29
739.404	49280.72
739.744	49205.47
740.084	49033.5
740.424	49075.31
740.764	49020.39
741.104	49128.19
741.444	48911.02
741.784	48797.8
742.124	48922.99
742.464	48848.42
742.804	48734.52
743.143	48494.53
743.483	48698.59
743.823	48535.88
744.162	48680.74
744.502	48590.12
744.841	48453.4
745.181	48661.76
745.52	48455.89
745.86	48392.84
746.199	48428.54
746.538	48333.4
746.877	48441.65
747.216	48312.16
747.556	48238.49
747.895	48249.34
748.234	48097.03
748.573	48041.89
748.911	47951.04
749.25	47965.05
749.589	47762.8
749.928	47890.93
750.267	47831.04
750.605	47855.9
750.944	47797.37
751.283	47558.28
751.621	47663.37
751.96	47243.94
752.298	47377.05
752.636	47385.86
752.975	47192.87
753.313	47100.22
753.651	47367.33
753.989	47097.05
754.327	47020.67
