Data from 7415_FLMS001491_002.txt Node
Date: Thu Apr 19 16:29:42 BST 2018
User: hsy
Spectrometer: FLMS00149
Trigger mode: 0
Integration Time (sec): 1.000000E-2
Scans to average: 10
Electric dark correction enabled: true
Nonlinearity correction enabled: false
Boxcar width: 0
XAxis mode: Wavelengths
Number of Pixels in Spectrum: 2048
>>>>>Begin Spectral Data<<<<<
341.393	-15.3
341.776	-15.3
342.16	-15.3
342.543	-66.59
342.927	-74.5
343.31	-52.36
343.693	-72.24
344.077	-73.15
344.46	-51.45
344.843	-56.88
345.226	-53.49
345.61	-26.6
345.993	-27.27
346.376	-1.06
346.759	17.92
347.142	18.83
347.525	36.45
347.908	61.54
348.291	61.31
348.674	104.25
349.057	114.19
349.44	100.41
349.823	134.08
350.206	184.47
350.588	233.96
350.971	239.84
351.354	288.2
351.737	278.03
352.119	275.09
352.502	310.57
352.884	293.4
353.267	322.32
353.65	333.4
354.032	333.17
354.414	334.3
354.797	362.09
355.179	367.29
355.562	367.07
355.944	373.85
356.326	367.74
356.709	393.73
357.091	377.46
357.473	363.22
357.855	372.72
358.238	363
358.62	398.93
359.002	390.79
359.384	382.89
359.766	386.73
360.148	376.78
360.53	383.34
360.912	379.04
361.294	364.81
361.676	380.4
362.057	383.56
362.439	382.89
362.821	375.43
363.203	373.17
363.584	379.04
363.966	381.3
364.348	385.6
364.729	376.56
365.111	363.9
365.493	360.74
365.874	388.76
366.256	367.74
366.637	367.52
367.019	366.61
367.4	366.16
367.781	381.08
368.163	377.46
368.544	381.98
368.925	367.97
369.306	371.59
369.688	342.89
370.069	379.04
370.45	388.31
370.831	361.64
371.212	361.64
371.593	398.25
371.974	366.39
372.355	379.27
372.736	355.99
373.117	390.79
373.498	374.98
373.879	363.45
374.26	374.3
374.641	379.04
375.021	374.3
375.402	381.08
375.783	408.87
376.163	424.92
376.544	392.83
376.925	396.44
377.305	392.83
377.686	403.22
378.066	415.65
378.447	414.75
378.827	415.43
379.208	394.41
379.588	399.83
379.968	414.97
380.349	432.38
380.729	428.08
381.109	427.4
381.489	440.29
381.87	401.64
382.25	433.28
382.63	419.72
383.01	427.18
383.39	412.26
383.77	466.05
384.15	442.54
384.53	432.15
384.91	452.49
385.29	442.77
385.67	443.45
386.049	439.83
386.429	457.69
386.809	463.11
387.189	466.5
387.568	484.58
387.948	447.52
388.328	470.11
388.707	470.11
389.087	469.89
389.466	473.05
389.846	493.84
390.225	501.07
390.605	471.47
390.984	511.47
391.363	493.84
391.743	499.72
392.122	499.27
392.501	502.2
392.881	515.31
393.26	510.34
393.639	521.41
394.018	532.03
394.397	520.28
394.776	520.73
395.155	535.88
395.534	539.72
395.913	522.32
396.292	522.32
396.671	555.99
397.05	546.5
397.429	544.01
397.808	547.63
398.186	576.1
398.565	560.96
398.944	570.68
399.323	560.06
399.701	574.07
400.08	580.62
400.458	570.45
400.837	586.04
401.215	581.52
401.594	595.08
401.972	593.28
402.351	605.25
402.729	613.84
403.107	621.75
403.486	636.66
403.864	624.69
404.242	618.13
404.62	631.47
404.999	653.61
405.377	666.04
405.755	665.36
406.133	659.71
406.511	661.97
406.889	682.31
407.267	683.89
407.645	718.47
408.023	719.15
408.401	729.09
408.779	719.6
409.156	761.41
409.534	748.98
409.912	764.12
410.29	781.52
410.667	802.08
411.045	782.65
411.422	794.17
411.8	831.01
412.178	833.04
412.555	835.3
412.933	847.28
413.31	842.08
413.687	880.95
414.065	926.6
414.442	892.93
414.819	911.23
415.197	939.03
415.574	926.83
415.951	960.95
416.328	958.92
416.705	965.47
417.082	966.6
417.46	951.23
417.837	1019.7
418.214	997.78
418.591	1019.48
418.967	1052.92
419.344	1025.13
419.721	1053.15
420.098	1055.41
420.475	1086.82
420.852	1082.08
421.228	1077.56
421.605	1080.72
421.982	1087.05
422.358	1095.41
422.735	1133.83
423.111	1167.5
423.488	1137.44
423.864	1165.24
424.241	1180.15
424.617	1184.67
424.994	1164.56
425.37	1176.76
425.746	1203.65
426.123	1236.2
426.499	1241.62
426.875	1245.69
427.251	1257.21
427.627	1309.19
428.003	1298.79
428.379	1307.83
428.756	1347.61
429.132	1342.41
429.507	1380.83
429.883	1407.27
430.259	1383.54
430.635	1400.49
431.011	1408.62
431.387	1471.67
431.763	1497.43
432.138	1500.82
432.514	1523.19
432.89	1524.32
433.265	1546.02
433.641	1579.01
434.016	1580.14
434.392	1618.33
434.767	1662.63
435.143	1616.3
435.518	1640.48
435.894	1680.25
436.269	1686.13
436.644	1670.99
437.02	1698.56
437.395	1748.05
437.77	1748.95
438.145	1807.48
438.52	1788.05
438.895	1804.54
439.271	1820.59
439.646	1837.31
440.021	1880.02
440.395	1869.4
440.77	1837.31
441.145	1879.57
441.52	1921.38
441.895	1932
442.27	1933.35
442.645	1892.45
443.019	1949.4
443.394	1920.47
443.769	1960.7
444.143	1962.5
444.518	2005.22
444.892	2005.22
445.267	2006.57
445.641	1995.5
446.016	2048.6
446.39	2051.54
446.764	2049.51
447.139	2081.82
447.513	2108.04
447.887	2108.04
448.262	2130.18
448.636	2097.64
449.01	2157.75
449.384	2189.84
449.758	2150.97
450.132	2210.86
450.506	2181.26
450.88	2269.39
451.254	2245.66
451.628	2289.95
452.002	2304.19
452.376	2313.23
452.75	2321.14
453.123	2347.35
453.497	2367.69
453.871	2396.17
454.244	2465.54
454.618	2458.09
454.992	2503.28
455.365	2541.25
455.739	2530.63
456.112	2573.34
456.486	2573.56
456.859	2639.1
457.232	2695.14
457.606	2659.44
457.979	2733.11
458.352	2764.97
458.725	2786.44
459.099	2846.55
459.472	2865.53
459.845	2942.14
460.218	2951.41
460.591	2971.07
460.964	3006.09
461.337	3025.3
461.71	3097.16
462.083	3119.08
462.456	3112.08
462.829	3167.9
463.201	3206.31
463.574	3187.11
463.947	3305.52
464.32	3320.21
464.692	3324.5
465.065	3316.59
465.438	3353.88
465.81	3441.79
466.183	3431.84
466.555	3519.75
466.928	3596.36
467.3	3534.89
467.672	3603.82
468.045	3698.73
468.417	3702.12
468.789	3666.64
469.161	3737.15
469.534	3811.72
469.906	3842.68
470.278	3890.14
470.65	3913.19
471.022	4013.3
471.394	4070.92
471.766	4088.1
472.138	4145.72
472.51	4238.6
472.882	4304.14
473.253	4348.2
473.625	4416.9
473.997	4478.37
474.369	4493.06
474.74	4522.44
475.112	4615.54
475.484	4631.81
475.855	4750.23
476.227	4820.06
476.598	4952.71
476.97	4977.11
477.341	5085.13
477.713	5187.05
478.084	5202.42
478.455	5323.55
478.827	5380.95
479.198	5529.64
479.569	5559.7
479.94	5670.43
480.311	5744.55
480.682	5849.41
481.053	6008.05
481.424	6072.68
481.795	6139.34
482.166	6310.64
482.537	6354.48
482.908	6486.45
483.279	6561.93
483.65	6715.37
484.021	6837.86
484.391	6885.54
484.762	6931.87
485.133	7068.81
485.503	7121.92
485.874	7349.71
486.244	7392.19
486.615	7544.96
486.985	7676.25
487.356	7824.5
487.726	7922.35
488.097	8154.66
488.467	8202.57
488.837	8363.69
489.207	8447.31
489.578	8679.62
489.948	8755.77
490.318	8833.51
490.688	8828.09
491.058	9171.35
491.428	9259.94
491.798	9315.76
492.168	9559.37
492.538	9633.26
492.908	9784.22
493.278	9920.71
493.648	10025.57
494.017	10183.08
494.387	10271.21
494.757	10406.58
495.126	10624.65
495.496	10661.26
495.866	10759.56
496.235	10895.83
496.605	10991.65
496.974	11129.95
497.344	11243.39
497.713	11386.66
498.082	11460.79
498.452	11678.63
498.821	11796.14
499.19	11818.74
499.559	12041.11
499.928	12125.85
500.298	12220.54
500.667	12375.79
501.036	12429.8
501.405	12583.92
501.774	12656.46
502.143	12848.77
502.512	12931.03
502.88	13028.43
503.249	13094.87
503.618	13298.25
503.987	13323.56
504.356	13387.29
504.724	13584.35
505.093	13801.06
505.462	13804.91
505.83	13962.64
506.199	14126.25
506.567	14311.11
506.936	14340.94
507.304	14563.76
507.672	14657.31
508.041	14612.79
508.409	14831.32
508.777	14916.97
509.145	15071.54
509.514	15154.47
509.882	15336.62
510.25	15458.2
510.618	15548.59
510.986	15586.1
511.354	15702.93
511.722	15936.15
512.09	16085.52
512.458	16079.2
512.826	16218.85
513.193	16462.24
513.561	16422.69
513.929	16572.29
514.297	16746.52
514.664	16930.25
515.032	16916.24
515.4	17183.35
515.767	17177.92
516.135	17363.91
516.502	17280.97
516.869	17710.11
517.237	17845.48
517.604	17709.44
517.972	18033.27
518.339	18114.62
518.706	18197.56
519.073	18290.66
519.44	18475.29
519.808	18700.82
520.175	18673.93
520.542	18931.32
520.909	19060.59
521.276	19137.42
521.643	19407.47
522.009	19492.89
522.376	19627.58
522.743	19793.9
523.11	20073.22
523.477	20217.17
523.843	20364.73
524.21	20536.71
524.577	20664.84
524.943	20910.48
525.31	20939.86
525.676	21172.4
526.043	21388.89
526.409	21433.41
526.776	21797.92
527.142	21829.33
527.508	21998.14
527.874	22235.19
528.241	22414.85
528.607	22411.68
528.973	22733.48
529.339	22776.65
529.705	23067.71
530.071	23293.24
530.437	23249.4
530.803	23462.96
531.169	23687.58
531.535	23613.69
531.901	23871.99
532.267	23997.86
532.632	24155.14
532.998	24223.39
533.364	24373.22
533.73	24449.6
534.095	24668.57
534.461	24739.31
534.826	24925.52
535.192	24950.6
535.557	25195.57
535.923	25229.46
536.288	25346.52
536.653	25503.58
537.019	25531.83
537.384	25622.22
537.749	25697.25
538.114	25818.83
538.479	25824.93
538.845	25852.27
539.21	25846.4
539.575	26040.06
539.94	26198.7
540.305	26244.58
540.67	26401.64
541.034	26485.48
541.399	26662.19
541.764	26679.37
542.129	26585.13
542.494	26920.49
542.858	27014.95
543.223	26870.78
543.587	27063.99
543.952	27186.47
544.316	27364.32
544.681	27378.11
545.045	27355.28
545.41	27555.05
545.774	27456.3
546.138	27566.35
546.503	27730.19
546.867	27812.22
547.231	27894.93
547.595	27970.41
547.959	28164.98
548.324	28149.39
548.688	28242.49
549.052	28298.76
549.416	28295.82
549.779	28469.6
550.143	28482.71
550.507	28610.17
550.871	28707.34
551.235	28625.31
551.599	28831.63
551.962	28945.07
552.326	28984.17
552.689	29240.43
553.053	29056.26
553.417	29253.54
553.78	29535.57
554.143	29588.9
554.507	29665.96
554.87	29811.04
555.234	30031.82
555.597	29746.86
555.96	30037.02
556.323	30141.65
556.686	30236.11
557.05	30447.63
557.413	30622.54
557.776	30416.67
558.139	30702.99
558.502	30832.48
558.865	30862.08
559.228	31145.69
559.59	31205.58
559.953	31267.05
560.316	31606.47
560.679	31585
561.041	31712.23
561.404	31867.71
561.767	32122.16
562.129	32005.78
562.492	32432.44
562.854	32380.46
563.217	32423.17
563.579	32627.46
563.941	32881.92
564.304	32997.62
564.666	33151.52
565.028	33259.54
565.39	33473.09
565.753	33665.85
566.115	33624.5
566.477	33783.82
566.839	33967.77
567.201	34448.2
567.563	34332.05
567.925	34717.35
568.287	34737.46
568.648	34741.98
569.01	34972.71
569.372	35257
569.734	35320.05
570.095	35453.83
570.457	35767.94
570.819	35847.94
571.18	35927.49
571.542	36105.11
571.903	36283.64
572.265	36509.39
572.626	36699.9
572.987	36746.45
573.349	36932.43
573.71	37138.53
574.071	37355.7
574.432	37442.48
574.794	37889.7
575.155	37912.52
575.516	37981.44
575.877	38044.49
576.238	38324.03
576.599	38484.48
576.96	38609.68
577.32	38732.84
577.681	38929.22
578.042	39287.85
578.403	39274.29
578.763	39347.74
579.124	39469.77
579.485	39939.81
579.845	40140.03
580.206	40287.15
580.566	40317.2
580.927	40649.4
581.287	40908.83
581.648	40741.37
582.008	41262.26
582.368	41451.41
582.728	41617.06
583.089	41621.12
583.449	41902.02
583.809	42041.68
584.169	42212.52
584.529	42262.91
584.889	42853.86
585.249	42783.8
585.609	42803.92
585.969	43188.31
586.329	43274.41
586.688	43762.99
587.048	43919.59
587.408	44171.34
587.768	44298.57
588.127	44633.7
588.487	44765
588.846	45249.95
589.206	45144.42
589.565	45502.83
589.925	45944.17
590.284	46037.05
590.643	46261.23
591.003	46403.82
591.362	46929.91
591.721	47090.58
592.08	47289
592.44	47827.29
592.799	47784.58
593.158	48042.2
593.517	48211.68
593.876	48625.68
594.235	48647.61
594.593	49065
594.952	49293.24
595.311	49355.38
595.67	49659.78
596.029	50186.32
596.387	50325.75
596.746	50577.27
597.104	50571.4
597.463	50737.95
597.822	51120.08
598.18	51228.1
598.538	51403.46
598.897	51691.82
599.255	51725.49
599.613	52295.19
599.972	52190.56
600.33	52483.89
600.688	52554.39
601.046	52783.54
601.404	53131.1
601.762	53321.61
602.12	53409.97
602.478	53587.36
602.836	53747.81
603.194	53688.6
603.552	54016.28
603.91	54022.15
604.268	54306.89
604.625	54392.76
604.983	54718.18
605.341	54573.1
605.698	54980.32
606.056	55147.55
606.413	55164.5
606.771	55482.45
607.128	55535.56
607.485	55564.26
607.843	55697.36
608.2	55898.71
608.557	56118.6
608.914	56088.09
609.272	56385.03
609.629	56502.77
609.986	56705.92
610.343	56688.52
610.7	56986.14
611.057	56901.4
611.414	56991.57
611.771	57145.23
612.127	57312.01
612.484	57376.64
612.841	57526.69
613.198	57507.26
613.554	57558.33
613.911	57786.57
614.267	57930.98
614.624	57947.93
614.98	57993.35
615.337	58281.25
615.693	58302.04
616.05	58359.89
616.406	58481.92
616.762	58495.93
617.118	58514.69
617.475	58571.19
617.831	58785.87
618.187	58833.55
618.543	58861.57
618.899	59005.75
619.255	59058.18
619.611	59055.24
619.967	59219.53
620.323	59368
620.678	59253.2
621.034	59275.35
621.39	59297.49
621.746	59359.87
622.101	59654.32
622.457	59511.73
622.812	59618.16
623.168	59662.68
623.523	59665.17
623.879	59755.34
624.234	59701.1
624.589	59831.72
624.945	59796.24
625.3	59934.54
625.655	59870.81
626.01	59998.27
626.365	60009.11
626.72	59969.79
627.075	59953.75
627.43	60010.02
627.785	60112.39
628.14	60037.59
628.495	60108.77
628.85	60207.98
629.205	60061.77
629.559	60225.83
629.914	60100.41
630.269	60141.31
630.623	60055.67
630.978	60026.29
631.332	60179.96
631.687	60227.87
632.041	60147.19
632.396	60090.92
632.75	60100.86
633.104	60133.4
633.459	60012.73
633.813	60007.98
634.167	60045.95
634.521	60039.17
634.875	60052.05
635.229	60008.44
635.583	59900.19
635.937	59901.55
636.291	59884.82
636.645	59879.85
636.999	59845.95
637.352	59895.44
637.706	59755.79
638.06	59848.44
638.413	59775
638.767	59769.8
639.121	59810.25
639.474	59655.9
639.828	59675.56
640.181	59691.16
640.534	59773.41
640.888	59644.38
641.241	59504.49
641.594	59564.38
641.947	59678.73
642.301	59569.8
642.654	59589.69
643.007	59517.15
643.36	59558.96
643.713	59503.59
644.066	59553.98
644.419	59497.26
644.771	59181.79
645.124	58895.92
645.477	58986.77
645.83	58791.97
646.182	58820.9
646.535	58705.42
646.888	58735.02
647.24	58688.02
647.593	58869.26
647.945	58667.23
648.298	58583.39
648.65	58596.95
649.002	58512.43
649.355	58450.29
649.707	58352.89
650.059	58387.91
650.411	58718.53
650.763	58842.14
651.115	59124.84
651.467	58976.82
651.819	59005.75
652.171	58953.77
652.523	58908.8
652.875	58956.26
653.227	58748.58
653.578	58994.45
653.93	58963.49
654.282	58791.07
654.633	58763.27
654.985	58757.85
655.337	58738.19
655.688	58712.2
656.039	58834
656.391	58518.98
656.742	58592.65
657.094	58600.79
657.445	58551.3
657.796	58679.43
658.147	58578.64
658.498	58662.26
658.849	58665.42
659.2	58539.77
659.551	58497.97
659.902	58670.84
660.253	58477.4
660.604	58589.94
660.955	58447.35
661.306	58520.34
661.656	58434.69
662.007	58407.12
662.358	58479.21
662.708	58515.59
663.059	58445.54
663.409	58293.23
663.76	58450.29
664.11	58356.05
664.461	58422.72
664.811	58480.79
665.161	58448.93
665.511	58336.16
665.862	58374.13
666.212	58354.47
666.562	58418.87
666.912	58322.6
667.262	58216.62
667.612	58312.21
667.962	58325.77
668.312	58198.54
668.662	58316.96
669.011	58314.47
669.361	58291.65
669.711	58331.64
670.06	58317.18
670.41	58233.12
670.76	58253.45
671.109	58296.62
671.459	58194.47
671.808	58209.16
672.157	58240.57
672.507	58145.66
672.856	58127.13
673.205	58189.05
673.554	58182.04
673.904	58167.13
674.253	58312.21
674.602	58181.59
674.951	57867.02
675.3	57724.2
675.649	58138.65
675.998	58134.14
676.346	58208.48
676.695	58238.54
677.044	57990.86
677.393	58141.14
677.741	58171.65
678.09	58035.38
678.438	58036.51
678.787	58093.23
679.135	58104.08
679.484	57956.06
679.832	58018.43
680.181	57981.37
680.529	57949.51
680.877	57988.6
681.225	57875.84
681.573	58034.02
681.922	57836.52
682.27	57814.6
682.618	57876.97
682.966	57829.06
683.314	57853.92
683.661	57752.22
684.009	57705.9
684.357	57618.44
684.705	57592.23
685.053	57610.76
685.4	57569.63
685.748	57479.92
686.095	57507.03
686.443	57381.84
686.79	57312.91
687.138	57417.32
687.485	57398.11
687.832	57276.98
688.18	57282.86
688.527	57262.29
688.874	57138.23
689.221	57208.06
689.568	57088.06
689.915	57106.59
690.262	56990.89
690.609	56990.89
690.956	56830.21
691.303	56898.91
691.65	56804.23
691.997	56731.23
692.344	56638.58
692.69	56622.08
693.037	56660.28
693.383	56417.8
693.73	56583.22
694.077	56406.05
694.423	56369.89
694.769	56251.02
695.116	56360.17
695.462	56227.97
695.808	56075.21
696.155	56160.63
696.501	55885.15
696.847	56005.6
697.193	55818.49
697.539	55861.2
697.885	55658.04
698.231	55659.17
698.577	55643.13
698.923	55587.99
699.269	55417.82
699.614	55344.15
699.96	55295.79
700.306	55328.33
700.651	55219.41
700.997	55007.21
701.342	55010.15
701.688	54985.07
702.033	54915.69
702.379	54951.85
702.724	54756.82
703.069	54869.14
703.415	54533.78
703.76	54497.85
704.105	54609.48
704.45	54424.85
704.795	54338.08
705.14	54199.78
705.485	54252.2
705.83	54074.81
706.175	54209.04
706.52	53983.28
706.865	53935.83
707.209	53867.35
707.554	53820.35
707.899	53786.68
708.243	53694.93
708.588	53683.86
708.932	53520.47
709.277	53560.92
709.621	53423.98
709.966	53242.51
710.31	53271.44
710.654	53176.98
710.998	53181.95
711.342	53203.19
711.687	53029.86
712.031	52939.24
712.375	52824.22
712.719	52873.93
713.063	52796.87
713.407	52875.74
713.75	52590.1
714.094	52664
714.438	52534.51
714.782	52532.93
715.125	52421.52
715.469	52575.41
715.812	52279.15
716.156	52161.86
716.499	52232.82
716.843	52191.01
717.186	52054.3
717.53	52206.16
717.873	52121.86
718.216	52010.23
718.559	51919.16
718.902	51742.89
719.246	51837.13
719.589	51603.69
719.932	51429.9
720.275	51577.47
720.617	51487.98
720.96	51346.07
721.303	51395.78
721.646	51438.27
721.989	51234.43
722.331	51345.84
722.674	51199.4
723.016	51134.32
723.359	51066.52
723.701	50997.37
724.044	50904.95
724.386	50824.5
724.729	50981.33
725.071	50843.93
725.413	50794.67
725.755	50687.33
726.097	50638.74
726.439	50544.96
726.782	50471.51
727.124	50706.99
727.465	50565.29
727.807	50316.26
728.149	50448.46
728.491	50187
728.833	50310.16
729.175	50248.69
729.516	50146.1
729.858	50101.13
730.199	50114.23
730.541	50145.42
730.882	49948.14
731.224	49991.07
731.565	49796.5
731.906	49825.88
732.248	49954.24
732.589	49625.88
732.93	49529.16
733.271	49627.92
733.612	49524.64
733.953	49628.82
734.294	49517.19
734.635	49429.28
734.976	49625.88
735.317	49308.83
735.658	49261.15
735.999	49220.47
736.339	49203.07
736.68	49168.5
737.021	49141.6
737.361	48956.75
737.702	49258.21
738.042	49108.61
738.383	49164.65
738.723	49237.42
739.063	48925.79
739.404	48996.52
739.744	48847.83
740.084	48671.56
740.424	48786.36
740.764	48748.62
741.104	48758.56
741.444	48661.16
741.784	48500.49
742.124	48594.05
742.464	48558.57
742.804	48415.07
743.143	48376.65
743.483	48284
743.823	48237.45
744.162	48273.6
744.502	48334.39
744.841	48194.06
745.181	48249.42
745.52	48109.99
745.86	48068.86
746.199	48054.4
746.538	48049.65
746.877	48171.01
747.216	47915.65
747.556	47872.94
747.895	47722.21
748.234	47848.08
748.573	47729.66
748.911	47665.26
749.25	47498.03
749.589	47400.86
749.928	47587.52
750.267	47557.69
750.605	47238.6
750.944	47209.45
751.283	47286.51
751.621	47300.52
751.96	47042.68
752.298	47095.33
752.636	47119.06
752.975	46851.95
753.313	46736.02
753.651	47044.03
753.989	46746.64
754.327	46819.63
754.666	46465.29
