Data from 7415_FLMS001491_003.txt Node
Date: Thu Apr 19 16:29:45 BST 2018
User: hsy
Spectrometer: FLMS00149
Trigger mode: 0
Integration Time (sec): 1.000000E-2
Scans to average: 10
Electric dark correction enabled: true
Nonlinearity correction enabled: false
Boxcar width: 0
XAxis mode: Wavelengths
Number of Pixels in Spectrum: 2048
>>>>>Begin Spectral Data<<<<<
341.393	3.57
341.776	3.57
342.16	3.57
342.543	-24.67
342.927	-70.55
343.31	-60.15
343.693	-74.16
344.077	-66.26
344.46	-75.52
344.843	-41.85
345.226	-59.7
345.61	-38.46
345.993	-25.58
346.376	-2.53
346.759	3.35
347.142	14.65
347.525	70.69
347.908	49
348.291	73.4
348.674	111.37
349.057	121.76
349.44	138.26
349.823	122.21
350.206	167.86
350.588	228.2
350.971	251.25
351.354	267.75
351.737	284.7
352.119	291.02
352.502	279.72
352.884	322.89
353.267	324.92
353.65	338.48
354.032	354.98
354.414	349.55
354.797	342.1
355.179	359.27
355.562	383
355.944	401.98
356.326	392.94
356.709	374.41
357.091	387.97
357.473	406.05
357.855	396.33
358.238	407.4
358.62	397.46
359.002	393.39
359.384	402.21
359.766	387.97
360.148	382.09
360.53	381.64
360.912	375.54
361.294	375.54
361.676	374.41
362.057	393.85
362.439	363.56
362.821	393.17
363.203	366.73
363.584	377.35
363.966	368.54
364.348	400.4
364.729	389.55
365.111	384.81
365.493	351.81
365.874	373.06
366.256	368.31
366.637	393.85
367.019	369.44
367.4	358.37
367.781	364.69
368.163	378.48
368.544	377.57
368.925	374.19
369.306	365.6
369.688	380.06
370.069	376.67
370.45	359.27
370.831	394.52
371.212	372.83
371.593	366.73
371.974	383.22
372.355	388.2
372.736	375.09
373.117	386.61
373.498	379.38
373.879	384.13
374.26	375.99
374.641	358.82
375.021	373.51
375.402	364.02
375.783	400.17
376.163	395.88
376.544	407.86
376.925	392.72
377.305	406.05
377.686	408.53
378.066	401.3
378.447	409.44
378.827	416.9
379.208	412.83
379.588	409.89
379.968	409.89
380.349	406.5
380.729	413.28
381.109	401.3
381.489	418.03
381.87	433.39
382.25	425.94
382.63	425.26
383.01	427.52
383.39	446.95
383.77	449.21
384.15	439.72
384.53	438.36
384.91	441.3
385.29	453.28
385.67	459.61
386.049	466.84
386.429	465.26
386.809	469.55
387.189	465.93
387.568	468.19
387.948	461.64
388.328	458.7
388.707	494.63
389.087	492.15
389.466	501.41
389.846	479.95
390.225	511.13
390.605	492.15
390.984	500.51
391.363	477.01
391.743	494.86
392.122	524.01
392.501	508.19
392.881	534.86
393.26	540.51
393.639	526.72
394.018	551.58
394.397	535.99
394.776	522.88
395.155	551.58
395.534	554.75
395.913	546.84
396.292	544.12
396.671	579.15
397.05	550
397.429	558.59
397.808	591.13
398.186	560.39
398.565	571.47
398.944	570.34
399.323	582.99
399.701	606.5
400.08	592.71
400.458	585.03
400.837	604.46
401.215	613.27
401.594	628.19
401.972	624.8
402.351	646.04
402.729	604.46
403.107	641.3
403.486	632.03
403.864	665.7
404.242	672.26
404.62	673.84
404.999	665.93
405.377	658.25
405.755	686.72
406.133	682.43
406.511	684.91
406.889	714.52
407.267	695.31
407.645	705.25
408.023	731.24
408.401	719.49
408.779	734.85
409.156	760.16
409.534	786.83
409.912	776.43
410.29	798.35
410.667	793.16
411.045	806.72
411.422	820.28
411.8	819.15
412.178	850.56
412.555	858.24
412.933	875.41
413.31	881.29
413.687	901.4
414.065	910.67
414.442	912.02
414.819	953.83
415.197	935.07
415.574	982.98
415.951	969.2
416.328	971.01
416.705	965.81
417.082	1008.29
417.46	1025.24
417.837	1032.02
418.214	1046.48
418.591	1018.24
418.967	1044.22
419.344	1069.99
419.721	1053.04
420.098	1068.86
420.475	1078.57
420.852	1100.72
421.228	1119.93
421.605	1120.61
421.982	1124.45
422.358	1145.01
422.735	1132.81
423.111	1168.51
423.488	1187.5
423.864	1195.63
424.241	1215.07
424.617	1194.95
424.994	1203.32
425.37	1213.49
425.746	1214.16
426.123	1248.29
426.499	1261.85
426.875	1299.81
427.251	1289.19
427.627	1316.76
428.003	1333.93
428.379	1340.94
428.756	1360.15
429.132	1369.41
429.507	1407.15
429.883	1390.88
430.259	1433.59
430.635	1440.82
431.011	1460.03
431.387	1482.86
431.763	1510.2
432.138	1543.65
432.514	1519.69
432.89	1571.44
433.265	1589.29
433.641	1613.93
434.016	1639.24
434.392	1649.63
434.767	1695.96
435.143	1678.11
435.518	1711.1
435.894	1707.94
436.269	1732.34
436.644	1752.68
437.02	1742.51
437.395	1771.21
437.77	1806.92
438.145	1838.33
438.52	1810.76
438.895	1853.02
439.271	1876.74
439.646	1864.09
440.021	1890.98
440.395	1906.57
440.77	1904.54
441.145	1917.2
441.52	1985.67
441.895	1955.61
442.27	1951.32
442.645	1999.91
443.019	1969.62
443.394	2002.39
443.769	2038.1
444.143	1999
444.518	2023.63
444.892	2049.4
445.267	2099.79
445.641	2109.05
446.016	2092.78
446.39	2113.57
446.764	2131.43
447.139	2124.87
447.513	2128.04
447.887	2206.23
448.262	2203.06
448.636	2190.86
449.01	2202.39
449.384	2194.48
449.758	2260.01
450.132	2293.91
450.506	2292.33
450.88	2327.13
451.254	2311.99
451.628	2350.86
452.002	2379.56
452.376	2401.48
452.75	2418.2
453.123	2403.74
453.497	2485.54
453.871	2462.94
454.244	2534.35
454.618	2512.89
454.992	2579.32
455.365	2615.71
455.739	2628.82
456.112	2670.62
456.486	2696.16
456.859	2758.98
457.232	2787.23
457.606	2753.11
457.979	2812.77
458.352	2886.21
458.725	2898.86
459.099	2919.65
459.472	2948.81
459.845	3016.83
460.218	3014.79
460.591	3047.34
460.964	3078.97
461.337	3146.54
461.71	3163.94
462.083	3251.17
462.456	3234.9
462.829	3229.25
463.201	3301.57
463.574	3335.69
463.947	3374.78
464.32	3417.95
464.692	3403.94
465.065	3466.31
465.438	3511.5
465.81	3537.72
466.183	3567.1
466.555	3654.32
466.928	3729.58
467.3	3687.54
467.672	3689.35
468.045	3809.35
468.417	3805.96
468.789	3868.56
469.161	3893.19
469.534	3934.77
469.906	4022.68
470.278	4037.14
470.65	4072.62
471.022	4128.21
471.394	4107.87
471.766	4292.5
472.138	4247.76
472.51	4323.01
472.882	4405.94
473.253	4461.76
473.625	4489.11
473.997	4582.21
474.369	4676.67
474.74	4648.65
475.112	4778.14
475.484	4817.46
475.855	4900.17
476.227	4976.1
476.598	5080.73
476.97	5152.36
477.341	5245.92
477.713	5292.25
478.084	5356.43
478.455	5494.05
478.827	5535.86
479.198	5654.05
479.569	5683.42
479.94	5851.1
480.311	5903.98
480.682	6024.43
481.053	6138.78
481.424	6229.85
481.795	6318.44
482.166	6384.65
482.537	6549.39
482.908	6664.42
483.279	6743.74
483.65	6921.81
484.021	6967.91
484.391	7088.81
484.762	7204.29
485.133	7248.81
485.503	7347.79
485.874	7553.88
486.244	7627.78
486.615	7788.45
486.985	7888.79
487.356	8032.29
487.726	8169.91
488.097	8340.98
488.467	8369.68
488.837	8580.07
489.207	8661.88
489.578	8851.48
489.948	9014.41
490.318	9089.21
490.688	9082.43
491.058	9330.79
491.428	9479.03
491.798	9580.95
492.168	9742.53
492.538	9832.47
492.908	10069.52
493.278	10175.06
493.648	10233.59
494.017	10364.88
494.387	10537.99
494.757	10645.33
495.126	10793.12
495.496	10832.89
495.866	10964.87
496.235	11175.71
496.605	11199.21
496.974	11391.75
497.344	11492.76
497.713	11606.66
498.082	11712.87
498.452	11834.67
498.821	12047.32
499.19	12037.83
499.559	12231.5
499.928	12296.36
500.298	12396.69
500.667	12519.63
501.036	12630.81
501.405	12730.24
501.774	12844.82
502.143	13037.35
502.512	13125.71
502.88	13198.93
503.249	13198.25
503.618	13442.77
503.987	13524.8
504.356	13610.9
504.724	13709.88
505.093	13866.71
505.462	13942.64
505.83	14058.8
506.199	14175.86
506.567	14363.42
506.936	14449.07
507.304	14586.47
507.672	14735.16
508.041	14774.48
508.409	14893.35
508.777	15042.73
509.145	15205.66
509.514	15176.73
509.882	15301.25
510.25	15442.72
510.618	15561.36
510.986	15621.24
511.354	15776.04
511.722	15966.09
512.09	16082.92
512.458	16046.32
512.826	16219.87
513.193	16330.38
513.561	16468.45
513.929	16586.41
514.297	16769.46
514.664	16849.91
515.032	16912.06
515.4	17148.89
515.767	17180.97
516.135	17357.92
516.502	17235.44
516.869	17557.91
517.237	17642.66
517.604	17585.26
517.972	17967.17
518.339	17997.68
518.706	18231.12
519.073	18239.25
519.44	18384.11
519.808	18615.51
520.175	18594.27
520.542	18898.22
520.909	18969.4
521.276	19008.72
521.643	19279.68
522.009	19349.73
522.376	19499.56
522.743	19638.99
523.11	19862.03
523.477	20042.37
523.843	20040.56
524.21	20232.65
524.577	20471.74
524.943	20598.96
525.31	20751.28
525.676	21093.41
526.043	21100.87
526.409	21325.05
526.776	21526.4
527.142	21630.8
527.508	21807.07
527.874	22038.25
528.241	22135.42
528.607	22210.9
528.973	22515.75
529.339	22447.05
529.705	22750.32
530.071	23019.92
530.437	23062.63
530.803	23293.13
531.169	23392.34
531.535	23402.96
531.901	23578.09
532.267	23754.59
532.632	23951.64
532.998	23981.7
533.364	24194.58
533.73	24190.51
534.095	24522.7
534.461	24588.24
534.826	24666.65
535.192	24788.46
535.557	24985.06
535.923	24976.48
536.288	25165.4
536.653	25197.04
537.019	25199.3
537.384	25458.72
537.749	25467.31
538.114	25489
538.479	25607.65
538.845	25629.34
539.21	25687.19
539.575	25848.54
539.94	25946.39
540.305	26101.42
540.67	26202.88
541.034	26167.18
541.399	26331.02
541.764	26392.03
542.129	26517
542.494	26551.35
542.858	26736.88
543.223	26649.43
543.587	26826.14
543.952	26794.73
544.316	27005.12
544.681	26961.28
545.045	27224.78
545.41	27247.83
545.774	27216.64
546.138	27213.93
546.503	27404.89
546.867	27437.43
547.231	27704.09
547.595	27720.13
547.959	27731.21
548.324	27845.1
548.688	27796.51
549.052	28107.69
549.416	27913.12
549.779	28142.49
550.143	28233.57
550.507	28414.13
550.871	28459.55
551.235	28361.92
551.599	28636.27
551.962	28637.17
552.326	28878.97
552.689	28830.16
553.053	28585.87
553.417	28765.08
553.78	29121.23
554.143	29110.38
554.507	29315.8
554.87	29353.31
555.234	29655.68
555.597	29440.54
555.96	29573.64
556.323	29786.97
556.686	29833.07
557.05	30089.79
557.413	29980.19
557.776	30139.28
558.139	30371.59
558.502	30344.02
558.865	30438.48
559.228	30732.93
559.59	30754.86
559.953	30753.73
560.316	31181.28
560.679	31115.3
561.041	31293.6
561.404	31525.68
561.767	31748.95
562.129	31608.17
562.492	31995.05
562.854	31910.08
563.217	31929.51
563.579	32091.54
563.941	32352.1
564.304	32452.44
564.666	32652.66
565.028	32732.43
565.39	32941.46
565.753	32989.82
566.115	33160.22
566.477	33537.83
566.839	33543.71
567.201	33840.88
567.563	33889.01
567.925	34118.38
568.287	34007.43
568.648	34258.49
569.01	34420.75
569.372	34878.81
569.734	34606.28
570.095	35044.69
570.457	35406.94
570.819	35371.68
571.18	35300.95
571.542	35683.54
571.903	35816.19
572.265	35884.44
572.626	36228.61
572.987	36229.06
573.349	36587.7
573.71	36798.31
574.071	36878.99
574.432	37013.22
574.794	37338.18
575.155	37348.35
575.516	37586.99
575.877	37660.44
576.238	37784.27
576.599	38058.17
576.96	38212.06
577.32	38413.18
577.681	38616.34
578.042	38866.28
578.403	38905.15
578.763	39053.39
579.124	39185.14
579.485	39516.43
579.845	39821.28
580.206	39817.89
580.566	39926.37
580.927	40250.2
581.287	40428.05
581.648	40606.8
582.008	40772.9
582.368	41007.69
582.728	41114.81
583.089	41270.74
583.449	41619.65
583.809	41805.19
584.169	42047.21
584.529	42170.15
584.889	42682.23
585.249	42637.03
585.609	42723.58
585.969	43148.65
586.329	43190.23
586.688	43641.07
587.048	43849.65
587.408	44114.96
587.768	44322.63
588.127	44461.84
588.487	44703.19
588.846	45266.79
589.206	45220.24
589.565	45456.84
589.925	46007.79
590.284	46169.14
590.643	46420.66
591.003	46749.01
591.362	47289.34
591.721	47411.14
592.08	47675.77
592.44	47975.42
592.799	48009.09
593.158	48376.76
593.517	48583.54
593.876	48803.42
594.235	49023.08
594.593	49277.08
594.952	49576.28
595.311	49715.49
595.67	50044.97
596.029	50435.24
596.387	50700.55
596.746	50918.62
597.104	51000.42
597.463	51156.13
597.822	51575.55
598.18	51613.52
598.538	51795.66
598.897	52178.7
599.255	52116.55
599.613	52595.18
599.972	52647.61
600.33	52889.64
600.688	53000.82
601.046	53241.27
601.404	53650.98
601.762	53767.13
602.12	53899.33
602.478	54111.08
602.836	54237.85
603.194	54227.91
603.552	54491.41
603.91	54516.04
604.268	54762.81
604.625	54824.5
604.983	55202.57
605.341	55123.25
605.698	55352.17
606.056	55682.56
606.413	55650.7
606.771	56006.17
607.128	56004.59
607.485	56083.68
607.843	56165.71
608.2	56332.04
608.557	56608.19
608.914	56640.28
609.272	56851.8
609.629	56984.67
609.986	57139.02
610.343	57185.12
610.7	57450.2
611.057	57432.35
611.414	57474.15
611.771	57749.4
612.127	57814.93
612.484	57908.72
612.841	58091.31
613.198	58048.6
613.554	58085.66
613.911	58340.8
614.267	58356.62
614.624	58419.89
614.98	58557.06
615.337	58752.09
615.693	58701.01
616.05	58825.08
616.406	58983.27
616.762	58973.55
617.118	59113.66
617.475	59046.77
617.831	59265.29
618.187	59333.99
618.543	59401.56
618.899	59535.79
619.255	59572.18
619.611	59523.14
619.967	59769.69
620.323	59827.54
620.678	59756.13
621.034	59757.71
621.39	59790.02
621.746	59885.16
622.101	60108.66
622.457	59962.22
622.812	60082.45
623.168	60145.49
623.523	60148.66
623.879	60267.07
624.234	60129.9
624.589	60319.5
624.945	60311.14
625.3	60381.19
625.655	60387.52
626.01	60460.74
626.365	60499.38
626.72	60456.22
627.075	60434.3
627.43	60482.66
627.785	60515.43
628.14	60585.71
628.495	60590.45
628.85	60605.37
629.205	60524.24
629.559	60707.06
629.914	60593.62
630.269	60613.28
630.623	60576.9
630.978	60531.7
631.332	60740.51
631.687	60674.07
632.041	60561.08
632.396	60594.75
632.75	60556.11
633.104	60615.09
633.459	60501.87
633.813	60581.19
634.167	60528.08
634.521	60560.85
634.875	60537.12
635.229	60489.44
635.583	60456.45
635.937	60415.32
636.291	60464.81
636.645	60451.02
636.999	60314.53
637.352	60459.61
637.706	60305.04
638.06	60425.71
638.413	60340.29
638.767	60292.84
639.121	60326.06
639.474	60225.04
639.828	60244.93
640.181	60134.87
640.534	60319.95
640.888	60151.6
641.241	60056.23
641.594	60104.14
641.947	60161.09
642.301	60096
642.654	60140.75
643.007	60061.66
643.36	60085.38
643.713	59991.15
644.066	60103.69
644.419	59998.61
644.771	59734.21
645.124	59493.99
645.477	59475.23
645.83	59334.22
646.182	59315.69
646.535	59274.11
646.888	59320.43
647.24	59211.28
647.593	59310.26
647.945	59236.14
648.298	59158.85
648.65	59076.37
649.002	59005.64
649.355	58961.12
649.707	58931.06
650.059	58931.06
650.411	59223.49
650.763	59323.37
651.115	59615.11
651.467	59560.65
651.819	59535.34
652.171	59450.37
652.523	59421.22
652.875	59407.44
653.227	59282.69
653.578	59490.14
653.93	59342.13
654.282	59245.18
654.633	59248.57
654.985	59283.6
655.337	59373.09
655.688	59297.38
656.039	59317.04
656.391	59080.89
656.742	59213.99
657.094	59190.27
657.445	59175.8
657.796	59194.56
658.147	59095.8
658.498	59230.72
658.849	59192.53
659.2	59076.6
659.551	58994.79
659.902	59225.52
660.253	58999.54
660.604	59137.16
660.955	58995.69
661.306	59133.32
661.656	58989.59
662.007	59020.1
662.358	58933.55
662.708	59041.12
663.059	58974.9
663.409	58850.16
663.76	58923.83
664.11	58906.43
664.461	58964.28
664.811	59012.19
665.161	58924.28
665.511	58917.96
665.862	58797.73
666.212	58929.03
666.562	58942.59
666.912	58902.36
667.262	58828.02
667.612	58796.83
667.962	58860.78
668.312	58814.91
668.662	58911.4
669.011	58835.25
669.361	58822.82
669.711	58826.66
670.06	58767.9
670.41	58756.6
670.76	58734.91
671.109	58898.3
671.459	58752.76
671.808	58752.31
672.157	58743.72
672.507	58665.53
672.856	58664.18
673.205	58728.81
673.554	58697.17
673.904	58616.27
674.253	58845.42
674.602	58661.01
674.951	58328.37
675.3	58227.13
675.649	58652.2
675.998	58655.36
676.346	58656.04
676.695	58659.21
677.044	58496.95
677.393	58552.54
677.741	58612.43
678.09	58559.77
678.438	58511.19
678.787	58579.66
679.135	58538.53
679.484	58399.33
679.832	58493.56
680.181	58444.75
680.529	58429.83
680.877	58338.99
681.225	58335.82
681.573	58525.2
681.922	58386.9
682.27	58253.12
682.618	58349.84
682.966	58212.89
683.314	58341.02
683.661	58235.71
684.009	58086.79
684.357	58132.21
684.705	58068.94
685.053	58136.96
685.4	58018.77
685.748	57984.2
686.095	57932.45
686.443	57836.18
686.79	57854.03
687.138	57940.58
687.485	57934.71
687.832	57771.09
688.18	57781.94
688.527	57711.66
688.874	57696.29
689.221	57710.76
689.568	57634.37
689.915	57562.06
690.262	57604.54
690.609	57530.42
690.956	57456.98
691.303	57470.08
691.65	57356.42
691.997	57303.99
692.344	57204.56
692.69	57240.26
693.037	57233.93
693.383	57024.45
693.73	57070.55
694.077	56967.27
694.423	56946.93
694.769	56895.86
695.116	56834.85
695.462	56704
695.808	56637.34
696.155	56749.2
696.501	56471.24
696.847	56564.8
697.193	56384.24
697.539	56459.72
697.885	56309.21
698.231	56231.47
698.577	56297.23
698.923	56258.82
699.269	55946.74
699.614	55948.32
699.96	55945.15
700.306	55870.8
700.651	55800.3
700.997	55663.58
701.342	55639.17
701.688	55633.07
702.033	55543.81
702.379	55540.19
702.724	55413.87
703.069	55505.84
703.415	55159.86
703.76	55157.38
704.105	55188.79
704.45	55095.01
704.795	54989.25
705.14	54893.43
705.485	54921.45
705.83	54737.28
706.175	54858.63
706.52	54729.37
706.865	54645.53
707.209	54520.33
707.554	54518.07
707.899	54487.79
708.243	54296.84
708.588	54378.41
708.932	54176.61
709.277	54296.16
709.621	54137.52
709.966	53899.78
710.31	54000.12
710.654	53794.93
710.998	53872.89
711.342	53906.34
711.687	53744.99
712.031	53666.8
712.375	53537.31
712.719	53472.45
713.063	53332.11
713.407	53559.68
713.75	53329.85
714.094	53413.47
714.438	53255.73
714.782	53260.03
715.125	53098.22
715.469	53177.54
715.812	52951.79
716.156	52981.84
716.499	52864.56
716.843	52957.21
717.186	52783.43
717.53	52908.85
717.873	52828.17
718.216	52776.65
718.559	52579.82
718.902	52433.83
719.246	52473.61
719.589	52310.22
719.932	52189.77
720.275	52284.01
720.617	52262.99
720.96	52135.99
721.303	52131.47
721.646	52224.8
721.989	51924.47
722.331	51952.49
722.674	51926.28
723.016	51965.37
723.359	51749.33
723.701	51866.62
724.044	51706.62
724.386	51541.43
724.729	51690.12
725.071	51590.24
725.413	51582.33
725.755	51526.96
726.097	51396.35
726.439	51314.31
726.782	51313.86
727.124	51407.42
727.465	51191.61
727.807	51191.38
728.149	51225.73
728.491	51076.35
728.833	51073.42
729.175	51017.37
729.516	50934.89
729.858	50925.85
730.199	50979.41
730.541	50880.43
730.882	50672.98
731.224	50754.1
731.565	50665.74
731.906	50716.59
732.248	50728.12
732.589	50565.86
732.93	50528.8
733.271	50439.08
733.612	50421.91
733.953	50611.73
734.294	50360.67
734.635	50221.91
734.976	50414
735.317	50260.11
735.658	50244.74
735.999	50204.51
736.339	50113.67
736.68	50215.81
737.021	50108.24
737.361	49910.51
737.702	50114.57
738.042	49970.17
738.383	49977.85
738.723	50052.88
739.063	49856.5
739.404	49918.19
739.744	49807.91
740.084	49722.27
740.424	49702.61
740.764	49533.57
741.104	49792.09
741.444	49520.46
741.784	49388.04
742.124	49554.36
742.464	49416.51
742.804	49411.09
743.143	49243.41
743.483	49317.53
743.823	49120.25
744.162	49074.15
744.502	49206.57
744.841	49074.83
745.181	49107.14
745.52	49057.2
745.86	49062.85
746.199	48927.48
746.538	48817.21
746.877	49007.71
747.216	48810.2
747.556	48881.61
747.895	48865.34
748.234	48708.96
748.573	48607.04
748.911	48555.74
749.25	48575.18
749.589	48419.25
749.928	48515.52
750.267	48387.61
750.605	48282.3
750.944	48297.22
751.283	48087.73
751.621	48142.42
751.96	48042.08
752.298	47949.88
752.636	47927.06
752.975	47878.47
753.313	47561.19
753.651	47860.85
753.989	47538.82
