Data from 7415_FLMS001491_006.txt Node
Date: Thu Apr 19 16:29:52 BST 2018
User: hsy
Spectrometer: FLMS00149
Trigger mode: 0
Integration Time (sec): 1.000000E-2
Scans to average: 10
Electric dark correction enabled: true
Nonlinearity correction enabled: false
Boxcar width: 0
XAxis mode: Wavelengths
Number of Pixels in Spectrum: 2048
>>>>>Begin Spectral Data<<<<<
341.393	-27.75
341.776	-27.75
342.16	-27.75
342.543	-50.13
342.927	-76.11
343.31	-58.71
343.693	-79.73
344.077	-85.61
344.46	-72.05
344.843	-58.71
345.226	-53.52
345.61	-4.25
345.993	0.72
346.376	3.66
346.759	5.24
347.142	33.04
347.525	26.03
347.908	45.92
348.291	92.92
348.674	89.53
349.057	115.52
349.44	146.25
349.823	143.54
350.206	167.72
350.588	251.56
350.971	265.57
351.354	269.19
351.737	287.94
352.119	294.5
352.502	319.13
352.884	294.95
353.267	299.92
353.65	329.53
354.032	331.33
354.414	349.64
354.797	350.09
355.179	372.91
355.562	376.3
355.944	378.11
356.326	380.15
356.709	386.25
357.091	354.61
357.473	386.92
357.855	390.99
358.238	383.99
358.62	392.12
359.002	396.87
359.384	387.38
359.766	387.6
360.148	382.63
360.53	399.58
360.912	389.41
361.294	383.08
361.676	384.67
362.057	387.38
362.439	372.24
362.821	365.68
363.203	374.5
363.584	395.51
363.966	378.79
364.348	388.73
364.729	389.64
365.111	370.65
365.493	387.38
365.874	376.53
366.256	382.63
366.637	386.02
367.019	376.3
367.4	357.55
367.781	383.08
368.163	382.86
368.544	388.96
368.925	395.96
369.306	372.46
369.688	364.78
370.069	345.34
370.45	361.84
370.831	380.6
371.212	373.37
371.593	399.81
371.974	382.63
372.355	407.26
372.736	393.93
373.117	373.82
373.498	394.16
373.879	372.46
374.26	405.91
374.641	364.1
375.021	390.09
375.402	392.57
375.783	396.64
376.163	424.21
376.544	410.65
376.925	390.77
377.305	402.97
377.686	391.9
378.066	417.88
378.447	423.53
378.827	418.34
379.208	417.66
379.588	422.18
379.968	426.25
380.349	426.47
380.729	431.22
381.109	436.64
381.489	413.36
381.87	430.77
382.25	426.02
382.63	442.97
383.01	432.8
383.39	453.36
383.77	465.79
384.15	429.41
384.53	451.78
384.91	442.97
385.29	449.3
385.67	471.44
386.049	470.76
386.429	461.95
386.809	478.45
387.189	473.93
387.568	471.22
387.948	459.69
388.328	475.28
388.707	506.47
389.087	495.4
389.466	517.99
389.846	490.88
390.225	525.68
390.605	501.5
390.984	492.01
391.363	506.47
391.743	512.35
392.122	524.55
392.501	508.28
392.881	543.08
393.26	525
393.639	532.91
394.018	562.51
394.397	572.46
394.776	552.34
395.155	528.62
395.534	553.7
395.913	565.68
396.292	582.85
396.671	575.85
397.05	577.2
397.429	576.75
397.808	587.37
398.186	602.29
398.565	590.76
398.944	599.12
399.323	586.92
399.701	614.49
400.08	604.32
400.458	587.15
400.837	618.33
401.215	630.99
401.594	614.72
401.972	647.03
402.351	636.41
402.729	640.03
403.107	650.42
403.486	640.03
403.864	656.52
404.242	666.92
404.62	649.97
404.999	687.48
405.377	678.22
405.755	689.52
406.133	686.8
406.511	720.7
406.889	730.87
407.267	751.21
407.645	745.33
408.023	759.57
408.401	761.83
408.779	768.16
409.156	765.9
409.534	788.27
409.912	797.76
410.29	816.52
410.667	854.71
411.045	843.41
411.422	851.77
411.8	841.6
412.178	873.92
412.555	864.88
412.933	894.93
413.31	911.43
413.687	897.65
414.065	946.23
414.442	927.7
414.819	956.4
415.197	991.43
415.574	995.95
415.951	1004.54
416.328	1013.12
416.705	998.66
417.082	995.95
417.46	1048.6
417.837	1062.39
418.214	1051.54
418.591	1057.64
418.967	1070.75
419.344	1081.14
419.721	1115.95
420.098	1097.41
420.475	1110.75
420.852	1131.76
421.228	1148.49
421.605	1135.38
421.982	1166.34
422.358	1182.61
422.735	1179.67
423.111	1163.85
423.488	1209.95
423.864	1236.17
424.241	1220.12
424.617	1247.92
424.994	1259.67
425.37	1262.38
425.746	1288.82
426.123	1293.12
426.499	1304.41
426.875	1330.63
427.251	1346.67
427.627	1355.26
428.003	1393
428.379	1391.64
428.756	1416.28
429.132	1429.61
429.507	1467.12
429.883	1442.49
430.259	1465.09
430.635	1495.82
431.011	1507.35
431.387	1535.6
431.763	1546.44
432.138	1561.58
432.514	1615.14
432.89	1575.59
433.265	1654.24
433.641	1647.68
434.016	1654.46
434.392	1693.56
434.767	1727
435.143	1721.35
435.518	1737.62
435.894	1765.19
436.269	1830.95
436.644	1813.1
437.02	1857.62
437.395	1861.69
437.77	1868.47
438.145	1844.97
438.52	1846.55
438.895	1904.85
439.271	1922.03
439.646	1957.51
440.021	1988.24
440.395	1991.4
440.77	1948.92
441.145	1992.98
441.52	2042.93
441.895	2042.02
442.27	2056.71
442.645	2056.94
443.019	2069.82
443.394	2103.04
443.769	2095.13
444.143	2088.8
444.518	2081.57
444.892	2108.46
445.267	2138.07
445.641	2180.32
446.016	2187.78
446.39	2208.8
446.764	2208.12
447.139	2230.72
447.513	2235.24
447.887	2205.41
448.262	2235.24
448.636	2248.8
449.01	2314.56
449.384	2299.87
449.758	2342.13
450.132	2328.57
450.506	2349.36
450.88	2377.83
451.254	2352.75
451.628	2422.35
452.002	2489.24
452.376	2512.97
452.75	2506.87
453.123	2459.86
453.497	2526.53
453.871	2543.03
454.244	2606.3
454.618	2627.09
454.992	2686.3
455.365	2695.11
455.739	2748.67
456.112	2786.41
456.486	2789.57
456.859	2839.74
457.232	2850.81
457.606	2926.97
457.979	2956.12
458.352	2951.83
458.725	3013.97
459.099	3030.92
459.472	3080.87
459.845	3120.64
460.218	3126.51
460.591	3183.01
460.964	3209.45
461.337	3221.2
461.71	3259.17
462.083	3326.51
462.456	3341.42
462.829	3352.04
463.201	3448.09
463.574	3394.08
463.947	3509.1
464.32	3541.42
464.692	3528.54
465.065	3616.44
465.438	3665.71
465.81	3673.17
466.183	3737.57
466.555	3762.43
466.928	3785.03
467.3	3797.68
467.672	3832.94
468.045	3973.72
468.417	3968.53
468.789	4006.26
469.161	4051.24
469.534	4087.39
469.906	4147.96
470.278	4171.23
470.65	4244.45
471.022	4287.61
471.394	4333.49
471.766	4374.39
472.138	4432.24
472.51	4522.18
472.882	4610.77
473.253	4670.43
473.625	4711.78
473.997	4792.23
474.369	4760.14
474.74	4883.08
475.112	4954.26
475.484	5041.72
475.855	5159.68
476.227	5144.99
476.598	5314.25
476.97	5372.33
477.341	5441.03
477.713	5461.59
478.084	5615.94
478.455	5736.61
478.827	5761.92
479.198	5981.35
479.569	5976.38
479.94	6151.07
480.311	6170.28
480.682	6345.86
481.053	6450.04
481.424	6516.93
481.795	6602.58
482.166	6715.57
482.537	6809.13
482.908	6926.41
483.279	6986.75
483.65	7221.1
484.021	7360.75
484.391	7465.61
484.762	7494.53
485.133	7554.42
485.503	7695.21
485.874	7849.78
486.244	8046.84
486.615	8172.03
486.985	8206.15
487.356	8412.25
487.726	8440.72
488.097	8712.13
488.467	8775.86
488.837	8953.25
489.207	9136.75
489.578	9243.64
489.948	9313.7
490.318	9492
490.688	9578.32
491.058	9800.24
491.428	9936.5
491.798	10063.73
492.168	10257.85
492.538	10335.36
492.908	10449.49
493.278	10587.11
493.648	10679.99
494.017	10893.32
494.387	11034.55
494.757	11089.02
495.126	11319.29
495.496	11399.74
495.866	11489.68
496.235	11618.95
496.605	11806.96
496.974	11854.19
497.344	12076.79
497.713	12133.96
498.082	12228.2
498.452	12448.53
498.821	12554.51
499.19	12607.39
499.559	12739.37
499.928	12942.07
500.298	13000.15
500.667	13146.14
501.036	13246.93
501.405	13341.84
501.774	13387.04
502.143	13571.21
502.512	13715.84
502.88	13798.1
503.249	13880.58
503.618	14042.16
503.987	14193.34
504.356	14332.77
504.724	14434.01
505.093	14507.46
505.462	14636.95
505.83	14787.68
506.199	14926.43
506.567	15111.28
506.936	15117.61
507.304	15232.64
507.672	15426.3
508.041	15576.81
508.409	15710.82
508.777	15805.28
509.145	16005.72
509.514	16035.78
509.882	16182.67
510.25	16278.26
510.618	16455.43
510.986	16358.26
511.354	16600.51
511.722	16918.92
512.09	17011.35
512.458	16972.93
512.826	17155.75
513.193	17262.41
513.561	17417.44
513.929	17550.54
514.297	17633.03
514.664	17785.11
515.032	17830.53
515.4	18155.27
515.767	18154.59
516.135	18182.62
516.502	18171.32
516.869	18567.01
517.237	18619.21
517.604	18525.2
517.972	18897.17
518.339	19024.63
518.706	19104.4
519.073	19324.96
519.44	19373.54
519.808	19701.9
520.175	19677.27
520.542	19919.97
520.909	20005.84
521.276	20094.2
521.643	20224.37
522.009	20458.04
522.376	20646.73
522.743	20716.11
523.11	20991.35
523.477	21316.32
523.843	21371.01
524.21	21581.4
524.577	21779.13
524.943	21935.96
525.31	22026.58
525.676	22319.46
526.043	22434.93
526.409	22489.85
526.776	22693.91
527.142	22798.31
527.508	22962.6
527.874	23197.17
528.241	23360.56
528.607	23509.03
528.973	23864.05
529.339	23920.54
529.705	24176.81
530.071	24260.87
530.437	24462.45
530.803	24496.12
531.169	24821.08
531.535	24791.93
531.901	24869.9
532.267	25046.39
532.632	25254.52
532.998	25405.02
533.364	25455.64
533.73	25546.72
534.095	25862.41
534.461	25799.14
534.826	25953.03
535.192	26092.46
535.557	26304.89
535.923	26374.72
536.288	26465.34
536.653	26644.77
537.019	26673.92
537.384	26789.85
537.749	27018.32
538.114	26894.25
538.479	27002.27
538.845	27115.04
539.21	27037.3
539.575	27260.34
539.94	27335.37
540.305	27536.27
540.67	27557.96
541.034	27635.93
541.399	27798.86
541.764	27851.29
542.129	28011.51
542.494	27992.98
542.858	28075.24
543.223	28147.1
543.587	28394.78
543.952	28303.93
544.316	28405.17
544.681	28291.28
545.045	28605.84
545.41	28701.21
545.774	28587.99
546.138	28851.04
546.503	28966.51
546.867	28957.02
547.231	29193.63
547.595	29113.4
547.959	29277.24
548.324	29332.6
548.688	29428.65
549.052	29356.56
549.416	29468.19
549.779	29605.59
550.143	29601.98
550.507	29894.62
550.871	29839.48
551.235	29992.93
551.599	30211.23
551.962	30184.56
552.326	30424.1
552.689	30454.83
553.053	30317.44
553.417	30490.54
553.78	30736.18
554.143	30680.14
554.507	30876.07
554.87	30912.45
555.234	31325.32
555.597	31107.47
555.96	31150.18
556.323	31315.15
556.686	31394.7
557.05	31590.85
557.413	31704.07
557.776	31804.63
558.139	31938.64
558.502	31978.18
558.865	32083.49
559.228	32431.28
559.59	32469.47
559.953	32610.94
560.316	32963.7
560.679	32815.45
561.041	33055.44
561.404	33176.12
561.767	33451.14
562.129	33325.04
562.492	33707.63
562.854	33717.57
563.217	33803.22
563.579	33891.13
563.941	34076.89
564.304	34345.13
564.666	34531.34
565.028	34579.47
565.39	34694.5
565.753	35018.78
566.115	34982.85
566.477	35164.99
566.839	35301.71
567.201	35780.34
567.563	35486.57
567.925	35875.26
568.287	35963.84
568.648	36136.27
569.01	36480.21
569.372	36638.18
569.734	36585.52
570.095	36944.83
570.457	37096.92
570.819	37223.24
571.18	37321.09
571.542	37593.18
571.903	37712.95
572.265	38041.08
572.626	38091.92
572.987	38219.6
573.349	38599.71
573.71	38647.39
574.071	39044.67
574.432	39181.84
574.794	39380.7
575.155	39544.99
575.516	39524.65
575.877	39740.01
576.238	39831.31
576.599	40129.83
576.96	40372.09
577.32	40324.86
577.681	40625.41
578.042	40900.66
578.403	40921.45
578.763	41160.99
579.124	41369.12
579.485	41693.86
579.845	41943.12
580.206	41947.87
580.566	42144.7
580.927	42304.92
581.287	42600.05
581.648	42609.09
582.008	43079.36
582.368	43151
582.728	43355.51
583.089	43531.55
583.449	43614.04
583.809	43880.02
584.169	44145.1
584.529	44186
584.889	44687.45
585.249	44697.62
585.609	44791.41
585.969	45199.53
586.329	45277.04
586.688	45677.94
587.048	45889.23
587.408	46119.06
587.768	46357.92
588.127	46466.84
588.487	46706.84
588.846	47262.75
589.206	47104.79
589.565	47377.1
589.925	47819.58
590.284	48008.72
590.643	48253.91
591.003	48534.59
591.362	49049.37
591.721	49085.08
592.08	49324.62
592.44	49727.77
592.799	49777.94
593.158	50023.36
593.517	50104.26
593.876	50558.71
594.235	50681.65
594.593	50915.54
594.952	51176.1
595.311	51253.84
595.67	51621.96
596.029	51925.46
596.387	52169.29
596.746	52396.4
597.104	52382.17
597.463	52593.01
597.822	53014.69
598.18	52922.04
598.538	53167.01
598.897	53490.16
599.255	53535.13
599.613	54037.49
599.972	53911.85
600.33	54242.68
600.688	54362.91
601.046	54528.78
601.404	54859.62
601.762	54976.45
602.12	55218.7
602.478	55259.15
602.836	55537.57
603.194	55424.12
603.552	55653.27
603.91	55756.77
604.268	55973.49
604.625	56081.05
604.983	56363.98
605.341	56350.43
605.698	56546.35
606.056	56849.4
606.413	56782.28
606.771	57051.2
607.128	57096.17
607.485	57210.74
607.843	57305.2
608.2	57545.42
608.557	57676.72
608.914	57708.81
609.272	57874.68
609.629	58040.78
609.986	58212.52
610.343	58230.38
610.7	58529.8
611.057	58484.15
611.414	58517.83
611.771	58791.26
612.127	58855.22
612.484	58933.86
612.841	59111.93
613.198	59014.54
613.554	59166.62
613.911	59405.94
614.267	59379.95
614.624	59483.22
614.98	59605.25
615.337	59678.02
615.693	59753.05
616.05	59773.39
616.406	59923.44
616.762	59957.34
617.118	60041.63
617.475	60103.09
617.831	60251.34
618.187	60346.93
618.543	60420.15
618.899	60554.83
619.255	60534.95
619.611	60540.6
619.967	60774.04
620.323	60792.34
620.678	60729.07
621.034	60752.12
621.39	60771.33
621.746	60857.88
622.101	61111.43
622.457	60920.25
622.812	61065.56
623.168	61126.8
623.523	61209.73
623.879	61254.02
624.234	61172.67
624.589	61252.67
624.945	61266.91
625.3	61384.87
625.655	61422.83
626.01	61419.67
626.365	61439.1
626.72	61407.47
627.075	61395.04
627.43	61442.72
627.785	61499.89
628.14	61486.56
628.495	61546.45
628.85	61605.88
629.205	61553.45
629.559	61661.25
629.914	61542.83
630.269	61596.84
630.623	61521.81
630.978	61465.54
631.332	61628.03
631.687	61616.05
632.041	61582.83
632.396	61598.87
632.75	61501.93
633.104	61611.76
633.459	61460.35
633.813	61471.42
634.167	61490.85
634.521	61488.6
634.875	61512.78
635.229	61463.74
635.583	61395.72
635.937	61380.35
636.291	61391.65
636.645	61426.45
636.999	61337.19
637.352	61428.03
637.706	61266
638.06	61338.54
638.413	61335.6
638.767	61224.65
639.121	61286.11
639.474	61141.26
639.828	61148.94
640.181	61128.6
640.534	61228.94
640.888	61082.28
641.241	60987.14
641.594	61069.4
641.947	61084.31
642.301	60985.78
642.654	61034.6
643.007	60962.96
643.36	61084.31
643.713	60928.61
644.066	61066.23
644.419	60865.79
644.771	60619.69
645.124	60394.16
645.477	60372.24
645.83	60323.43
646.182	60268.51
646.535	60123.89
646.888	60228.97
647.24	60132.7
647.593	60240.49
647.945	60144.22
648.298	60101.51
648.65	59971.57
649.002	59888.19
649.355	59871.01
649.707	59835.98
650.059	59908.98
650.411	60254.73
650.763	60306.03
651.115	60626.24
651.467	60487.27
651.819	60551.44
652.171	60427.61
652.523	60372.01
652.875	60420.15
653.227	60241.17
653.578	60449.75
653.93	60342.41
654.282	60256.76
654.633	60219.48
654.985	60266.25
655.337	60270.55
655.688	60221.96
656.039	60271.9
656.391	60132.25
656.742	60178.12
657.094	60155.3
657.445	60153.04
657.796	60131.34
658.147	60068.97
658.498	60127.73
658.849	60124.56
659.2	60023.55
659.551	60012.02
659.902	60122.53
660.253	59983.1
660.604	60084.56
660.955	59906.49
661.306	60021.06
661.656	59958.24
662.007	59940.84
662.358	59948.52
662.708	59920.05
663.059	59854.51
663.409	59839.15
663.76	59879.37
664.11	59914.4
664.461	59945.58
664.811	59939.71
665.161	59879.6
665.511	59758.25
665.862	59821.75
666.212	59869.2
666.562	59961.86
666.912	59833.27
667.262	59799.15
667.612	59780.39
667.962	59842.31
668.312	59785.82
668.662	59924.79
669.011	59829.43
669.361	59795.31
669.711	59849.77
670.06	59796.21
670.41	59767.74
670.76	59705.59
671.109	59842.08
671.459	59743.56
671.808	59744.23
672.157	59815.19
672.507	59659.72
672.856	59647.29
673.205	59710.34
673.554	59700.17
673.904	59670.79
674.253	59813.84
674.602	59593.73
674.951	59350.35
675.3	59177.92
675.649	59720.51
675.998	59567.52
676.346	59675.08
676.695	59640.28
677.044	59531.58
677.393	59610.68
677.741	59586.5
678.09	59515.77
678.438	59423.11
678.787	59532.71
679.135	59548.08
679.484	59370.91
679.832	59536.33
680.181	59397.12
680.529	59399.84
680.877	59314.64
681.225	59330.23
681.573	59541.53
681.922	59418.14
682.27	59305.38
682.618	59312.38
682.966	59217.47
683.314	59224.47
683.661	59205.04
684.009	59165.94
684.357	59064.03
684.705	59033.29
685.053	59009.79
685.4	58972.96
685.748	58953.07
686.095	58904.26
686.443	58807.08
686.79	58758.05
687.138	58847.99
687.485	58834.65
687.832	58806.18
688.18	58744.26
688.527	58730.93
688.874	58646.64
689.221	58659.06
689.568	58530.03
689.915	58539.07
690.262	58600.99
690.609	58532.29
690.956	58387.21
691.303	58446.64
691.65	58346.08
691.997	58328.45
692.344	58243.93
692.69	58196.25
693.037	58212.52
693.383	58004.62
693.73	58051.62
694.077	58047.33
694.423	58012.75
694.769	57888.46
695.116	57851.63
695.462	57786.77
695.808	57633.56
696.155	57684.63
696.501	57592.65
696.847	57689.6
697.193	57384.52
697.539	57469.72
697.885	57277.41
698.231	57258.2
698.577	57305.65
698.923	57174.81
699.269	57095.94
699.614	57031.76
699.96	56936.62
700.306	57041.93
700.651	56919
700.997	56743.64
701.342	56710.87
701.688	56719.23
702.033	56544.09
702.379	56548.61
702.724	56405.79
703.069	56514.71
703.415	56210.54
703.76	56248.28
704.105	56177.77
704.45	56149.98
704.795	56026.14
705.14	55961.51
705.485	55980.49
705.83	55772.81
706.175	55899.59
706.52	55732.36
706.865	55621.63
707.209	55549.32
707.554	55534.85
707.899	55587.96
708.243	55409.43
708.588	55377.12
708.932	55251.7
709.277	55199.04
709.621	55164.92
709.966	55032.27
710.31	55003.12
710.654	54871.82
710.998	54875.89
711.342	54933.97
711.687	54735.55
712.031	54681.09
712.375	54598.15
712.719	54566.07
713.063	54594.77
713.407	54655.1
713.75	54543.24
714.094	54424.37
714.438	54326.07
714.782	54378.27
715.125	54167.66
715.469	54344.6
715.812	54039.07
716.156	54041.56
716.499	53966.08
716.843	54016.48
717.186	53830.72
717.53	54030.94
717.873	53933.77
718.216	53836.14
718.559	53789.36
718.902	53581.91
719.246	53656.26
719.589	53555.24
719.932	53362.71
720.275	53454.46
720.617	53445.87
720.96	53265.53
721.303	53321.8
721.646	53368.58
721.989	53199.1
722.331	53241.13
722.674	53089.27
723.016	53108.7
723.359	52984.19
723.701	52993
724.044	52867.13
724.386	52696.96
724.729	52732.44
725.071	52788.03
725.413	52710.97
725.755	52652.67
726.097	52532.22
726.439	52413.35
726.782	52504.42
727.124	52598.89
727.465	52496.74
727.807	52286.8
728.149	52346.24
728.491	52296.97
728.833	52273.24
729.175	52292.45
729.516	52097.66
729.858	52108.28
730.199	52214.26
730.541	52059.69
730.882	51984.89
731.224	52085
731.565	51927.04
731.906	51973.59
732.248	51948.28
732.589	51742.86
732.93	51727.04
733.271	51663.99
733.612	51589.19
733.953	51667.16
734.294	51634.84
734.635	51459.71
734.976	51643.2
735.317	51415.87
735.658	51430.1
735.999	51381.74
736.339	51391.23
736.68	51337.9
737.021	51217.23
737.361	51238.92
737.702	51316.66
738.042	51148.98
738.383	51182.43
738.723	51151.24
739.063	51029.44
739.404	51146.72
739.744	51060.62
740.084	50890.23
740.424	50911.47
740.764	50870.57
741.104	50933.84
741.444	50815.2
741.784	50672.38
742.124	50769.1
742.464	50666.28
742.804	50658.37
743.143	50546.28
743.483	50592.84
743.823	50430.13
744.162	50387.42
744.502	50410.47
744.841	50239.17
745.181	50378.38
745.52	50267.2
745.86	50327.31
746.199	50196.69
746.538	50098.39
746.877	50229.68
747.216	50104.71
747.556	50158.72
747.895	50153.98
748.234	49928.9
748.573	49924.38
748.911	49728.45
749.25	49872.4
749.589	49698.4
749.928	49652.3
750.267	49664.27
750.605	49581.11
750.944	49509.93
751.283	49492.98
751.621	49499.53
751.96	49203.95
752.298	49249.59
752.636	49179.31
752.975	49153.55
753.313	49064.97
753.651	49286.88
753.989	48942.26
