Data from 7415_FLMS001491_009.txt Node
Date: Thu Apr 19 16:29:58 BST 2018
User: hsy
Spectrometer: FLMS00149
Trigger mode: 0
Integration Time (sec): 1.000000E-2
Scans to average: 10
Electric dark correction enabled: true
Nonlinearity correction enabled: false
Boxcar width: 0
XAxis mode: Wavelengths
Number of Pixels in Spectrum: 2048
>>>>>Begin Spectral Data<<<<<
341.393	-10.55
341.776	-10.55
342.16	-10.55
342.543	-48.52
342.927	-59.59
343.31	-72.02
343.693	-76.54
344.077	-74.5
344.46	-62.53
344.843	-60.27
345.226	-51.23
345.61	-35.86
345.993	1.88
346.376	1.88
346.759	7.98
347.142	32.61
347.525	37.13
347.908	67.64
348.291	76.45
348.674	95.66
349.057	111.71
349.44	135.21
349.823	137.47
350.206	175.21
350.588	243.23
350.971	242.78
351.354	298.82
351.737	279.84
352.119	283.45
352.502	294.75
352.884	302.89
353.267	320.51
353.65	334.3
354.032	345.37
354.414	328.42
354.797	350.12
355.179	356.22
355.562	366.61
355.944	338.14
356.326	386.95
356.709	387.41
357.091	406.16
357.473	384.92
357.855	387.86
358.238	394.86
358.62	388.99
359.002	413.17
359.384	401.87
359.766	376.33
360.148	374.75
360.53	420.85
360.912	399.61
361.294	401.42
361.676	390.57
362.057	390.79
362.439	393.73
362.821	386.73
363.203	368.87
363.584	398.7
363.966	376.33
364.348	391.25
364.729	395.54
365.111	394.18
365.493	384.02
365.874	391.25
366.256	387.41
366.637	388.31
367.019	367.97
367.4	388.31
367.781	376.33
368.163	372.94
368.544	362.55
368.925	391.47
369.306	359.61
369.688	361.19
370.069	380.63
370.45	382.21
370.831	388.31
371.212	366.84
371.593	398.48
371.974	371.59
372.355	402.77
372.736	384.92
373.117	390.12
373.498	382.21
373.879	401.42
374.26	381.3
374.641	398.7
375.021	388.53
375.402	390.34
375.783	402.32
376.163	431.92
376.544	413.17
376.925	405.03
377.305	403.45
377.686	406.61
378.066	400.06
378.447	410
378.827	418.14
379.208	421.3
379.588	409.33
379.968	424.01
380.349	420.4
380.729	442.77
381.109	423.56
381.489	426.73
381.87	441.87
382.25	446.39
382.63	427.86
383.01	447.74
383.39	438.25
383.77	474.18
384.15	454.75
384.53	461.08
384.91	468.53
385.29	465.6
385.67	462.88
386.049	469.89
386.429	458.82
386.809	481.64
387.189	450
387.568	469.21
387.948	454.97
388.328	477.35
388.707	480.51
389.087	472.83
389.466	476.89
389.846	491.81
390.225	504.01
390.605	514.18
390.984	490.23
391.363	528.42
391.743	497.68
392.122	505.14
392.501	523.22
392.881	504.24
393.26	533.16
393.639	554.63
394.018	528.87
394.397	525.71
394.776	541.53
395.155	551.69
395.534	550.11
395.913	535.65
396.292	543.33
396.671	570.23
397.05	570
397.429	574.29
397.808	566.38
398.186	572.71
398.565	584.46
398.944	598.25
399.323	575.65
399.701	586.27
400.08	593.73
400.458	586.72
400.837	587.4
401.215	610
401.594	599.83
401.972	615.87
402.351	637.12
402.729	637.57
403.107	636.44
403.486	644.35
403.864	632.37
404.242	617
404.62	657
404.999	650.22
405.377	660.39
405.755	689.09
406.133	664.69
406.511	674.86
406.889	703.1
407.267	725.25
407.645	743.78
408.023	731.35
408.401	743.1
408.779	750.11
409.156	755.98
409.534	767.96
409.912	775.64
410.29	783.78
410.667	819.03
411.045	794.4
411.422	837.34
411.8	832.59
412.178	862.19
412.555	849.77
412.933	843.44
413.31	869.43
413.687	908.07
414.065	878.69
414.442	901.29
414.819	903.55
415.197	923.44
415.574	948.75
415.951	942.64
416.328	916.43
416.705	954.85
417.082	964.57
417.46	971.57
417.837	985.36
418.214	1010.89
418.591	1021.29
418.967	1021.96
419.344	1041.63
419.721	1024.45
420.098	1019.7
420.475	1084.34
420.852	1070.55
421.228	1054.05
421.605	1107.84
421.982	1091.57
422.358	1115.52
422.735	1142.41
423.111	1139.02
423.488	1160.27
423.864	1149.87
424.241	1173.15
424.617	1166.37
424.994	1216.54
425.37	1217.44
425.746	1206.82
426.123	1234.16
426.499	1232.81
426.875	1245.24
427.251	1273.71
427.627	1298.12
428.003	1276.42
428.379	1277.33
428.756	1314.16
429.132	1310.77
429.507	1379.02
429.883	1375.85
430.259	1410.43
430.635	1380.83
431.011	1415.85
431.387	1435.51
431.763	1465.79
432.138	1480.03
432.514	1515.29
432.89	1509.86
433.265	1508.51
433.641	1558.9
434.016	1565.91
434.392	1610.88
434.767	1645.68
435.143	1603.64
435.518	1616.98
435.894	1649.07
436.269	1691.78
436.644	1711.66
437.02	1721.83
437.395	1710.76
437.77	1746.01
438.145	1771.55
438.52	1777.43
438.895	1806.58
439.271	1829.85
439.646	1853.81
440.021	1860.81
440.395	1860.81
440.77	1869.17
441.145	1918.44
441.52	1897.87
441.895	1885.44
442.27	1926.35
442.645	1941.04
443.019	1933.13
443.394	1978.1
443.769	1948.72
444.143	1942.39
444.518	1976.06
444.892	1987.14
445.267	1978.78
445.641	1989.17
446.016	2020.81
446.39	2035.72
446.764	2065.33
447.139	2056.51
447.513	2070.98
447.887	2049.73
448.262	2069.62
448.636	2107.81
449.01	2120.24
449.384	2177.87
449.758	2151.43
450.132	2172.67
450.506	2181.48
450.88	2212.22
451.254	2226.23
451.628	2251.99
452.002	2254.93
452.376	2296.73
452.75	2322.5
453.123	2365.21
453.497	2385.32
453.871	2386.9
454.244	2407.01
454.618	2461.93
454.992	2463.96
455.365	2513.9
455.739	2582.6
456.112	2614.01
456.486	2599.32
456.859	2632.09
457.232	2643.16
457.606	2656.95
457.979	2741.92
458.352	2786.44
458.725	2747.12
459.099	2788.92
459.472	2830.96
459.845	2908.92
460.218	2888.81
460.591	2953.67
460.964	2975.81
461.337	2985.3
461.71	3095.13
462.083	3116.6
462.456	3111.63
462.829	3114.79
463.201	3198.4
463.574	3218.29
463.947	3228.91
464.32	3257.39
464.692	3305.75
465.065	3343.94
465.438	3409.47
465.81	3428.46
466.183	3428.23
466.555	3511.39
466.928	3521.11
467.3	3533.54
467.672	3568.56
468.045	3681.78
468.417	3634.33
468.789	3695.11
469.161	3740.09
469.534	3771.04
469.906	3835.9
470.278	3895.34
470.65	3926.07
471.022	4009.23
471.394	4035.67
471.766	4017.14
472.138	4116.8
472.51	4186.4
472.882	4261.43
473.253	4301.2
473.625	4353.63
473.997	4461.2
474.369	4513.17
474.74	4493.29
475.112	4615.09
475.484	4686.95
475.855	4752.71
476.227	4721.53
476.598	4899.38
476.97	4973.5
477.341	5046.27
477.713	5114.74
478.084	5154.51
478.455	5342.98
478.827	5321.51
479.198	5491.68
479.569	5514.28
479.94	5700.49
480.311	5743.65
480.682	5855.06
481.053	5911.1
481.424	6035.17
481.795	6117.88
482.166	6225.44
482.537	6341.15
482.908	6423.86
483.279	6530.75
483.65	6655.04
484.021	6719.89
484.391	6890.96
484.762	6938.19
485.133	7012.54
485.503	7103.84
485.874	7315.81
486.244	7399.88
486.615	7542.7
486.985	7606.42
487.356	7799.19
487.726	7825.85
488.097	8083.7
488.467	8145.17
488.837	8284.15
489.207	8404.37
489.578	8559.39
489.948	8700.63
490.318	8917.12
490.688	8831.93
491.058	9084.13
491.428	9185.14
491.798	9299.94
492.168	9520.27
492.538	9615.64
492.908	9682.3
493.278	9840.49
493.648	9898.12
494.017	10118
494.387	10248.39
494.757	10377.65
495.126	10410.19
495.496	10551.43
495.866	10691.99
496.235	10861.25
496.605	10928.37
496.974	11080.46
497.344	11200
497.713	11294.91
498.082	11452.2
498.452	11423.27
498.821	11663.49
499.19	11683.15
499.559	11883.15
499.928	12017.16
500.298	12083.82
500.667	12274.78
501.036	12285.85
501.405	12512.06
501.774	12509.12
502.143	12711.15
502.512	12719.96
502.88	12951.59
503.249	12981.2
503.618	13160.18
503.987	13134.87
504.356	13293.73
504.724	13451.47
505.093	13604.46
505.462	13585.93
505.83	13652.14
506.199	13900.04
506.567	14066.14
506.936	14156.76
507.304	14213.48
507.672	14412.12
508.041	14493.93
508.409	14641.27
508.777	14763.75
509.145	14931.88
509.514	14948.6
509.882	15059.34
510.25	15207.35
510.618	15273.34
510.986	15247.13
511.354	15414.58
511.722	15654.35
512.09	15854.34
512.458	15752.65
512.826	15993.55
513.193	16082.81
513.561	16192.41
513.929	16312.41
514.297	16500.88
514.664	16643.47
515.032	16601.44
515.4	16822
515.767	16847.31
516.135	17107.42
516.502	16897.93
516.869	17370.01
517.237	17422.89
517.604	17369.56
517.972	17646.16
518.339	17747.63
518.706	17900.39
519.073	17999.82
519.44	18076.21
519.808	18295.18
520.175	18364.11
520.542	18538.34
520.909	18694.95
521.276	18737.88
521.643	19048.61
522.009	19188.04
522.376	19254.71
522.743	19487.02
523.11	19652.21
523.477	19838.42
523.843	19932.2
524.21	20122.25
524.577	20366.54
524.943	20395.69
525.31	20480.44
525.676	20747.77
526.043	20940.08
526.409	21033.42
526.776	21306.86
527.142	21359.73
527.508	21411.03
527.874	21759.27
528.241	21828.65
528.607	21955.88
528.973	22213.5
529.339	22298.69
529.705	22508.86
530.071	22724.44
530.437	22834.5
530.803	23034.04
531.169	23123.53
531.535	23145.45
531.901	23313.81
532.267	23389.29
532.632	23632.67
532.998	23681.03
533.364	23799.44
533.73	23946.79
534.095	24222.03
534.461	24215.71
534.826	24337.06
535.192	24424.51
535.557	24673.55
535.923	24668.35
536.288	24688.91
536.653	24918.06
537.019	24938.62
537.384	25076.93
537.749	25194.21
538.114	25356.01
538.479	25166.64
538.845	25312.85
539.21	25382.91
539.575	25437.14
539.94	25662.67
540.305	25781.99
540.67	25812.73
541.034	25899.73
541.399	25977.92
541.764	26141.76
542.129	26149.89
542.494	26192.83
542.858	26269.89
543.223	26325.25
543.587	26398.47
543.952	26515.98
544.316	26574.29
544.681	26634.85
545.045	26788.97
545.41	26922.07
545.774	26867.16
546.138	26873.26
546.503	27188.73
546.867	27217.66
547.231	27310.76
547.595	27465.79
547.959	27518.44
548.324	27413.14
548.688	27535.17
549.052	27644.32
549.416	27634.37
549.779	27729.06
550.143	27655.16
550.507	27905.55
550.871	27997.75
551.235	27995.27
551.599	28292.66
551.962	28311.87
552.326	28382.15
552.689	28544.86
553.053	28360.91
553.417	28562.71
553.78	28823.27
554.143	28833.44
554.507	28975.58
554.87	29012.87
555.234	29334.44
555.597	29208.79
555.96	29329.69
556.323	29473.42
556.686	29469.35
557.05	29738.72
557.413	29732.85
557.776	29699.63
558.139	30056.68
558.502	30056.23
558.865	30208.77
559.228	30333.06
559.59	30371.02
559.953	30528.08
560.316	30870.22
560.679	30833.16
561.041	30945.02
561.404	31165.58
561.767	31321.28
562.129	31276.31
562.492	31552.91
562.854	31669.07
563.217	31545.68
563.579	31752.91
563.941	31970.76
564.304	32285.1
564.666	32430.63
565.028	32437.18
565.39	32726.89
565.753	32815.7
566.115	32850.05
566.477	33057.05
566.839	33188.12
567.201	33481.9
567.563	33391.51
567.925	33765.28
568.287	33767.09
568.648	33974.09
569.01	34333.41
569.372	34499.28
569.734	34330.92
570.095	34652.72
570.457	34917.57
570.819	34947.63
571.18	34906.72
571.542	35429.87
571.903	35451.57
572.265	35596.42
572.626	35784.67
572.987	35757.77
573.349	36106.92
573.71	36185.79
574.071	36384.88
574.432	36586
574.794	36926.11
575.155	37016.5
575.516	37124.97
575.877	37288.13
576.238	37316.15
576.599	37453.55
576.96	37621.68
577.32	37731.51
577.681	37995.68
578.042	38310.7
578.403	38313.87
578.763	38392.96
579.124	38666.62
579.485	38981.87
579.845	39199.04
580.206	39216.67
580.566	39296.21
580.927	39535.08
581.287	39862.75
581.648	39866.82
582.008	40262.29
582.368	40395.39
582.728	40732.11
583.089	40571.89
583.449	40885.1
583.809	41146.56
584.169	41311.53
584.529	41375.71
584.889	41844.85
585.249	41812.76
585.609	42109.47
585.969	42533.42
586.329	42509.91
586.688	42931.82
587.048	43059.5
587.408	43240.52
587.768	43489.77
588.127	43832.14
588.487	44066.03
588.846	44487.26
589.206	44361.62
589.565	44750.31
589.925	45254.02
590.284	45310.29
590.643	45585.99
591.003	45835.7
591.362	46271.17
591.721	46472.97
592.08	46649.47
592.44	47089.23
592.799	47352.05
593.158	47566.73
593.517	47786.61
593.876	48191.12
594.235	48218.69
594.593	48515.63
594.952	48801.5
595.311	48969.4
595.67	49289.4
596.029	49614.81
596.387	49835.37
596.746	50296.15
597.104	50348.35
597.463	50350.84
597.822	50809.36
598.18	50913.99
598.538	51151.72
598.897	51530.02
599.255	51497.02
599.613	52012.04
599.972	51997.57
600.33	52209.32
600.688	52414.51
601.046	52605.92
601.404	53008.85
601.762	52948.06
602.12	53243.19
602.478	53473.01
602.836	53568.61
603.194	53579.68
603.552	53779.45
603.91	53890.41
604.268	54151.42
604.625	54328.36
604.983	54519.77
605.341	54428.24
605.698	54806.99
606.056	55073.65
606.413	55091.96
606.771	55385.96
607.128	55417.37
607.485	55464.15
607.843	55714.99
608.2	55858.49
608.557	56093.74
608.914	56057.81
609.272	56305.48
609.629	56481.07
609.986	56646.26
610.343	56633.16
610.7	56903.43
611.057	56842.64
611.414	56984.33
611.771	57198.11
612.127	57318.34
612.484	57344.33
612.841	57528.73
613.198	57487.15
613.554	57497.32
613.911	57804.43
614.267	57884.42
614.624	57920.81
614.98	58138.88
615.337	58298.88
615.693	58313.11
616.05	58390.4
616.406	58541.81
616.762	58528.48
617.118	58612.31
617.475	58623.16
617.831	58823.38
618.187	58862.25
618.543	59049.14
618.899	59124.62
619.255	59155.58
619.611	59166.88
619.967	59388.11
620.323	59435.12
620.678	59363.26
621.034	59389.92
621.39	59424.27
621.746	59523.93
622.101	59755.34
622.457	59568.22
622.812	59693.42
623.168	59814.09
623.523	59771.15
623.879	59918.27
624.234	59867.2
624.589	59977.93
624.945	59989.91
625.3	60038.72
625.655	60039.4
626.01	60041.43
626.365	60151.03
626.72	60084.14
627.075	60091.6
627.43	60104.93
627.785	60144.03
628.14	60172.73
628.495	60196.68
628.85	60250.69
629.205	60149.9
629.559	60258.15
629.914	60188.09
630.269	60239.16
630.623	60146.29
630.978	60113.29
631.332	60278.26
631.687	60276.23
632.041	60214.31
632.396	60217.47
632.75	60204.82
633.104	60250.92
633.459	60135.89
633.813	60172.5
634.167	60200.75
634.521	60205.49
634.875	60185.61
635.229	60078.49
635.583	60075.55
635.937	60040.75
636.291	60114.2
636.645	60069.9
636.999	59993.75
637.352	60054.99
637.706	59911.04
638.06	60021.32
638.413	59943.13
638.767	59936.35
639.121	59920.53
639.474	59890.7
639.828	59812.51
640.181	59827.42
640.534	59897.25
640.888	59757.14
641.241	59699.52
641.594	59785.39
641.947	59790.14
642.301	59693.87
642.654	59798.27
643.007	59674.66
643.36	59731.16
643.713	59652.06
644.066	59709.69
644.419	59589.69
644.771	59342.69
645.124	59086.43
645.477	59076.71
645.83	58972.98
646.182	58995.36
646.535	58924.62
646.888	58984.73
647.24	58861.8
647.593	59016.82
647.945	58855.92
648.298	58780.22
648.65	58732.76
649.002	58620
649.355	58675.82
649.707	58562.6
650.059	58550.62
650.411	58847.56
650.763	58982.25
651.115	59329.36
651.467	59254.33
651.819	59154
652.171	59159.19
652.523	59101.12
652.875	59065.18
653.227	58966.2
653.578	59173.66
653.93	59063.15
654.282	58956.49
654.633	58863.61
654.985	58929.37
655.337	58892.99
655.688	58920.1
656.039	59010.72
656.391	58657.74
656.742	58832.87
657.094	58826.09
657.445	58815.47
657.796	58825.42
658.147	58657.51
658.498	58792.88
658.849	58815.7
659.2	58723.95
659.551	58697.74
659.902	58825.87
660.253	58632.65
660.604	58746.77
660.955	58596.95
661.306	58759.43
661.656	58673.56
662.007	58677.62
662.358	58626.78
662.708	58631.75
663.059	58575.03
663.409	58447.35
663.76	58591.98
664.11	58552.88
664.461	58612.77
664.811	58650.96
665.161	58629.94
665.511	58537.97
665.862	58516.05
666.212	58546.33
666.562	58575.03
666.912	58483.96
667.262	58439.44
667.612	58400.57
667.962	58483.5
668.312	58398.31
668.662	58523.05
669.011	58478.76
669.361	58481.7
669.711	58457.97
670.06	58366.22
670.41	58359.89
670.76	58304.53
671.109	58468.59
671.459	58408.93
671.808	58356.95
672.157	58402.15
672.507	58259.56
672.856	58284.87
673.205	58290.74
673.554	58368.03
673.904	58262.49
674.253	58455.93
674.602	58284.64
674.951	57936.4
675.3	57848.04
675.649	58264.3
675.998	58269.27
676.346	58266.56
676.695	58280.35
677.044	58231.08
677.393	58205.09
677.741	58279.22
678.09	58154.25
678.438	58158.77
678.787	58160.58
679.135	58166
679.484	58026.12
679.832	58189.73
680.181	58112.67
680.529	58138.43
680.877	57972.56
681.225	57996.29
681.573	58152.44
681.922	57981.6
682.27	57956.29
682.618	57975.27
682.966	57920.36
683.314	57955.61
683.661	57902.95
684.009	57833.58
684.357	57766.46
684.705	57694.15
685.053	57784.31
685.4	57678.33
685.748	57709.29
686.095	57679.68
686.443	57462.29
686.79	57542.06
687.138	57643.07
687.485	57578.9
687.832	57439.01
688.18	57414.83
688.527	57339.35
688.874	57360.6
689.221	57408.28
689.568	57250.09
689.915	57233.14
690.262	57279.47
690.609	57174.39
690.956	57117.89
691.303	57116.31
691.65	56980.27
691.997	56983.21
692.344	56875.41
692.69	56869.99
693.037	56915.64
693.383	56682.2
693.73	56788.86
694.077	56622.31
694.423	56722.19
694.769	56549.54
695.116	56533.27
695.462	56461.86
695.808	56371.47
696.155	56393.62
696.501	56209.89
696.847	56252.38
697.193	56112.72
697.539	56117.47
697.885	55882.9
698.231	55851.03
698.577	55943.46
698.923	55882.44
699.269	55734.42
699.614	55669.12
699.96	55641.55
700.306	55613.98
700.651	55460.53
700.997	55440.65
701.342	55392.74
701.688	55294.44
702.033	55199.3
702.379	55212.4
702.724	55113.2
703.069	55110.94
703.415	54856.48
703.76	54856.93
704.105	54888.34
704.45	54725.19
704.795	54662.36
705.14	54457.62
705.485	54578.3
705.83	54452.42
706.175	54580.78
706.52	54428.02
706.865	54296.95
707.209	54140.57
707.554	54172.66
707.899	54102.83
708.243	54084.75
708.588	53989.39
708.932	53866.45
709.277	53881.82
709.621	53760.01
709.966	53573.35
710.31	53665.1
710.654	53440.7
710.998	53477.31
711.342	53488.38
711.687	53306.01
712.031	53253.13
712.375	53056.98
712.719	53149.41
713.063	53131.33
713.407	53122.97
713.75	52872.13
714.094	53041.16
714.438	52804.11
714.782	52806.82
715.125	52704.67
715.469	52900.6
715.812	52542.64
716.156	52582.42
716.499	52523.44
716.843	52515.3
717.186	52306.27
717.53	52534.51
717.873	52450.89
718.216	52333.84
718.559	52216.78
718.902	51942.66
719.246	51964.81
719.589	51965.71
719.932	51928.42
720.275	51868.31
720.617	51852.94
720.96	51687.3
721.303	51772.95
721.646	51862.89
721.989	51537.02
722.331	51748.99
722.674	51540.18
723.016	51489.11
723.359	51435.33
723.701	51442.56
724.044	51219.29
724.386	51113.53
724.729	51267.42
725.071	51186.3
725.413	51245.05
725.755	51147.65
726.097	51137.26
726.439	50911.05
726.782	50890.71
727.124	50957.15
727.465	50881.22
727.807	50744.73
728.149	50817.94
728.491	50588.8
728.833	50672.18
729.175	50570.49
729.516	50429.25
729.858	50402.81
730.199	50574.11
730.541	50437.61
730.882	50269.94
731.224	50400.1
731.565	50201.24
731.906	50277.62
732.248	50206.89
732.589	50052.09
732.93	50010.06
733.271	50043.05
733.612	49995.37
733.953	49996.5
734.294	49912.66
734.635	49813.68
734.976	49854.13
735.317	49741.59
735.658	49723.51
735.999	49541.82
736.339	49660.01
736.68	49707.92
737.021	49676.05
737.361	49427.02
737.702	49640.35
738.042	49525.77
738.383	49535.94
738.723	49441.48
739.063	49277.42
739.404	49496.17
739.744	49267.7
740.084	49237.65
740.424	49310.86
740.764	49166.46
741.104	49222.96
741.444	49060.48
741.784	48860.93
742.124	49050.53
742.464	48921.27
742.804	48749.75
743.143	48829.75
743.483	48865.23
743.823	48647.61
744.162	48616.87
744.502	48769.41
744.841	48610.09
745.181	48714.04
745.52	48456.88
745.86	48592.69
746.199	48354.05
746.538	48431.11
746.877	48439.47
747.216	48388.18
747.556	48327.84
747.895	48264.11
748.234	48129.43
748.573	48141.4
748.911	48002.42
749.25	47964.46
749.589	47778.02
749.928	47990.67
750.267	48045.81
750.605	47825.03
750.944	47672.04
751.283	47721.3
751.621	47870.45
751.96	47502.55
752.298	47453.29
752.636	47370.12
752.975	47342.33
753.313	47110.02
753.651	47413.29
753.989	47089.91
754.327	47192.05
