Data from 7548_FLMS001491_005.txt Node
Date: Thu Apr 12 17:06:27 BST 2018
User: hsy
Spectrometer: FLMS00149
Trigger mode: 0
Integration Time (sec): 1.000000E-2
Scans to average: 10
Electric dark correction enabled: true
Nonlinearity correction enabled: false
Boxcar width: 0
XAxis mode: Wavelengths
Number of Pixels in Spectrum: 2048
>>>>>Begin Spectral Data<<<<<
341.393	-40.47
341.776	-40.47
342.16	-40.47
342.543	-52.22
342.927	-69.16
343.31	-68.03
343.693	-49.73
344.077	-63.74
344.46	-55.61
344.843	-55.15
345.226	-48.6
345.61	-48.6
345.993	-22.16
346.376	-3.18
346.759	13.32
347.142	29.14
347.525	38.18
347.908	75.69
348.291	70.72
348.674	89.48
349.057	98.29
349.44	133.77
349.823	131.28
350.206	174.67
350.588	240.88
350.971	249.92
351.354	278.4
351.737	284.72
352.119	286.76
352.502	326.76
352.884	319.75
353.267	336.25
353.65	324.72
354.032	325.18
354.414	354.78
354.797	346.87
355.179	376.93
355.562	371.28
355.944	401.56
356.326	409.01
356.709	387.77
357.091	388.45
357.473	394.1
357.855	373.99
358.238	402.46
358.62	400.43
359.002	414.89
359.384	395.68
359.766	390.71
360.148	402.24
360.53	407.43
360.912	395
361.294	385.29
361.676	407.43
362.057	391.16
362.439	378.28
362.821	392.29
363.203	384.61
363.584	396.59
363.966	393.87
364.348	405.85
364.729	375.12
365.111	380.77
365.493	380.54
365.874	372.86
366.256	380.77
366.637	387.32
367.019	380.54
367.4	384.83
367.781	376.93
368.163	378.51
368.544	366.08
368.925	366.98
369.306	381.67
369.688	369.92
370.069	379.64
370.45	369.92
370.831	361.78
371.212	381.67
371.593	392.97
371.974	391.61
372.355	376.25
372.736	413.53
373.117	405.62
373.498	383.7
373.879	387.77
374.26	370.6
374.641	384.16
375.021	380.54
375.402	401.78
375.783	402.24
376.163	414.44
376.544	418.73
376.925	407.43
377.305	411.27
377.686	405.85
378.066	405.17
378.447	434.32
378.827	424.38
379.208	424.83
379.588	423.7
379.968	438.39
380.349	456.02
380.729	435.23
381.109	429.13
381.489	442.01
381.87	442.69
382.25	421.22
382.63	441.78
383.01	440.65
383.39	441.1
383.77	447.43
384.15	438.84
384.53	464.61
384.91	469.8
385.29	463.02
385.67	456.92
386.049	467.09
386.429	471.84
386.809	478.62
387.189	464.15
387.568	470.26
387.948	463.02
388.328	489.01
388.707	475
389.087	474.78
389.466	483.81
389.846	479.52
390.225	489.69
390.605	481.56
390.984	488.33
391.363	496.47
391.743	494.89
392.122	518.16
392.501	516.58
392.881	532.4
393.26	508.67
393.639	539.41
394.018	515.23
394.397	524.27
394.776	528.56
395.155	532.85
395.534	547.09
395.913	521.78
396.292	522.68
396.671	565.39
397.05	555.23
397.429	552.29
397.808	553.42
398.186	563.13
398.565	536.92
398.944	556.36
399.323	580.99
399.701	585.73
400.08	552.06
400.458	584.83
400.837	578.28
401.215	591.61
401.594	590.25
401.972	587.77
402.351	589.35
402.729	575.11
403.107	604.26
403.486	615.11
403.864	615.34
404.242	626.86
404.62	603.59
404.999	636.13
405.377	614.21
405.755	617.6
406.133	649.23
406.511	649.23
406.889	676.13
407.267	661.89
407.645	649.69
408.023	692.85
408.401	670.93
408.779	687.65
409.156	675.45
409.534	681.32
409.912	699.63
410.29	715.45
410.667	694.2
411.045	727.88
411.422	719.29
411.8	752.51
412.178	724.49
412.555	750.7
412.933	740.08
413.31	758.38
413.687	757.03
414.065	783.24
414.442	778.27
414.819	770.36
415.197	791.6
415.574	806.74
415.951	793.19
416.328	799.96
416.705	821.21
417.082	819.4
417.46	830.92
417.837	844.26
418.214	854.43
418.591	846.74
418.967	853.07
419.344	869.34
419.721	868.44
420.098	873.64
420.475	852.17
420.852	866.18
421.228	862.56
421.605	906.18
421.982	873.64
422.358	908.21
422.735	910.7
423.111	915.44
423.488	924.48
423.864	934.65
424.241	935.78
424.617	935.78
424.994	947.31
425.37	958.6
425.746	955.21
426.123	967.19
426.499	952.05
426.875	997.47
427.251	999.96
427.627	1039.51
428.003	983.46
428.379	1042.44
428.756	1036.34
429.132	1055.78
429.507	1064.59
429.883	1082.22
430.259	1092.61
430.635	1101.88
431.011	1091.48
431.387	1126.96
431.763	1129.45
432.138	1119.96
432.514	1125.83
432.89	1166.51
433.265	1165.15
433.641	1178.94
434.016	1224.81
434.392	1194.98
434.767	1235.89
435.143	1219.16
435.518	1237.24
435.894	1242.67
436.269	1259.16
436.644	1280.86
437.02	1297.58
437.395	1274.53
437.77	1316.56
438.145	1345.26
438.52	1318.6
438.895	1333.06
439.271	1314.53
439.646	1378.48
440.021	1357.24
440.395	1363.57
440.77	1367.41
441.145	1371.25
441.52	1404.69
441.895	1401.76
442.27	1438.59
442.645	1416.45
443.019	1434.52
443.394	1425.71
443.769	1421.64
444.143	1447.18
444.518	1463.68
444.892	1466.84
445.267	1499.83
445.641	1495.09
446.016	1482.43
446.39	1509.32
446.764	1519.72
447.139	1539.15
447.513	1518.59
447.887	1536.89
448.262	1512.49
448.636	1556.33
449.01	1581.19
449.384	1569.66
449.758	1564.69
450.132	1581.41
450.506	1611.69
450.88	1638.36
451.254	1638.13
451.628	1677
452.002	1671.58
452.376	1709.77
452.75	1709.32
453.123	1707.06
453.497	1775.53
453.871	1739.83
454.244	1800.84
454.618	1811.92
454.992	1841.97
455.365	1828.41
455.739	1879.03
456.112	1901.4
456.486	1935.3
456.859	1926.49
457.232	1968.3
457.606	1978.46
457.979	1993.83
458.352	1992.02
458.725	2058.69
459.099	2049.2
459.472	2074.73
459.845	2079.25
460.218	2156.09
460.591	2168.74
460.964	2185.01
461.337	2191.79
461.71	2246.48
462.083	2273.15
462.456	2290.77
462.829	2311.11
463.201	2339.81
463.574	2359.25
463.947	2367.61
464.32	2407.38
464.692	2425.46
465.065	2459.13
465.438	2472.24
465.81	2490.09
466.183	2509.75
466.555	2568.73
466.928	2623.42
467.3	2618.45
467.672	2609.63
468.045	2717.88
468.417	2674.94
468.789	2676.98
469.161	2757.88
469.534	2789.07
469.906	2867.26
470.278	2874.94
470.65	2906.12
471.022	2965.33
471.394	3017.53
471.766	3016.63
472.138	3063.41
472.51	3136.4
472.882	3180.24
473.253	3190.18
473.625	3226.34
473.997	3269.05
474.369	3319.67
474.74	3373.23
475.112	3433.57
475.484	3473.57
475.855	3539.1
476.227	3616.61
476.598	3681.25
476.97	3721.02
477.341	3778.19
477.713	3884.86
478.084	3890.96
478.455	3979.09
478.827	3984.06
479.198	4151.74
479.569	4170.95
479.94	4317.39
480.311	4354.67
480.682	4415.24
481.053	4545.4
481.424	4620.2
481.795	4654.78
482.166	4750.37
482.537	4848.45
482.908	4958.5
483.279	5039.4
483.65	5164.82
484.021	5248.21
484.391	5325.04
484.762	5366.85
485.133	5466.28
485.503	5601.42
485.874	5710.34
486.244	5848.42
486.615	5960.28
486.985	6067.85
487.356	6238.47
487.726	6262.65
488.097	6466.03
488.467	6577.89
488.837	6715.06
489.207	6848.85
489.578	7075.28
489.948	7117.99
490.318	7339.68
490.688	7352.56
491.058	7599.79
491.428	7700.35
491.798	7837.97
492.168	8091.52
492.538	8151.64
492.908	8403.38
493.278	8529.25
493.648	8706.88
494.017	8866.65
494.387	8955.91
494.757	9211.04
495.126	9361.55
495.496	9503.46
495.866	9810.8
496.235	9936.9
496.605	10061.64
496.974	10335.99
497.344	10513.61
497.713	10720.38
498.082	10868.63
498.452	11093.03
498.821	11293.02
499.19	11480.36
499.559	11691.88
499.928	11920.58
500.298	12075.6
500.667	12370.06
501.036	12544.74
501.405	12779.08
501.774	12864.51
502.143	13152.63
502.512	13489.35
502.88	13718.27
503.249	13819.28
503.618	14149.44
503.987	14381.53
504.356	14666.72
504.724	14825.81
505.093	14940.61
505.462	15270.54
505.83	15551.89
506.199	15840.25
506.567	16067.81
506.936	16322.27
507.304	16632.99
507.672	16879.99
508.041	17099.88
508.409	17349.13
508.777	17602.46
509.145	17876.13
509.514	18096.01
509.882	18309.56
510.25	18540.97
510.618	18709.78
510.986	18926.49
511.354	19307.95
511.722	19624.1
512.09	19973.92
512.458	19838.56
512.826	20287.59
513.193	20438.77
513.561	20669.27
513.929	20921.24
514.297	21158.53
514.664	21407.33
515.032	21749.7
515.4	21957.83
515.767	22131.83
516.135	22362.11
516.502	22322.34
516.869	22973.17
517.237	22988.08
517.604	23082.54
517.972	23460.84
518.339	23685.24
518.706	23902.18
519.073	23982.63
519.44	24285.9
519.808	24636.63
520.175	24692.9
520.542	25086.78
520.909	25403.16
521.276	25441.35
521.643	25912.07
522.009	26038.62
522.376	26227.77
522.743	26421.44
523.11	26872.5
523.477	27012.38
523.843	27302.32
524.21	27591.58
524.577	27931.68
524.943	28055.52
525.31	28316.53
525.676	28632.91
526.043	28809.62
526.409	29015.04
526.776	29404.18
527.142	29516.72
527.508	29841.01
527.874	30238.74
528.241	30354.22
528.607	30375.23
528.973	30773.41
529.339	30937.48
529.705	31263.8
530.071	31523.22
530.437	31565.71
530.803	31939.03
531.169	32162.76
531.535	32344.45
531.901	32408.63
532.267	32614.72
532.632	32985.33
532.998	33138.32
533.364	33338.77
533.73	33236.85
534.095	33783.28
534.461	33750.74
534.826	33948.25
535.192	34086.55
535.557	34348.69
535.923	34451.28
536.288	34659.41
536.653	34850.14
537.019	34870.03
537.384	35038.84
537.749	34981.21
538.114	35289.91
538.479	35216.24
538.845	35582.33
539.21	35629.33
539.575	35793.85
539.94	35809.67
540.305	36267.96
540.67	36109.77
541.034	36343.21
541.399	36478.12
541.764	36643.32
542.129	36738.91
542.494	36875.63
542.858	37065.68
543.223	36874.95
543.587	37275.84
543.952	37255.5
544.316	37363.3
544.681	37416.63
545.045	37638.09
545.41	37841.02
545.774	37781.14
546.138	37934.81
546.503	38090.96
546.867	38208.7
547.231	38490.27
547.595	38551.74
547.959	38613.66
548.324	38643.94
548.688	38746.54
549.052	38983.14
549.416	39076.47
549.779	39084.38
550.143	39251.16
550.507	39412.06
550.871	39527.31
551.235	39550.58
551.599	40022.66
551.962	40067.18
552.326	40210.68
552.689	40204.8
553.053	40081.42
553.417	40311.69
553.78	40777.9
554.143	40632.82
554.507	40785.35
554.87	40923.2
555.234	41286.13
555.597	41159.81
555.96	41517.99
556.323	41519.35
556.686	41650.87
557.05	42008.6
557.413	42188.71
557.776	42229.61
558.139	42463.5
558.502	42543.73
558.865	42618.53
559.228	42931.06
559.59	43014.45
559.953	43155.69
560.316	43675
560.679	43552.74
561.041	43912.73
561.404	44078.6
561.767	44356.79
562.129	44258.26
562.492	44669.09
562.854	44625.93
563.217	44775.08
563.579	44892.59
563.941	45136.88
564.304	45291
564.666	45607.6
565.028	45600.82
565.39	45819.35
565.753	46051.88
566.115	46079.45
566.477	46363.29
566.839	46569.83
567.201	46885.31
567.563	46820.68
567.925	47212.53
568.287	47201
568.648	47221.34
569.01	47602.35
569.372	48024.49
569.734	47957.59
570.095	48118.27
570.457	48431.93
570.819	48287.76
571.18	48481.65
571.542	48784.92
571.903	48845.93
572.265	49092.71
572.626	49162.54
572.987	49203.44
573.349	49502.87
573.71	49699.92
574.071	49791.67
574.432	49922.97
574.794	50180.36
575.155	50321.83
575.516	50293.8
575.877	50498.55
576.238	50474.82
576.599	50798.88
576.96	50851.3
577.32	51011.98
577.681	51085.65
578.042	51173.1
578.403	51296.94
578.763	51443.38
579.124	51463.04
579.485	51729.7
579.845	51886.53
580.206	51928.11
580.566	52005.62
580.927	52155.45
581.287	52244.26
581.648	52352.06
582.008	52431.38
582.368	52609.45
582.728	52582.11
583.089	52709.11
583.449	52791.14
583.809	52898.48
584.169	53090.79
584.529	53032.94
584.889	53322.2
585.249	53233.61
585.609	53324.01
585.969	53552.93
586.329	53500.73
586.688	53687.39
587.048	53780.94
587.408	53857.78
587.768	53883.99
588.127	54042.86
588.487	54091.44
588.846	54410.76
589.206	54245.11
589.565	54418.22
589.925	54743.63
590.284	54671.54
590.643	54829.73
591.003	54906.79
591.362	55195.37
591.721	55129.38
592.08	55268.36
592.44	55420.9
592.799	55414.8
593.158	55425.42
593.517	55547.45
593.876	55729.37
594.235	55761.68
594.593	55922.13
594.952	56030.38
595.311	56068.12
595.67	56162.12
596.029	56457.94
596.387	56399.41
596.746	56622
597.104	56514.43
597.463	56636.24
597.822	56872.39
598.18	56857.47
598.538	56940.64
598.897	57188.54
599.255	57029.9
599.613	57431.24
599.972	57315.54
600.33	57425.82
600.688	57491.58
601.046	57623.1
601.404	57869.65
601.762	57949.2
602.12	57965.02
602.478	58086.14
602.836	58138.12
603.194	58036.43
603.552	58190.09
603.91	58250.66
604.268	58366.36
604.625	58312.35
604.983	58592.8
605.341	58457.66
605.698	58721.61
606.056	58847.25
606.413	58854.71
606.771	58986.68
607.128	58982.62
607.485	59019.22
607.843	59046.57
608.2	59277.98
608.557	59395.26
608.914	59352.78
609.272	59514.81
609.629	59601.36
609.986	59703.95
610.343	59697.4
610.7	59887.68
611.057	59889.48
611.414	59899.43
611.771	60023.27
612.127	60067.56
612.484	60161.79
612.841	60289.47
613.198	60181.91
613.554	60257.16
613.911	60449.92
614.267	60437.94
614.624	60511.16
614.98	60569.47
615.337	60801.55
615.693	60762
616.05	60769.69
616.406	60917.71
616.762	60928.78
617.118	60938.04
617.475	60965.16
617.831	61107.53
618.187	61167.19
618.543	61205.83
618.899	61359.95
619.255	61276.57
619.611	61339.84
619.967	61435.66
620.323	61500.97
620.678	61362.44
621.034	61443.79
621.39	61438.82
621.746	61546.84
622.101	61724.69
622.457	61541.42
622.812	61706.61
623.168	61755.42
623.523	61748.42
623.879	61834.74
624.234	61743
624.589	61865.93
624.945	61883.78
625.3	61848.3
625.655	61887.4
626.01	61869.09
626.365	61969.66
626.72	61907.28
627.075	61926.95
627.43	61946.61
627.785	61922.65
628.14	61931.69
628.495	61981.18
628.85	62018.69
629.205	61875.2
629.559	62038.58
629.914	61962.88
630.269	61996.1
630.623	61876.1
630.978	61860.51
631.332	61945.48
631.687	61975.98
632.041	61924.01
632.396	61916.55
632.75	61932.59
633.104	61896.21
633.459	61809.66
633.813	61843.11
634.167	61735.09
634.521	61814.41
634.875	61807.63
635.229	61768.31
635.583	61686.95
635.937	61658.25
636.291	61668.19
636.645	61721.07
636.999	61588.87
637.352	61678.82
637.706	61487.41
638.06	61595.43
638.413	61532.61
638.767	61475.66
639.121	61558.59
639.474	61479.05
639.828	61373.51
640.181	61344.81
640.534	61484.47
640.888	61371.25
641.241	61233.86
641.594	61365.6
641.947	61359.95
642.301	61279.05
642.654	61271.37
643.007	61234.76
643.36	61242.67
643.713	61158.83
644.066	61286.74
644.419	61092.39
644.771	60882.23
645.124	60629.58
645.477	60656.02
645.83	60512.07
646.182	60501.67
646.535	60459.87
646.888	60502.58
647.24	60417.15
647.593	60536.25
647.945	60428.23
648.298	60336.93
648.65	60268.68
649.002	60175.8
649.355	60126.31
649.707	60093.32
650.059	60129.93
650.411	60453.31
650.763	60524.04
651.115	60883.13
651.467	60713.42
651.819	60700.31
652.171	60697.82
652.523	60642.91
652.875	60601.33
653.227	60492.63
653.578	60697.6
653.93	60577.83
654.282	60443.59
654.633	60428.23
654.985	60527.66
655.337	60490.6
655.688	60490.37
656.039	60494.44
656.391	60256.48
656.742	60333.99
657.094	60395.23
657.445	60398.4
657.796	60386.87
658.147	60308.68
658.498	60339.19
658.849	60292.41
659.2	60238.63
659.551	60188.23
659.902	60298.51
660.253	60195.01
660.604	60252.41
660.955	60152.08
661.306	60272.3
661.656	60072.53
662.007	60219.65
662.358	60197.73
662.708	60163.83
663.059	60101.91
663.409	60012.65
663.76	60098.52
664.11	60119.54
664.461	60173.77
664.811	60145.07
665.161	60127.67
665.511	60054.45
665.862	60065.53
666.212	60121.79
666.562	60100.55
666.912	60063.94
667.262	59977.17
667.612	59949.37
667.962	60018.52
668.312	59961.35
668.662	60074.34
669.011	60001.12
669.361	59923.38
669.711	59990.05
670.06	59959.99
670.41	59842.93
670.76	59874.34
671.109	59936.71
671.459	59897.85
671.808	59909.82
672.157	59858.98
672.507	59764.74
672.856	59776.95
673.205	59785.08
673.554	59804.97
673.904	59777.4
674.253	59920.22
674.602	59708.92
674.951	59446.11
675.3	59343.74
675.649	59792.99
675.998	59767.91
676.346	59774.01
676.695	59815.14
677.044	59643.62
677.393	59654.69
677.741	59754.8
678.09	59730.39
678.438	59593.9
678.787	59706.21
679.135	59661.47
679.484	59536.27
679.832	59680.68
680.181	59550.28
680.529	59613.79
680.877	59484.75
681.225	59461.02
681.573	59726.78
681.922	59475.03
682.27	59458.99
682.618	59456.5
682.966	59398.42
683.314	59424.41
683.661	59338.99
684.009	59264.42
684.357	59219.67
684.705	59202.95
685.053	59271.2
685.4	59179.67
685.748	59136.06
686.095	59099.22
686.443	59040.47
686.79	58939.23
687.138	59049.05
687.485	59070.75
687.832	58916.85
688.18	58984.42
688.527	58838.44
688.874	58850.19
689.221	58856.74
689.568	58744.88
689.915	58636.86
690.262	58721.15
690.609	58662.17
690.956	58547.82
691.303	58618.56
691.65	58525.68
691.997	58459.47
692.344	58285.91
692.69	58299.02
693.037	58337.66
693.383	58116.42
693.73	58216.08
694.077	58100.61
694.423	58053.83
694.769	58006.6
695.116	57919.82
695.462	57810.67
695.808	57809.99
696.155	57875.53
696.501	57676.44
696.847	57703.1
697.193	57480.96
697.539	57616.55
697.885	57358.93
698.231	57353.96
698.577	57372.49
698.923	57314.19
699.269	57161.87
699.614	57112.83
699.96	57021.76
700.306	57054.98
700.651	56976.34
700.997	56830.58
701.342	56847.08
701.688	56772.96
702.033	56752.17
702.379	56677.14
702.724	56617.25
703.069	56606.86
703.415	56402.57
703.76	56289.58
704.105	56347.88
704.45	56268.56
704.795	56187.44
705.14	56108.57
705.485	56147.89
705.83	55914
706.175	55999.87
706.52	55811.4
706.865	55833.09
707.209	55713.55
707.554	55649.6
707.899	55652.53
708.243	55517.62
708.588	55523.95
708.932	55344.97
709.277	55342.26
709.621	55259.32
709.966	55085.09
710.31	55195.6
710.654	54996.73
710.998	55059.1
711.342	55006.9
711.687	54874.48
712.031	54807.36
712.375	54703.18
712.719	54742.73
713.063	54615.95
713.407	54774.14
713.75	54693.46
714.094	54575.95
714.438	54429.74
714.782	54450.76
715.125	54324.43
715.469	54463.86
715.812	54104.1
716.156	54144.55
716.499	54102.29
716.843	54140.48
717.186	54005.12
717.53	54096.64
717.873	54058.9
718.216	53938.91
718.559	53771.45
718.902	53577.56
719.246	53694.17
719.589	53542.98
719.932	53423.21
720.275	53490.78
720.617	53474.06
720.96	53392.93
721.303	53417.34
721.646	53450.11
721.989	53245.59
722.331	53292.14
722.674	53174.41
723.016	53168.53
723.359	53031.36
723.701	53017.35
724.044	52956.33
724.386	52832.27
724.729	52976.9
725.071	52906.39
725.413	52826.39
725.755	52733.74
726.097	52753.63
726.439	52626.4
726.782	52589.11
727.124	52715.21
727.465	52645.61
727.807	52474.09
728.149	52477.93
728.491	52368.33
728.833	52511.37
729.175	52371.94
729.516	52259.85
729.858	52250.82
730.199	52298.27
730.541	52237.48
730.882	52134.66
731.224	52157.48
731.565	52010.6
731.906	52103.7
732.248	52041.78
732.589	51815.35
732.93	51837.72
733.271	51890.6
733.612	51787.1
733.953	51845.18
734.294	51689.47
734.635	51678.18
734.976	51781
735.317	51604.73
735.658	51625.3
735.999	51488.12
736.339	51498.52
736.68	51536.03
737.021	51498.29
737.361	51276.15
737.702	51480.67
738.042	51359.31
738.383	51248.36
738.723	51323.61
739.063	51158.87
739.404	51205.19
739.744	51124.52
740.084	51030.06
740.424	51081.81
740.764	50971.98
741.104	51116.61
741.444	50830.97
741.784	50793.23
742.124	50891.3
742.464	50772.89
742.804	50722.95
743.143	50668.94
743.483	50683.4
743.823	50509.84
744.162	50589.62
744.502	50610.41
744.841	50393.69
745.181	50629.84
745.52	50422.39
745.86	50429.17
746.199	50325.67
746.538	50313.01
746.877	50406.12
747.216	50373.12
747.556	50227.82
747.895	50276.18
748.234	50125.9
748.573	50021.95
748.911	49972.46
749.25	49906.24
749.589	49775.17
749.928	49766.59
750.267	49878.22
750.605	49708.51
750.944	49705.35
751.283	49478.23
751.621	49644.56
751.96	49411.79
752.298	49431.45
752.636	49436.88
752.975	49265.58
753.313	49096.32
753.651	49384.45
753.989	49096.55
754.327	49094.29
754.666	48776.56
