Data from 7548_FLMS001491_006.txt Node
Date: Thu Apr 12 17:06:29 BST 2018
User: hsy
Spectrometer: FLMS00149
Trigger mode: 0
Integration Time (sec): 1.000000E-2
Scans to average: 10
Electric dark correction enabled: true
Nonlinearity correction enabled: false
Boxcar width: 0
XAxis mode: Wavelengths
Number of Pixels in Spectrum: 2048
>>>>>Begin Spectral Data<<<<<
341.393	-3.28
341.776	-3.28
342.16	-3.28
342.543	-52.54
342.927	-70.85
343.31	-71.07
343.693	-60.22
344.077	-43.05
344.46	-70.62
344.843	-41.24
345.226	-38.08
345.61	-26.1
345.993	-23.16
346.376	-17.29
346.759	9.38
347.142	33.33
347.525	23.16
347.908	43.5
348.291	82.37
348.674	90.73
349.057	108.36
349.44	125.53
349.823	147.23
350.206	181.13
350.588	248.69
350.971	271.74
351.354	253.21
351.737	275.81
352.119	291.18
352.502	318.52
352.884	320.1
353.267	330.05
353.65	334.12
354.032	337.05
354.414	340.89
354.797	353.1
355.179	372.31
355.562	406.43
355.944	369.14
356.326	363.72
356.709	379.99
357.091	388.13
357.473	383.15
357.855	405.3
358.238	367.56
358.62	398.75
359.002	367.79
359.384	406.2
359.766	381.8
360.148	376.15
360.53	398.29
360.912	397.16
361.294	402.36
361.676	401.46
362.057	391.74
362.439	395.81
362.821	363.95
363.203	388.8
363.584	369.37
363.966	395.58
364.348	410.72
364.729	359.43
365.111	369.59
365.493	388.35
365.874	374.79
366.256	387
366.637	376.83
367.019	374.57
367.4	369.82
367.781	392.65
368.163	373.66
368.544	388.58
368.925	370.95
369.306	384.74
369.688	371.18
370.069	363.49
370.45	374.34
370.831	390.39
371.212	405.53
371.593	376.37
371.974	401.68
372.355	360.78
372.736	391.29
373.117	388.35
373.498	377.28
373.879	408.01
374.26	363.95
374.641	384.06
375.021	400.33
375.402	387.22
375.783	405.98
376.163	414.57
376.544	407.79
376.925	394.45
377.305	405.07
377.686	407.11
378.066	431.06
378.447	405.3
378.827	420.44
379.208	407.11
379.588	387.9
379.968	423.38
380.349	430.84
380.729	420.89
381.109	444.4
381.489	422.02
381.87	419.76
382.25	437.62
382.63	432.64
383.01	423.6
383.39	457.05
383.77	455.47
384.15	447.78
384.53	425.64
384.91	453.21
385.29	446.88
385.67	459.76
386.049	448.24
386.429	462.93
386.809	464.96
387.189	458.18
387.568	448.91
387.948	463.15
388.328	480.33
388.707	464.96
389.087	487.78
389.466	481.68
389.846	488.46
390.225	499.76
390.605	478.74
390.984	478.52
391.363	487.11
391.743	485.98
392.122	505.18
392.501	500.21
392.881	526.88
393.26	523.94
393.639	503.6
394.018	517.39
394.397	530.27
394.776	529.14
395.155	530.04
395.534	515.81
395.913	527.56
396.292	535.69
396.671	552.41
397.05	529.59
397.429	574.79
397.808	546.99
398.186	541.12
398.565	528.23
398.944	544.96
399.323	532.98
399.701	539.76
400.08	558.29
400.458	571.4
400.837	575.92
401.215	558.97
401.594	582.02
401.972	576.14
402.351	563.26
402.729	570.95
403.107	616.37
403.486	602.13
403.864	582.7
404.242	607.33
404.62	624.05
404.999	592.19
405.377	623.6
405.755	612.3
406.133	639.64
406.511	648.46
406.889	628.8
407.267	641.23
407.645	633.32
408.023	645.75
408.401	652.98
408.779	659.98
409.156	641.45
409.534	676.93
409.912	681.9
410.29	707.67
410.667	680.55
411.045	674.22
411.422	695.24
411.8	725.52
412.178	712.41
412.555	713.31
412.933	738.4
413.31	743.14
413.687	733.65
414.065	755.8
414.442	733.2
414.819	765.74
415.197	778.17
415.574	786.31
415.951	794.89
416.328	791.28
416.705	791.5
417.082	801.9
417.46	831.96
417.837	801.9
418.214	835.57
418.591	817.49
418.967	852.07
419.344	815.01
419.721	831.96
420.098	829.24
420.475	838.28
420.852	832.18
421.228	860.43
421.605	862.46
421.982	875.12
422.358	869.92
422.735	884.16
423.111	884.16
423.488	925.06
423.864	925.51
424.241	897.94
424.617	918.51
424.994	933.2
425.37	950.37
425.746	929.81
426.123	925.29
426.499	945.4
426.875	962.35
427.251	985.4
427.627	997.83
428.003	993.53
428.379	991.95
428.756	994.21
429.132	1027.66
429.507	1048.67
429.883	1020.88
430.259	1075.79
430.635	1074.89
431.011	1064.04
431.387	1083.47
431.763	1120.99
432.138	1099.97
432.514	1148.33
432.89	1112.17
433.265	1147.65
433.641	1147.2
434.016	1153.98
434.392	1198.05
434.767	1199.63
435.143	1182.45
435.518	1187.88
435.894	1225.84
436.269	1229.46
436.644	1238.72
437.02	1262
437.395	1278.95
437.77	1269.46
438.145	1289.57
438.52	1301.55
438.895	1286.41
439.271	1298.84
439.646	1299.97
440.021	1339.29
440.395	1337.25
440.77	1306.52
441.145	1309.68
441.52	1377.93
441.895	1372.96
442.27	1364.37
442.645	1380.64
443.019	1397.59
443.394	1387.65
443.769	1386.52
444.143	1405.73
444.518	1411.15
444.892	1420.87
445.267	1425.61
445.641	1462
446.016	1454.99
446.39	1459.06
446.764	1421.09
447.139	1459.74
447.513	1493.18
447.887	1495.44
448.262	1497.93
448.636	1510.13
449.01	1481.43
449.384	1522.11
449.758	1567.53
450.132	1565.72
450.506	1566.17
450.88	1599.17
451.254	1578.15
451.628	1590.35
452.002	1581.54
452.376	1619.51
452.75	1649.79
453.123	1673.29
453.497	1642.56
453.871	1700.63
454.244	1751.25
454.618	1728.88
454.992	1761.2
455.365	1799.16
455.739	1792.83
456.112	1826.73
456.486	1838.93
456.859	1876
457.232	1902.89
457.606	1904.02
457.979	1925.03
458.352	1956.45
458.725	1990.34
459.099	2021.75
459.472	2024.69
459.845	2013.85
460.218	2067.86
460.591	2062.21
460.964	2071.24
461.337	2127.97
461.71	2187.17
462.083	2172.03
462.456	2191.02
462.829	2196.67
463.201	2312.37
463.574	2304.23
463.947	2314.4
464.32	2329.54
464.692	2354.4
465.065	2386.49
465.438	2400.73
465.81	2415.87
466.183	2403.44
466.555	2513.27
466.928	2521.18
467.3	2501.29
467.672	2556.88
468.045	2574.96
468.417	2594.4
468.789	2627.39
469.161	2642.3
469.534	2705.13
469.906	2751.45
470.278	2749.87
470.65	2819.7
471.022	2849.76
471.394	2896.53
471.766	2906.48
472.138	2950.32
472.51	2977.66
472.882	3017.89
473.253	3090.88
473.625	3067.83
473.997	3211.33
474.369	3215.62
474.74	3219.01
475.112	3301.27
475.484	3357.99
475.855	3433.02
476.227	3455.84
476.598	3530.87
476.97	3571.54
477.341	3684.08
477.713	3699
478.084	3759.79
478.455	3868.03
478.827	3898.99
479.198	3968.14
479.569	4051.31
479.94	4117.97
480.311	4198.19
480.682	4256.05
481.053	4386.66
481.424	4458.75
481.795	4494.23
482.166	4617.84
482.537	4663.49
482.908	4763.15
483.279	4870.95
483.65	4976.71
484.021	5043.37
484.391	5191.39
484.762	5220.09
485.133	5302.8
485.503	5410.14
485.874	5532.17
486.244	5610.13
486.615	5740.98
486.985	5761.09
487.356	5969.22
487.726	6060.29
488.097	6279.5
488.467	6323.56
488.837	6439.72
489.207	6552.48
489.578	6723.33
489.948	6816.66
490.318	7027.95
490.688	7084.22
491.058	7263.65
491.428	7420.93
491.798	7591.78
492.168	7769.4
492.538	7895.95
492.908	8052.1
493.278	8267.92
493.648	8390.85
494.017	8571.87
494.387	8684.63
494.757	8840.11
495.126	9030.61
495.496	9153.09
495.866	9362.8
496.235	9507.21
496.605	9735
496.974	9901.1
497.344	10130.92
497.713	10289.79
498.082	10434.19
498.452	10597.35
498.821	10858.36
499.19	11025.81
499.559	11253.83
499.928	11407.72
500.298	11639.13
500.667	11881.83
501.036	11967.03
501.405	12261.49
501.774	12371.31
502.143	12728.82
502.512	12849.49
502.88	13089.49
503.249	13294.68
503.618	13503.26
503.987	13738.73
504.356	14034.77
504.724	14224.6
505.093	14349.11
505.462	14633.4
505.83	14823.9
506.199	15156.1
506.567	15317.68
506.936	15626.37
507.304	15928.28
507.672	16031.56
508.041	16207.82
508.409	16500.92
508.777	16853.23
509.145	17102.26
509.514	17177.51
509.882	17479.43
510.25	17637.84
510.618	17888
510.986	18130.71
511.354	18454.32
511.722	18605.05
512.09	18967.52
512.458	18950.8
512.826	19315.31
513.193	19481.41
513.561	19649.54
513.929	19939.02
514.297	20158.45
514.664	20499.01
515.032	20564.32
515.4	20878.89
515.767	21130.18
516.135	21299.21
516.502	21164.3
516.869	21730.16
517.237	21961.12
517.604	21900.55
517.972	22322.01
518.339	22491.72
518.706	22621.89
519.073	22842
519.44	23051.48
519.808	23395.43
520.175	23535.99
520.542	23732.6
520.909	24084.23
521.276	24109.76
521.643	24512.91
522.009	24662.52
522.376	24947.25
522.743	25149.51
523.11	25403.51
523.477	25761.7
523.843	25968.92
524.21	26137.28
524.577	26533.43
524.943	26650.49
525.31	26821.78
525.676	27215.67
526.043	27383.57
526.409	27578.14
526.776	27907.18
527.142	27966.61
527.508	28290.22
527.874	28577.67
528.241	28688.4
528.607	28860.82
528.973	29272.11
529.339	29289.96
529.705	29678.2
530.071	29869.84
530.437	30124.52
530.803	30358.41
531.169	30560.89
531.535	30570.16
531.901	30745.97
532.267	31036.36
532.632	31286.3
532.998	31295.11
533.364	31566.06
533.73	31679.51
534.095	31933.74
534.461	32099.83
534.826	32307.96
535.192	32350
535.557	32574.85
535.923	32707.73
536.288	32846.25
536.653	33043.09
537.019	33023.2
537.384	33419.35
537.749	33498.67
538.114	33614.82
538.479	33591.32
538.845	33789.06
539.21	33775.04
539.575	33947.69
539.94	34083.06
540.305	34335.48
540.67	34406.67
541.034	34553.78
541.399	34683.49
541.764	34788.35
542.129	34772.98
542.494	35043.26
542.858	35355.79
543.223	35158.06
543.587	35339.75
543.952	35291.61
544.316	35586.97
544.681	35624.94
545.045	35929.11
545.41	36010.92
545.774	36008.66
546.138	36053.4
546.503	36106.06
546.867	36233.51
547.231	36576.55
547.595	36684.57
547.959	36687.28
548.324	36767.51
548.688	36924.57
549.052	37064.68
549.416	37026.03
549.779	37138.8
550.143	37310.77
550.507	37561.61
550.871	37663.53
551.235	37620.37
551.599	38049.28
551.962	38127.92
552.326	38146
552.689	38362.95
553.053	38076.17
553.417	38328.6
553.78	38582.6
554.143	38787.79
554.507	38965.19
554.87	39023.95
555.234	39427.55
555.597	39168.8
555.96	39386.65
556.323	39512.97
556.686	39666.41
557.05	39954.77
557.413	40098.04
557.776	40038.38
558.139	40435.89
558.502	40404.93
558.865	40463.68
559.228	40798.59
559.59	40874.07
559.953	41010.33
560.316	41529.42
560.679	41365.35
561.041	41629.07
561.404	41962.4
561.767	42182.05
562.129	42116.29
562.492	42633.34
562.854	42475.61
563.217	42640.12
563.579	42848.93
563.941	43088.92
564.304	43303.83
564.666	43580.44
565.028	43560.55
565.39	43847.32
565.753	44017.49
566.115	44059.75
566.477	44205.05
566.839	44445.5
567.201	44866.05
567.563	44785.38
567.925	45062.66
568.287	45169.55
568.648	45276.21
569.01	45510.33
569.372	45936.08
569.734	45774.28
570.095	46124.55
570.457	46249.97
570.819	46382.85
571.18	46459.46
571.542	46769.96
571.903	46792.55
572.265	47008.37
572.626	47227.12
572.987	47201.81
573.349	47432.76
573.71	47639.99
574.071	47884.28
574.432	48027.55
574.794	48307.54
575.155	48325.62
575.516	48339.18
575.877	48677.03
576.238	48621.89
576.599	48888.77
576.96	48937.36
577.32	49062.78
577.681	49262.09
578.042	49521.97
578.403	49569.21
578.763	49568.75
579.124	49773.72
579.485	50023.43
579.845	50172.58
580.206	50040.61
580.566	50311.33
580.927	50396.3
581.287	50632
581.648	50639.01
582.008	50933.91
582.368	50933.01
582.728	51064.98
583.089	51163.29
583.449	51260.01
583.809	51404.19
584.169	51589.04
584.529	51575.71
584.889	51889.82
585.249	51737.74
585.609	51671.52
585.969	52093.43
586.329	52014.34
586.688	52237.16
587.048	52370.71
587.408	52486.42
587.768	52448.45
588.127	52763.25
588.487	52681.21
588.846	53089.34
589.206	52831.94
589.565	53088.43
589.925	53369.33
590.284	53332.5
590.643	53456.56
591.003	53586.73
591.362	53825.82
591.721	53862.43
592.08	53952.14
592.44	54123.66
592.799	54145.81
593.158	54207.05
593.517	54294.73
593.876	54485.69
594.235	54527.04
594.593	54568.4
594.952	54768.16
595.311	54844.09
595.67	54927.26
596.029	55169.96
596.387	55383.06
596.746	55481.14
597.104	55409.28
597.463	55497.41
597.822	55715.94
598.18	55710.51
598.538	55773.34
598.897	56046.55
599.255	55944.18
599.613	56309.59
599.972	56269.14
600.33	56312.3
600.688	56363.38
601.046	56517.5
601.404	56758.62
601.762	56808.56
602.12	56889.92
602.478	56963.81
602.836	57083.36
603.194	56976.92
603.552	57090.14
603.91	57044.49
604.268	57238.61
604.625	57345.27
604.983	57493.97
605.341	57373.07
605.698	57623.23
606.056	57864.13
606.413	57820.29
606.771	57971.24
607.128	58018.47
607.485	58022.77
607.843	58121.75
608.2	58275.42
608.557	58396.77
608.914	58389.31
609.272	58580.49
609.629	58739.81
609.986	58756.08
610.343	58711.34
610.7	59054.38
611.057	59025.23
611.414	59015.28
611.771	59161.95
612.127	59216.18
612.484	59231.78
612.841	59347.48
613.198	59271.1
613.554	59349.96
613.911	59556.97
614.267	59630.41
614.624	59585.44
614.98	59726.68
615.337	59887.8
615.693	59882.38
616.05	59919.22
616.406	60064.3
616.762	60027.46
617.118	60086.22
617.475	60087.12
617.831	60223.39
618.187	60247.34
618.543	60285.53
618.899	60471.52
619.255	60379.77
619.611	60461.35
619.967	60584.06
620.323	60602.81
620.678	60551.97
621.034	60539.76
621.39	60567.33
621.746	60632.87
622.101	60855.01
622.457	60681
622.812	60857.5
623.168	60900.88
623.523	60888.46
623.879	60921
624.234	60838.97
624.589	60978.4
624.945	60985.85
625.3	60965.52
625.655	61012.07
626.01	60989.92
626.365	61130.26
626.72	61023.59
627.075	61017.72
627.43	61047.1
627.785	61102.69
628.14	61128.68
628.495	61121.9
628.85	61150.14
629.205	61117.38
629.559	61199.86
629.914	61101.11
630.269	61144.49
630.623	61019.07
630.978	61020.66
631.332	61143.36
631.687	61122.8
632.041	61094.55
632.396	61096.81
632.75	61052.74
633.104	61138.39
633.459	60901.34
633.813	60944.05
634.167	60975.46
634.521	60895.46
634.875	60971.84
635.229	60902.01
635.583	60779.53
635.937	60764.84
636.291	60833.54
636.645	60831.96
636.999	60698.63
637.352	60832.64
637.706	60694.34
638.06	60792.64
638.413	60698.63
638.767	60628.12
639.121	60669.93
639.474	60596.71
639.828	60602.14
640.181	60587.45
640.534	60623.15
640.888	60557.62
641.241	60461.57
641.594	60484.17
641.947	60551.06
642.301	60507
642.654	60484.17
643.007	60409.6
643.36	60466.09
643.713	60384.06
644.066	60492.76
644.419	60294.12
644.771	60039.44
645.124	59849.39
645.477	59832.89
645.83	59740.01
646.182	59665.21
646.535	59671.09
646.888	59769.16
647.24	59582.5
647.593	59772.78
647.945	59608.26
648.298	59488.49
648.65	59415.73
649.002	59312.23
649.355	59304.99
649.707	59285.11
650.059	59253.02
650.411	59580.02
650.763	59681.26
651.115	60051.19
651.467	59964.86
651.819	59930.29
652.171	59817.98
652.523	59754.7
652.875	59763.74
653.227	59644.87
653.578	59811.2
653.93	59713.12
654.282	59632.44
654.633	59605.1
654.985	59610.3
655.337	59641.48
655.688	59613.46
656.039	59665.89
656.391	59418.66
656.742	59523.07
657.094	59440.36
657.445	59547.02
657.796	59534.37
658.147	59448.72
658.498	59425.22
658.849	59507.25
659.2	59431.09
659.551	59344.99
659.902	59485.1
660.253	59364.43
660.604	59398.55
660.955	59286.24
661.306	59439.91
661.656	59321.04
662.007	59300.47
662.358	59368.04
662.708	59323.98
663.059	59312.9
663.409	59146.35
663.76	59347.71
664.11	59323.75
664.461	59285.79
664.811	59260.48
665.161	59323.75
665.511	59219.35
665.862	59316.75
666.212	59316.75
666.562	59297.08
666.912	59260.93
667.262	59194.26
667.612	59184.09
667.962	59235.84
668.312	59175.28
668.662	59269.97
669.011	59190.87
669.361	59142.74
669.711	59192
670.06	59076.98
670.41	59040.59
670.76	59086.69
671.109	59107.94
671.459	59091.21
671.808	59048.5
672.157	59129.18
672.507	58960.82
672.856	58978.9
673.205	59045.79
673.554	59054.61
673.904	59028.84
674.253	59189.52
674.602	58977.32
674.951	58696.42
675.3	58567.16
675.649	59002.18
675.998	59041.27
676.346	58951.78
676.695	59051.44
677.044	58896.64
677.393	58936.64
677.741	59000.14
678.09	58907.94
678.438	58880.82
678.787	58900.49
679.135	58879.47
679.484	58761.73
679.832	58855.97
680.181	58749.08
680.529	58808.96
680.877	58613.94
681.225	58719.25
681.573	58863.88
681.922	58695.97
682.27	58615.52
682.618	58660.04
682.966	58545.01
683.314	58621.85
683.661	58581.17
684.009	58520.16
684.357	58404.9
684.705	58324.91
685.053	58434.96
685.4	58291.24
685.748	58220.5
686.095	58302.53
686.443	58175.08
686.79	58196.55
687.138	58234.74
687.485	58163.33
687.832	58152.93
688.18	58087.4
688.527	58077.46
688.874	58018.02
689.221	57996.1
689.568	57913.39
689.915	57823
690.262	57855.31
690.609	57817.35
690.956	57755.43
691.303	57720.4
691.65	57693.51
691.997	57596.79
692.344	57547.07
692.69	57486.29
693.037	57478.6
693.383	57261.88
693.73	57374.88
694.077	57180.98
694.423	57216.24
694.769	57117.71
695.116	57115
695.462	57027.99
695.808	56862.35
696.155	57019.18
696.501	56830.94
696.847	56902.57
697.193	56673.88
697.539	56717.04
697.885	56549.36
698.231	56482.92
698.577	56568.34
698.923	56504.62
699.269	56354.34
699.614	56277.5
699.96	56181.46
700.306	56247
700.651	56063.95
700.997	55987.34
701.342	56019.66
701.688	55967.23
702.033	55887.01
702.379	55882.94
702.724	55752.32
703.069	55809.94
703.415	55452.67
703.76	55477.98
704.105	55500.57
704.45	55373.57
704.795	55388.04
705.14	55192.33
705.485	55240.92
705.83	55069.63
706.175	55213.12
706.52	55037.31
706.865	55023.52
707.209	54906.01
707.554	54849.74
707.899	54863.98
708.243	54738.79
708.588	54682.74
708.932	54454.73
709.277	54604.78
709.621	54397.33
709.966	54195.07
710.31	54353.71
710.654	54110.1
710.998	54149.2
711.342	54223.32
711.687	54088.41
712.031	53944.46
712.375	53859.04
712.719	53790.79
713.063	53791.47
713.407	53916.21
713.75	53662.88
714.094	53698.81
714.438	53543.56
714.782	53506.73
715.125	53379.5
715.469	53482.55
715.812	53272.84
716.156	53268.09
716.499	53276.23
716.843	53203.01
717.186	53026.29
717.53	53251.37
717.873	53143.8
718.216	53160.07
718.559	53053.41
718.902	52737.94
719.246	52791.95
719.589	52782
719.932	52648.67
720.275	52723.47
720.617	52679.18
720.96	52413.88
721.303	52552.86
721.646	52543.36
721.989	52366.42
722.331	52429.69
722.674	52213.66
723.016	52385.63
723.359	52182.02
723.701	52231.73
724.044	52151.74
724.386	51880.1
724.729	52140.66
725.071	52064.28
725.413	51951.29
725.755	51836.04
726.097	51849.6
726.439	51657.51
726.782	51650.05
727.124	51916.26
727.465	51606.21
727.807	51443.51
728.149	51507.69
728.491	51377.52
728.833	51355.37
729.175	51351.31
729.516	51250.29
729.858	51310.63
730.199	51315.15
730.541	51298.88
730.882	51007.59
731.224	51197.86
731.565	51023.63
731.906	51044.65
732.248	51003.74
732.589	50911.09
732.93	50796.29
733.271	50910.86
733.612	50782.96
733.953	50878.78
734.294	50763.75
734.635	50593.81
734.976	50707.25
735.317	50674.49
735.658	50606.69
735.999	50452.57
736.339	50443.08
736.68	50505
737.021	50414.38
737.361	50269.53
737.702	50505.9
738.042	50332.12
738.383	50345.23
738.723	50428.84
739.063	50172.81
739.404	50327.83
739.744	50269.3
740.084	50100.94
740.424	50164.9
740.764	49956.99
741.104	50113.37
741.444	49941.17
741.784	49686.26
742.124	49795.64
742.464	49853.49
742.804	49684.91
743.143	49639.26
743.483	49664.57
743.823	49577.57
744.162	49569.88
744.502	49505.93
744.841	49484.46
745.181	49625.02
745.52	49420.28
745.86	49358.14
746.199	49361.3
746.538	49262.77
746.877	49454.41
747.216	49184.36
747.556	49110.69
747.895	49111.36
748.234	49018.03
748.573	48993.85
748.911	48751.83
749.25	48825.95
749.589	48763.12
749.928	48743.24
750.267	48703.01
750.605	48567.42
750.944	48637.93
751.283	48484.04
751.621	48514.32
751.96	48236.58
752.298	48227.55
752.636	48255.12
752.975	48221.44
753.313	48008.57
753.651	48269.35
753.989	47883.83
754.327	47984.39
754.666	47733.77
755.004	47768.57
755.342	47786.43
755.679	47626.43
