Data from 7548_FLMS001491_007.txt Node
Date: Thu Apr 12 17:06:31 BST 2018
User: hsy
Spectrometer: FLMS00149
Trigger mode: 0
Integration Time (sec): 1.000000E-2
Scans to average: 10
Electric dark correction enabled: true
Nonlinearity correction enabled: false
Boxcar width: 0
XAxis mode: Wavelengths
Number of Pixels in Spectrum: 2048
>>>>>Begin Spectral Data<<<<<
341.393	15.13
341.776	15.13
342.16	15.13
342.543	-50.18
342.927	-64.87
343.31	-70.97
343.693	-76.85
344.077	-66.23
344.46	-69.84
344.843	-63.74
345.226	-42.05
345.61	-20.13
345.993	-16.96
346.376	1.79
346.759	15.13
347.142	26.65
347.525	41.34
347.908	61.45
348.291	58.29
348.674	104.16
349.057	117.95
349.44	116.82
349.823	148
350.206	163.82
350.588	238.17
350.971	256.02
351.354	280.88
351.737	279.07
352.119	282.92
352.502	301.9
352.884	308.9
353.267	341.67
353.65	350.94
354.032	347.1
354.414	349.13
354.797	343.93
355.179	365.63
355.562	365.4
355.944	376.7
356.326	407.43
356.709	394.1
357.091	409.47
357.473	392.74
357.855	392.97
358.238	382.8
358.62	395.68
359.002	382.57
359.384	389.58
359.766	404.95
360.148	387.55
360.53	396.59
360.912	391.61
361.294	381.9
361.676	400.43
362.057	382.12
362.439	381.67
362.821	385.29
363.203	381.67
363.584	385.51
363.966	360.2
364.348	390.26
364.729	378.51
365.111	383.03
365.493	385.74
365.874	369.02
366.256	385.29
366.637	368.79
367.019	372.18
367.4	368.79
367.781	373.76
368.163	379.86
368.544	380.99
368.925	377.15
369.306	375.34
369.688	383.93
370.069	374.44
370.45	367.89
370.831	370.37
371.212	390.26
371.593	370.15
371.974	385.74
372.355	388
372.736	378.28
373.117	387.55
373.498	386.64
373.879	381.9
374.26	383.25
374.641	382.8
375.021	390.71
375.402	404.5
375.783	410.14
376.163	413.08
376.544	418.96
376.925	411.27
377.305	398.85
377.686	386.87
378.066	413.76
378.447	425.74
378.827	401.56
379.208	407.66
379.588	418.05
379.968	418.05
380.349	423.48
380.729	421.67
381.109	433.42
381.489	421.22
381.87	415.34
382.25	445.17
382.63	436.36
383.01	447.21
383.39	421.9
383.77	434.32
384.15	449.47
384.53	458.05
384.91	458.28
385.29	450.37
385.67	471.61
386.049	440.2
386.429	458.5
386.809	457.15
387.189	453.08
387.568	470.71
387.948	454.66
388.328	475.68
388.707	477.26
389.087	461.89
389.466	459.18
389.846	471.39
390.225	486.75
390.605	516.58
390.984	493.76
391.363	481.1
391.743	483.36
392.122	476.58
392.501	492.18
392.881	500.31
393.26	487.2
393.639	525.62
394.018	524.27
394.397	503.93
394.776	535.57
395.155	521.1
395.534	523.14
395.913	525.17
396.292	528.11
396.671	515.23
397.05	536.24
397.429	528.79
397.808	523.59
398.186	546.41
398.565	564.49
398.944	564.94
399.323	554.77
399.701	569.69
400.08	568.33
400.458	565.85
400.837	559.29
401.215	582.8
401.594	572.4
401.972	567.2
402.351	545.06
402.729	576.69
403.107	590.25
403.486	583.47
403.864	561.1
404.242	604.72
404.62	607.2
404.999	618.05
405.377	613.98
405.755	618.95
406.133	610.37
406.511	634.32
406.889	627.31
407.267	646.52
407.645	650.59
408.023	643.36
408.401	644.71
408.779	672.28
409.156	662.12
409.534	658.5
409.912	685.84
410.29	680.87
410.667	711.15
411.045	690.36
411.422	706.41
411.8	705.96
412.178	722.45
412.555	711.83
412.933	738.72
413.31	735.33
413.687	744.6
414.065	753.41
414.442	753.41
414.819	753.86
415.197	766.29
415.574	785.95
415.951	778.72
416.328	766.75
416.705	779.17
417.082	798.61
417.46	798.38
417.837	783.02
418.214	809.46
418.591	830.02
418.967	835.44
419.344	827.08
419.721	837.7
420.098	844.03
420.475	849.68
420.852	844.71
421.228	826.4
421.605	855.78
421.982	853.52
422.358	832.73
422.735	856.46
423.111	857.14
423.488	889.68
423.864	898.95
424.241	911.15
424.617	888.1
424.994	894.43
425.37	905.27
425.746	917.93
426.123	916.8
426.499	932.84
426.875	963.58
427.251	941.88
427.627	959.06
428.003	976.23
428.379	984.82
428.756	994.76
429.132	996.8
429.507	1011.48
429.883	1009
430.259	1037.47
430.635	1073.86
431.011	1050.58
431.387	1049.45
431.763	1066.62
432.138	1091.93
432.514	1098.04
432.89	1106.17
433.265	1092.39
433.641	1139.84
434.016	1148.43
434.392	1151.82
434.767	1191.37
435.143	1154.76
435.518	1189.33
435.894	1173.74
436.269	1224.81
436.644	1206.73
437.02	1191.37
437.395	1223.23
437.77	1252.38
438.145	1260.74
438.52	1266.85
438.895	1268.65
439.271	1267.3
439.646	1310.46
440.021	1295.77
440.395	1310.91
440.77	1289.67
441.145	1286.96
441.52	1349.1
441.895	1344.36
442.27	1363.79
442.645	1358.37
443.019	1357.24
443.394	1347.3
443.769	1360.85
444.143	1354.98
444.518	1377.12
444.892	1399.95
445.267	1397.01
445.641	1386.84
446.016	1413.28
446.39	1425.26
446.764	1416.67
447.139	1432.26
447.513	1423.45
447.887	1475.43
448.262	1456.22
448.636	1461.42
449.01	1476.11
449.384	1495.31
449.758	1511.58
450.132	1533.05
450.506	1520.4
450.88	1517.91
451.254	1558.59
451.628	1555.88
452.002	1580.28
452.376	1578.7
452.75	1590
453.123	1630
453.497	1639.72
453.871	1629.55
454.244	1701.86
454.618	1662.09
454.992	1742.31
455.365	1738.7
455.739	1746.83
456.112	1773.95
456.486	1788.87
456.859	1818.24
457.232	1846.94
457.606	1843.33
457.979	1844.91
458.352	1892.37
458.725	1912.03
459.099	1939.82
459.472	1956.77
459.845	2001.52
460.218	1979.59
460.591	2015.53
460.964	2059.37
461.337	2096.2
461.71	2097.56
462.083	2130.33
462.456	2140.95
462.829	2164.22
463.201	2180.04
463.574	2168.74
463.947	2177.78
464.32	2220.49
464.692	2265.69
465.065	2254.39
465.438	2265.91
465.81	2338.68
466.183	2359.25
466.555	2398.34
466.928	2424.33
467.3	2421.17
467.672	2456.19
468.045	2502.52
468.417	2534.16
468.789	2507.49
469.161	2570.77
469.534	2575.74
469.906	2645.11
470.278	2614.61
470.65	2710.42
471.022	2753.59
471.394	2796.3
471.766	2800.14
472.138	2838.78
472.51	2923.52
472.882	2922.62
473.253	2970.98
473.625	3020.7
473.997	3054.59
474.369	3070.64
474.74	3113.58
475.112	3187.47
475.484	3262.27
475.855	3294.36
476.227	3326.9
476.598	3413.68
476.97	3424.3
477.341	3502.72
477.713	3575.49
478.084	3591.53
478.455	3706.1
478.827	3709.27
479.198	3831.75
479.569	3875.14
479.94	3974.8
480.311	4028.13
480.682	4096.83
481.053	4184.28
481.424	4275.81
481.795	4370.04
482.166	4399.87
482.537	4493.2
482.908	4577.72
483.279	4680.99
483.65	4751.5
484.021	4888.9
484.391	4958.73
484.762	4972.51
485.133	5097.48
485.503	5241.88
485.874	5345.83
486.244	5430.8
486.615	5528.43
486.985	5627.86
487.356	5722.55
487.726	5862.88
488.097	5996.44
488.467	6064.23
488.837	6249.09
489.207	6366.6
489.578	6532.7
489.948	6665.8
490.318	6734.27
490.688	6859.01
491.058	7061.27
491.428	7250.87
491.798	7342.84
492.168	7531.31
492.538	7633.46
492.908	7795.04
493.278	7938.99
493.648	8186.21
494.017	8291.29
494.387	8453.77
494.757	8597.73
495.126	8781.22
495.496	8969.02
495.866	9080.88
496.235	9319.29
496.605	9488.55
496.974	9609.9
497.344	9853.74
497.713	10014.41
498.082	10225.71
498.452	10460.05
498.821	10641.97
499.19	10783.88
499.559	11030.2
499.928	11299.8
500.298	11434.26
500.667	11650.53
501.036	11812.78
501.405	12001.03
501.774	12215.71
502.143	12476.95
502.512	12703.83
502.88	12950.83
503.249	13089.36
503.618	13337.49
503.987	13506.07
504.356	13857.93
504.724	14021.09
505.093	14183.34
505.462	14489.77
505.83	14660.62
506.199	14986.03
506.567	15363.42
506.936	15367.94
507.304	15769.97
507.672	16013.8
508.041	16157.08
508.409	16470.97
508.777	16664.18
509.145	17020.1
509.514	17058.97
509.882	17418.06
510.25	17651.27
510.618	17884.26
510.986	18039.06
511.354	18296.91
511.722	18645.37
512.09	18827.74
512.458	18946.61
512.826	19258.91
513.193	19378.69
513.561	19667.72
513.929	19947.94
514.297	20153.13
514.664	20349.73
515.032	20559.45
515.4	20890.51
515.767	21091.86
516.135	21202.59
516.502	21235.59
516.869	21649.59
517.237	21911.5
517.604	21913.99
517.972	22398.04
518.339	22515.33
518.706	22688.2
519.073	22876.67
519.44	23031.02
519.808	23441.18
520.175	23464.68
520.542	23821.51
520.909	24101.73
521.276	24239.35
521.643	24493.58
522.009	24739.45
522.376	24981.25
522.743	25041.14
523.11	25543.27
523.477	25830.95
523.843	25919.3
524.21	26206.75
524.577	26463.24
524.943	26795.21
525.31	26867.3
525.676	27319.49
526.043	27523.33
526.409	27651.69
526.776	28028.63
527.142	28002.41
527.508	28403.76
527.874	28660.48
528.241	28836.29
528.607	28918.1
528.973	29315.6
529.339	29314.02
529.705	29706.32
530.071	29973.44
530.437	30115.13
530.803	30462.69
531.169	30562.12
531.535	30694.32
531.901	30860.19
532.267	31062.67
532.632	31274.19
532.998	31492.49
533.364	31730.9
533.73	31842.09
534.095	31935.87
534.461	31993.95
534.826	32300.15
535.192	32378.8
535.557	32684.78
535.923	32684.32
536.288	32922.06
536.653	33124.54
537.019	33107.14
537.384	33135.84
537.749	33379.9
538.114	33517.52
538.479	33493.57
538.845	33880.9
539.21	33922.48
539.575	33978.53
539.94	34112.31
540.305	34415.13
540.67	34304.17
541.034	34492.64
541.399	34708.9
541.764	34844.95
542.129	34967.2
542.494	35029.57
542.858	35209.68
543.223	35176.46
543.587	35467.3
543.952	35512.27
544.316	35590.91
544.681	35595.89
545.045	35930.57
545.41	35972.37
545.774	36060.05
546.138	36258.47
546.503	36279.03
546.867	36256.89
547.231	36597.89
547.595	36609.64
547.959	36856.87
548.324	36797.21
548.688	36974.61
549.052	37190.65
549.416	37053.47
549.779	37269.29
550.143	37277.2
550.507	37635.38
550.871	37766.22
551.235	37678.54
551.599	38123.96
551.962	38001.02
552.326	38382.71
552.689	38343.61
553.053	38276.72
553.417	38464.96
553.78	38751.96
554.143	38782.47
554.507	39116.02
554.87	39226.75
555.234	39508.55
555.597	39168.45
555.96	39613.18
556.323	39668.1
556.686	39710.81
557.05	40005.49
557.413	40141.3
557.776	40242.09
558.139	40494.51
558.502	40584.46
558.865	40554.63
559.228	40879.36
559.59	41031.22
559.953	41148.51
560.316	41604.77
560.679	41598.44
561.041	41854.7
561.404	41922.95
561.767	42243.62
562.129	42185.54
562.492	42610.62
562.854	42649.49
563.217	42809.93
563.579	42968.8
563.941	43349.81
564.304	43378.28
564.666	43684.26
565.028	43789.12
565.39	43733.98
565.753	44135.1
566.115	44086.51
566.477	44494.86
566.839	44728.53
567.201	44984.34
567.563	44950.44
567.925	45060.04
568.287	45222.3
568.648	45347.04
569.01	45636.98
569.372	46022.28
569.734	46025.22
570.095	46326
570.457	46424.75
570.819	46541.59
571.18	46617.29
571.542	46924.63
571.903	46953.55
572.265	47256.82
572.626	47487.55
572.987	47465.4
573.349	47839.63
573.71	47884.6
574.071	48010.02
574.432	48214.54
574.794	48495.43
575.155	48563.45
575.516	48594.87
575.877	48740.63
576.238	48872.6
576.599	49110.78
576.96	49127.51
577.32	49391.23
577.681	49395.52
578.042	49618.34
578.403	49790.99
578.763	49903.98
579.124	49889.07
579.485	50197.99
579.845	50341.94
580.206	50523.86
580.566	50457.64
580.927	50533.12
581.287	50754.13
581.648	50798.42
582.008	51101.47
582.368	51214.68
582.728	51354.79
583.089	51316.83
583.449	51433.89
583.809	51545.98
584.169	51700.77
584.529	51700.55
584.889	52093.53
585.249	51927.43
585.609	51963.82
585.969	52334.88
586.329	52157.03
586.688	52483.13
587.048	52506.63
587.408	52648.77
587.768	52771.48
588.127	52756.79
588.487	52943
588.846	53326.04
589.206	53037.46
589.565	53265.93
589.925	53488.52
590.284	53581.85
590.643	53682.19
591.003	53739.82
591.362	54062.29
591.721	54047.83
592.08	54076.98
592.44	54409.85
592.799	54350.87
593.158	54435.84
593.517	54553.35
593.876	54751.99
594.235	54778.21
594.593	54902.5
594.952	55024.08
595.311	55040.35
595.67	55203.05
596.029	55427
596.387	55508.13
596.746	55627.45
597.104	55650.5
597.463	55758.75
597.822	55982.47
598.18	55798.97
598.538	55997.61
598.897	56269.24
599.255	56143.14
599.613	56530.48
599.972	56374.1
600.33	56587.42
600.688	56537.48
601.046	56722.56
601.404	56968.21
601.762	56891.37
602.12	57107.86
602.478	57128.2
602.836	57219.72
603.194	57163.68
603.552	57323.68
603.91	57336.11
604.268	57503.11
604.625	57506.72
604.983	57697.23
605.341	57727.96
605.698	57858.58
606.056	58015.86
606.413	58026.26
606.771	58122.07
607.128	58230.55
607.485	58197.78
607.843	58273.26
608.2	58458.56
608.557	58555.96
608.914	58551.21
609.272	58757.08
609.629	58811.09
609.986	58942.84
610.343	58890.64
610.7	59175.15
611.057	59114.59
611.414	59139.9
611.771	59281.36
612.127	59353
612.484	59392.77
612.841	59532.43
613.198	59502.83
613.554	59487.91
613.911	59675.25
614.267	59734.46
614.624	59719.55
614.98	59875.93
615.337	60010.84
615.693	59987.79
616.05	60055.13
616.406	60169.03
616.762	60181.91
617.118	60165.41
617.475	60181.23
617.831	60402.69
618.187	60390.04
618.543	60424.84
618.899	60606.75
619.255	60533.31
619.611	60548.45
619.967	60663.02
620.323	60772.4
620.678	60668.9
621.034	60735.79
621.39	60670.71
621.746	60738.28
622.101	61030.92
622.457	60807.2
622.812	60938.95
623.168	61003.81
623.523	61033.64
623.879	61077.93
624.234	61017.14
624.589	61117.7
624.945	61081.77
625.3	61155.89
625.655	61170.13
626.01	61210.13
626.365	61233.18
626.72	61219.85
627.075	61150.47
627.43	61144.82
627.785	61210.81
628.14	61221.88
628.495	61219.39
628.85	61217.81
629.205	61204.7
629.559	61343.23
629.914	61152.73
630.269	61272.5
630.623	61143.69
630.978	61061.43
631.332	61192.05
631.687	61173.29
632.041	61138.94
632.396	61184.82
632.75	61163.35
633.104	61195.21
633.459	61135.1
633.813	61059.62
634.167	61063.24
634.521	61071.83
634.875	60998.61
635.229	61082.9
635.583	60957.93
635.937	60974.65
636.291	60952.96
636.645	60956.8
636.999	60797.03
637.352	60919.51
637.706	60746.86
638.06	60942.56
638.413	60823.02
638.767	60764.49
639.121	60843.13
639.474	60727.2
639.828	60764.72
640.181	60692.18
640.534	60790.25
640.888	60652.63
641.241	60585.96
641.594	60637.71
641.947	60676.81
642.301	60535.34
642.654	60594.55
643.007	60538.73
643.36	60588.68
643.713	60539.86
644.066	60554.55
644.419	60425.29
644.771	60231.17
645.124	59959.99
645.477	59978.3
645.83	59842.48
646.182	59831.41
646.535	59797.74
646.888	59807.23
647.24	59732.65
647.593	59840.45
647.945	59695.59
648.298	59659.66
648.65	59555.03
649.002	59414.47
649.355	59388.48
649.707	59439.55
650.059	59409.05
650.411	59700.34
650.763	59778.08
651.115	60119.99
651.467	60011.06
651.819	60009.26
652.171	59913.21
652.523	59880.9
652.875	59953.44
653.227	59748.47
653.578	59985.3
653.93	59851.29
654.282	59755.02
654.633	59738.98
654.985	59738.75
655.337	59750.05
655.688	59731.3
656.039	59785.76
656.391	59583.73
656.742	59626.44
657.094	59561.81
657.445	59661.47
657.796	59671.64
658.147	59583.05
658.498	59604.29
658.849	59620.11
659.2	59591.87
659.551	59505.09
659.902	59672.77
660.253	59491.75
660.604	59614.01
660.955	59454.47
661.306	59559.55
661.656	59394.13
662.007	59456.28
662.358	59426.67
662.708	59494.47
663.059	59442.49
663.409	59288.82
663.76	59475.94
664.11	59402.27
664.461	59474.58
664.811	59504.64
665.161	59414.02
665.511	59319.1
665.862	59365.66
666.212	59408.82
666.562	59427.58
666.912	59350.06
667.262	59296.73
667.612	59303.06
667.962	59347.35
668.312	59300.12
668.662	59329.95
669.011	59284.3
669.361	59282.27
669.711	59314.13
670.06	59186.68
670.41	59222.38
670.76	59220.8
671.109	59298.31
671.459	59217.86
671.808	59223.74
672.157	59219.67
672.507	59117.75
672.856	59146.45
673.205	59155.04
673.554	59189.16
673.904	59057.64
674.253	59289.27
674.602	59102.39
674.951	58813.35
675.3	58663.98
675.649	59121.6
675.998	59081.6
676.346	59134.93
676.695	59114.14
677.044	58978.55
677.393	59036.17
677.741	59084.53
678.09	58986.68
678.438	58981.26
678.787	59025.33
679.135	59010.86
679.484	58833.02
679.832	58963.41
680.181	58817.65
680.529	58853.58
680.877	58752.79
681.225	58788.95
681.573	58882.28
681.922	58759.12
682.27	58737.42
682.618	58734.03
682.966	58661.72
683.314	58711.89
683.661	58692.45
684.009	58532.68
684.357	58527.49
684.705	58533.14
685.053	58615.62
685.4	58419.01
685.748	58426.47
686.095	58453.36
686.443	58287.72
686.79	58285.23
687.138	58380.37
687.485	58341.95
687.832	58198.91
688.18	58259.02
688.527	58099.7
688.874	58165.46
689.221	58137.44
689.568	58041.85
689.915	57936.54
690.262	58011.57
690.609	57938.58
690.956	57849.09
691.303	57854.74
691.65	57722.54
691.997	57713.72
692.344	57567.96
692.69	57591.47
693.037	57613.39
693.383	57427.18
693.73	57524.35
694.077	57355.99
694.423	57338.82
694.769	57290.91
695.116	57262.66
695.462	57165.04
695.808	57035.55
696.155	57187.18
696.501	56880.3
696.847	56973.86
697.193	56825.61
697.539	56920.3
697.885	56693.41
698.231	56604.83
698.577	56572.28
698.923	56530.93
699.269	56412.97
699.614	56335
699.96	56232.86
700.306	56328
700.651	56112.41
700.997	56032.18
701.342	56082.35
701.688	56056.14
702.033	55925.52
702.379	55947.67
702.724	55780.89
703.069	55836.48
703.415	55536.6
703.76	55521.69
704.105	55503.61
704.45	55482.59
704.795	55410.96
705.14	55264.75
705.485	55311.75
705.83	55188.82
706.175	55215.71
706.52	55130.06
706.865	55092.55
707.209	54946.79
707.554	54904.53
707.899	54910.18
708.243	54752.67
708.588	54704.08
708.932	54580.92
709.277	54558.78
709.621	54570.75
709.966	54273.81
710.31	54394.94
710.654	54163.08
710.998	54254.15
711.342	54233.36
711.687	54177.77
712.031	54099.13
712.375	54020.71
712.719	53914.27
713.063	53873.37
713.407	54031.79
713.75	53833.82
714.094	53806.48
714.438	53557.9
714.782	53631.12
715.125	53539.37
715.469	53592.02
715.812	53347.51
716.156	53279.26
716.499	53329.43
716.843	53323.33
717.186	53309.77
717.53	53314.52
717.873	53357
718.216	53291.24
718.559	53072.71
718.902	52873.4
719.246	52960.63
719.589	52803.57
719.932	52717.47
720.275	52696
720.617	52793.85
720.96	52616.23
721.303	52670.24
721.646	52712.72
721.989	52546.63
722.331	52604.03
722.674	52480.87
723.016	52463.47
723.359	52313.86
723.701	52364.48
724.044	52204.71
724.386	52070.26
724.729	52239.74
725.071	52231.83
725.413	52179.18
725.755	52022.12
726.097	51881.11
726.439	51750.49
726.782	51758.85
727.124	51802.24
727.465	51817.38
727.807	51621
728.149	51772.86
728.491	51552.53
728.833	51566.09
729.175	51517.05
729.516	51402.02
729.858	51317.28
730.199	51571.06
730.541	51398.41
730.882	51246.55
731.224	51326.32
731.565	51118.87
731.906	51162.03
732.248	51186.44
732.589	51011.53
732.93	50971.3
733.271	51011.75
733.612	50902.15
733.953	51025.76
734.294	50815.15
734.635	50732.44
734.976	50910.74
735.317	50734.47
735.658	50664.87
735.999	50654.93
736.339	50586
736.68	50616.96
737.021	50613.34
737.361	50452.22
737.702	50591.88
738.042	50479.56
738.383	50391.2
738.723	50337.42
739.063	50245.67
739.404	50352.11
739.744	50219
740.084	50098.33
740.424	50186.69
740.764	50215.39
741.104	50214.71
741.444	50003.42
741.784	49899.24
742.124	50104.21
742.464	49979.46
742.804	49863.31
743.143	49716.42
743.483	49935.4
743.823	49681.62
744.162	49659.7
744.502	49714.84
744.841	49538.12
745.181	49649.98
745.52	49454.96
745.86	49498.35
746.199	49418.35
746.538	49457.44
746.877	49482.3
747.216	49373.6
747.556	49288.63
747.895	49273.27
748.234	49032.37
748.573	49127.06
748.911	49076.89
749.25	49043.89
749.589	48933.61
749.928	48861.98
750.267	48907.85
750.605	48816.78
750.944	48659.27
751.283	48550.57
751.621	48727.07
751.96	48529.33
752.298	48504.25
752.636	48393.06
752.975	48354.87
753.313	48142
753.651	48399.39
753.989	48047.31
754.327	48156.23
754.666	47855
755.004	47988.55
755.342	47968.22
755.679	47873.98
