Data from 7548_FLMS001491_008.txt Node
Date: Thu Apr 12 17:06:33 BST 2018
User: hsy
Spectrometer: FLMS00149
Trigger mode: 0
Integration Time (sec): 1.000000E-2
Scans to average: 10
Electric dark correction enabled: true
Nonlinearity correction enabled: false
Boxcar width: 0
XAxis mode: Wavelengths
Number of Pixels in Spectrum: 2048
>>>>>Begin Spectral Data<<<<<
341.393	22.03
341.776	22.03
342.16	22.03
342.543	-63.39
342.927	-62.26
343.31	-74.01
343.693	-71.07
344.077	-69.94
344.46	-53.22
344.843	-55.03
345.226	-39.66
345.61	-25.65
345.993	-27.91
346.376	-9.6
346.759	7.34
347.142	28.81
347.525	19.1
347.908	55.93
348.291	82.6
348.674	106.1
349.057	126.21
349.44	121.47
349.823	129.38
350.206	177.74
350.588	248.02
350.971	262.48
351.354	264.96
351.737	284.4
352.119	303.61
352.502	315.81
352.884	302.7
353.267	314.68
353.65	352.87
354.032	343.38
354.414	345.64
354.797	387.45
355.179	358.3
355.562	373.44
355.944	384.74
356.326	382.48
356.709	369.59
357.091	379.31
357.473	388.8
357.855	394
358.238	399.65
358.62	392.65
359.002	390.84
359.384	403.72
359.766	397.62
360.148	378.86
360.53	392.65
360.912	395.13
361.294	396.03
361.676	385.19
362.057	369.59
362.439	381.35
362.821	373.89
363.203	365.75
363.584	353.78
363.966	390.16
364.348	363.27
364.729	367.56
365.111	376.6
365.493	380.44
365.874	387.22
366.256	383.61
366.637	380.89
367.019	380.22
367.4	383.61
367.781	367.79
368.163	379.99
368.544	375.7
368.925	368.92
369.306	389.71
369.688	382.7
370.069	380.22
370.45	378.41
370.831	377.5
371.212	363.72
371.593	392.87
371.974	373.66
372.355	374.57
372.736	370.72
373.117	387.45
373.498	387.67
373.879	397.62
374.26	374.79
374.641	395.13
375.021	379.99
375.402	402.36
375.783	403.94
376.163	409.82
376.544	419.99
376.925	381.12
377.305	394.23
377.686	367.11
378.066	405.98
378.447	426.99
378.827	399.42
379.208	404.62
379.588	409.14
379.968	395.81
380.349	409.59
380.729	430.61
381.109	397.62
381.489	418.18
381.87	430.61
382.25	395.13
382.63	428.8
383.01	418.63
383.39	455.92
383.77	455.02
384.15	436.71
384.53	452.76
384.91	444.62
385.29	440.78
385.67	452.98
386.049	445.53
386.429	456.37
386.809	452.98
387.189	464.73
387.568	450.5
387.948	462.02
388.328	450.95
388.707	484.39
389.087	471.51
389.466	444.62
389.846	446.88
390.225	483.49
390.605	474.22
390.984	492.3
391.363	513.09
391.743	499.99
392.122	497.95
392.501	499.76
392.881	477.16
393.26	507.44
393.639	537.27
394.018	511.29
394.397	503.83
394.776	535.24
395.155	519.65
395.534	526.65
395.913	514.22
396.292	507.9
396.671	537.5
397.05	547.67
397.429	536.82
397.808	544.96
398.186	552.64
398.565	546.99
398.944	526.2
399.323	530.72
399.701	551.06
400.08	561.23
400.458	557.39
400.837	542.47
401.215	572.3
401.594	547.22
401.972	591.06
402.351	567.78
402.729	591.96
403.107	570.49
403.486	572.3
403.864	592.19
404.242	579.98
404.62	612.3
404.999	591.06
405.377	588.35
405.755	605.52
406.133	590.38
406.511	609.14
406.889	636.03
407.267	611.17
407.645	634.22
408.023	652.98
408.401	639.64
408.779	670.6
409.156	664.73
409.534	667.21
409.912	660.89
410.29	669.47
410.667	700.43
411.045	700.43
411.422	712.41
411.8	720.77
412.178	712.41
412.555	707.21
412.933	711.96
413.31	695.69
413.687	739.08
414.065	726.65
414.442	741.34
414.819	746.08
415.197	791.96
415.574	778.17
415.951	794.67
416.328	761.67
416.705	793.54
417.082	787.89
417.46	788.11
417.837	793.99
418.214	821.33
418.591	806.87
418.967	811.84
419.344	813.2
419.721	817.94
420.098	811.62
420.475	840.32
420.852	832.18
421.228	859.3
421.605	842.8
421.982	844.38
422.358	859.3
422.735	849.13
423.111	871.05
423.488	861.11
423.864	899.07
424.241	879.19
424.617	880.77
424.994	898.85
425.37	912.41
425.746	913.99
426.123	928.22
426.499	925.51
426.875	909.92
427.251	946.08
427.627	966.19
428.003	948.79
428.379	959.64
428.756	981.1
429.132	970.48
429.507	999.41
429.883	1022.46
430.259	1046.64
430.635	1018.17
431.011	1050.25
431.387	1047.54
431.763	1067.88
432.138	1050.03
432.514	1069.24
432.89	1086.19
433.265	1117.37
433.641	1104.72
434.016	1100.65
434.392	1161.44
434.767	1150.14
435.143	1147.43
435.518	1149.01
435.894	1169.12
436.269	1183.13
436.644	1177.71
437.02	1209.8
437.395	1203.47
437.77	1260.42
438.145	1243.47
438.52	1247.09
438.895	1263.81
439.271	1278.27
439.646	1295.22
440.021	1310.14
440.395	1283.7
440.77	1273.07
441.145	1322.11
441.52	1317.37
441.895	1300.42
442.27	1315.11
442.645	1323.47
443.019	1343.35
443.394	1354.65
443.769	1346.07
444.143	1350.81
444.518	1392.39
444.892	1388.1
445.267	1345.84
445.641	1395.56
446.016	1398.72
446.39	1419.28
446.764	1436.91
447.139	1394.88
447.513	1434.43
447.887	1423.35
448.262	1393.52
448.636	1460.19
449.01	1476.46
449.384	1485.27
449.758	1489.34
450.132	1500.19
450.506	1519.17
450.88	1517.81
451.254	1505.84
451.628	1553.52
452.002	1574.08
452.376	1577.02
452.75	1599.17
453.123	1611.6
453.497	1609.79
453.871	1640.52
454.244	1642.1
454.618	1641.65
454.992	1712.61
455.365	1695.89
455.739	1746.96
456.112	1760.74
456.486	1758.48
456.859	1794.64
457.232	1821.99
457.606	1861.98
457.979	1887.52
458.352	1904.7
458.725	1923
459.099	1924.81
459.472	1926.39
459.845	1980.85
460.218	1997.8
460.591	2005.48
460.964	2040.06
461.337	2048.65
461.71	2084.13
462.083	2108.98
462.456	2155.54
462.829	2119.83
463.201	2161.41
463.574	2169.77
463.947	2200.51
464.32	2247.74
464.692	2236.89
465.065	2265.36
465.438	2300.17
465.81	2308.07
466.183	2356.66
466.555	2382.2
466.928	2415.19
467.3	2399.15
467.672	2440.95
468.045	2537.22
468.417	2500.39
468.789	2548.52
469.161	2564.34
469.534	2584.9
469.906	2650.21
470.278	2682.08
470.65	2687.05
471.022	2695.41
471.394	2785.8
471.766	2793.26
472.138	2859.25
472.51	2883.88
472.882	2908.06
473.253	2971.79
473.625	2988.73
473.997	3035.06
474.369	3057.43
474.74	3149.86
475.112	3172.68
475.484	3218.33
475.855	3290.65
476.227	3320.03
476.598	3378.78
476.97	3434.37
477.341	3483.64
477.713	3545.1
478.084	3530.19
478.455	3637.98
478.827	3741.26
479.198	3805.89
479.569	3847.24
479.94	3968.6
480.311	3971.53
480.682	4084.3
481.053	4174.24
481.424	4250.17
481.795	4321.58
482.166	4467.11
482.537	4483.61
482.908	4505.76
483.279	4649.03
483.65	4714.34
484.021	4826.2
484.391	4886.09
484.762	5008.12
485.133	5067.78
485.503	5140.09
485.874	5283.36
486.244	5375.56
486.615	5496.01
486.985	5609.23
487.356	5718.61
487.726	5761.54
488.097	5956.34
488.467	6034.76
488.837	6228.65
489.207	6356.33
489.578	6451.02
489.948	6509.55
490.318	6708.41
490.688	6783.21
491.058	6996.54
491.428	7093.26
491.798	7220.71
492.168	7475.85
492.538	7533.02
492.908	7686.92
493.278	7924.42
493.648	8029.05
494.017	8222.04
494.387	8391.53
494.757	8481.25
495.126	8684.4
495.496	8832.65
495.866	8972.98
496.235	9172.53
496.605	9368.45
496.974	9514.89
497.344	9690.48
497.713	9930.93
498.082	10054.09
498.452	10321.88
498.821	10487.75
499.19	10608.2
499.559	10887.51
499.928	11059.94
500.298	11287.5
500.667	11464.9
501.036	11592.58
501.405	11877.31
501.774	12113.24
502.143	12323.63
502.512	12545.32
502.88	12739.67
503.249	13040.45
503.618	13223.49
503.987	13387.11
504.356	13620.32
504.724	13897.15
505.093	14018.5
505.462	14211.94
505.83	14552.5
506.199	14763.79
506.567	15157.45
506.936	15321.07
507.304	15559.25
507.672	15852.8
508.041	15933.03
508.409	16260.25
508.777	16486.46
509.145	16782.5
509.514	16897.52
509.882	17161.24
510.25	17378.64
510.618	17678.97
510.986	17739.08
511.354	18121.9
511.722	18376.58
512.09	18690.69
512.458	18764.14
512.826	19058.59
513.193	19195.31
513.561	19498.58
513.929	19680.73
514.297	19881.85
514.664	20123.65
515.032	20296.98
515.4	20717.08
515.767	20840.24
516.135	21106.22
516.502	21037.53
516.869	21615.14
517.237	21667.34
517.604	21766.09
517.972	22179.19
518.339	22419.64
518.706	22578.28
519.073	22654.88
519.44	22863.24
519.808	23331.93
520.175	23404.24
520.542	23671.58
520.909	23860.5
521.276	23920.84
521.643	24380.71
522.009	24442.41
522.376	24760.37
522.743	25012.56
523.11	25332.78
523.477	25513.34
523.843	25771.19
524.21	26030.61
524.577	26304.73
524.943	26605.52
525.31	26627.66
525.676	27130.47
526.043	27257.93
526.409	27579.05
526.776	27929.1
527.142	27991.24
527.508	28180.16
527.874	28549.87
528.241	28619.25
528.607	28809.3
528.973	29154.6
529.339	29151.66
529.705	29563.4
530.071	29829.39
530.437	29920.23
530.803	30288.81
531.169	30444.28
531.535	30479.99
531.901	30785.29
532.267	30819.87
532.632	31169.24
532.998	31380.76
533.364	31511.37
533.73	31469.79
534.095	32062.09
534.461	32027.07
534.826	32267.06
535.192	32307.51
535.557	32697.78
535.923	32668.63
536.288	32993.14
536.653	32976.2
537.019	33124.44
537.384	33254.15
537.749	33350.65
538.114	33548.38
538.479	33596.52
538.845	33672.67
539.21	33763.74
539.575	33906.57
539.94	33937.3
540.305	34224.07
540.67	34207.35
541.034	34323.73
541.399	34463.16
541.764	34656.6
542.129	34695.7
542.494	34849.59
542.858	35063.82
543.223	34974.33
543.587	35477.37
543.952	35177.49
544.316	35483.7
544.681	35496.81
545.045	35846.4
545.41	35793.52
545.774	35817.93
546.138	35902.67
546.503	36121.2
546.867	36197.13
547.231	36518.47
547.595	36526.84
547.959	36677.57
548.324	36629.21
548.688	36791.46
549.052	36914.62
549.416	36936.77
549.779	37038.01
550.143	37173.15
550.507	37484.55
550.871	37532.46
551.235	37558
551.599	37775.62
551.962	37874.82
552.326	38219.45
552.689	38151.65
553.053	37989.4
553.417	38256.73
553.78	38693.33
554.143	38769.26
554.507	38832.76
554.87	38946.66
555.234	39392.52
555.597	39027.79
555.96	39420.77
556.323	39644.49
556.686	39603.59
557.05	40013.52
557.413	39850.82
557.776	40125.16
558.139	40265.49
558.502	40266.85
558.865	40495.55
559.228	40873.16
559.59	40905.48
559.953	41008.75
560.316	41573.71
560.679	41382.75
561.041	41732.35
561.404	41985.9
561.767	42237.65
562.129	42159.46
562.492	42509.28
562.854	42671.08
563.217	42712.44
563.579	42831.08
563.941	43159.43
564.304	43391.97
564.666	43598.29
565.028	43706.99
565.39	43811.84
565.753	44145.17
566.115	44173.41
566.477	44395.33
566.839	44478.04
567.201	44893.85
567.563	44747.19
567.925	45144.24
568.287	45174.29
568.648	45315.76
569.01	45633.94
569.372	46035.74
569.734	45849.75
570.095	46129.3
570.457	46418.1
570.819	46531.54
571.18	46483.86
571.542	46913.91
571.903	46741.48
572.265	47017.18
572.626	47237.74
572.987	47167.23
573.349	47515.93
573.71	47671.85
574.071	47836.82
574.432	48043.37
574.794	48252.86
575.155	48300.99
575.516	48363.59
575.877	48603.81
576.238	48670.02
576.599	48940.97
576.96	49035.66
577.32	49195.43
577.681	49244.47
578.042	49449.43
578.403	49647.85
578.763	49588.87
579.124	49705.92
579.485	50059.14
579.845	50180.04
580.206	50168.51
580.566	50285.8
580.927	50337.09
581.287	50601.72
581.648	50604.88
582.008	50803.75
582.368	50734.82
582.728	50910.86
583.089	51001.94
583.449	51045.55
583.809	51271.08
584.169	51398.08
584.529	51413
584.889	51647.57
585.249	51627.23
585.609	51609.6
585.969	51904.28
586.329	51940.67
586.688	52096.6
587.048	52142.92
587.408	52247.55
587.768	52341.11
588.127	52475.57
588.487	52509.47
588.846	52885.5
589.206	52673.53
589.565	52850.47
589.925	53154.42
590.284	53116.46
590.643	53283.46
591.003	53412.04
591.362	53585.6
591.721	53668.98
592.08	53726.61
592.44	53881.86
592.799	54013.83
593.158	54099.26
593.517	54081.63
593.876	54238.91
594.235	54381.96
594.593	54405.91
594.952	54590.09
595.311	54638
595.67	54763.19
596.029	54970.65
596.387	55099.68
596.746	55190.53
597.104	55188.49
597.463	55220.81
597.822	55447.02
598.18	55462.84
598.538	55502.61
598.897	55799.1
599.255	55686.11
599.613	56059.43
599.972	56007.91
600.33	56136.04
600.688	56164.29
601.046	56258.07
601.404	56530.38
601.762	56407.9
602.12	56682.46
602.478	56705.51
602.836	56846.3
603.194	56754.33
603.552	56874.55
603.91	56880.65
604.268	56999.74
604.625	57046.3
604.983	57275.67
605.341	57236.8
605.698	57401.99
606.056	57605.15
606.413	57452.16
606.771	57753.85
607.128	57743.91
607.485	57739.84
607.843	57841.08
608.2	57952.04
608.557	58087.85
608.914	58055.99
609.272	58267.96
609.629	58357.67
609.986	58401.06
610.343	58436.99
610.7	58697.1
611.057	58634.28
611.414	58642.86
611.771	58787.04
612.127	58867.04
612.484	58905.46
612.841	58994.49
613.198	59033.59
613.554	59001.27
613.911	59222.74
614.267	59243.3
614.624	59255.05
614.98	59417.99
615.337	59524.42
615.693	59491.2
616.05	59589.05
616.406	59668.37
616.762	59645.1
617.118	59708.15
617.475	59679.22
617.831	59855.71
618.187	59917.41
618.543	59907.01
618.899	60133.9
619.255	60043.73
619.611	60074.24
619.967	60215.7
620.323	60320.56
620.678	60226.55
621.034	60246.21
621.39	60272.2
621.746	60311.07
622.101	60503.61
622.457	60391.29
622.812	60539.76
623.168	60543.38
623.523	60520.1
623.879	60662.02
624.234	60524.62
624.589	60647.56
624.945	60642.13
625.3	60675.81
625.655	60692.53
626.01	60712.41
626.365	60761.23
626.72	60671.51
627.075	60709.03
627.43	60697.05
627.785	60727.33
628.14	60714.45
628.495	60823.15
628.85	60780.89
629.205	60769.81
629.559	60849.36
629.914	60747.44
630.269	60803.03
630.623	60682.59
630.978	60649.59
631.332	60753.54
631.687	60810.27
632.041	60691.4
632.396	60730.04
632.75	60659.08
633.104	60769.59
633.459	60660.66
633.813	60587.45
634.167	60614.79
634.521	60606.88
634.875	60619.99
635.229	60601.23
635.583	60473.55
635.937	60400.11
636.291	60462.03
636.645	60483.95
636.999	60346.55
637.352	60503.61
637.706	60344.97
638.06	60445.53
638.413	60402.82
638.767	60284.18
639.121	60323.5
639.474	60226.78
639.828	60262.48
640.181	60238.3
640.534	60346.1
640.888	60205.31
641.241	60070.85
641.594	60149.94
641.947	60195.14
642.301	60100.91
642.654	60137.97
643.007	60032.21
643.36	60074.69
643.713	59973.68
644.066	60150.17
644.419	59939.1
644.771	59643.74
645.124	59467.7
645.477	59452.56
645.83	59325.78
646.182	59286.01
646.535	59251.44
646.888	59308.16
647.24	59245.56
647.593	59386.8
647.945	59226.58
648.298	59134.6
648.65	59027.26
649.002	59019.58
649.355	58993.59
649.707	58890.77
650.059	58909.3
650.411	59249.18
650.763	59340.02
651.115	59692.33
651.467	59562.84
651.819	59593.8
652.171	59534.59
652.523	59428.83
652.875	59477.65
653.227	59325.56
653.578	59513.58
653.93	59424.31
654.282	59291.89
654.633	59243.98
654.985	59283.07
655.337	59282.17
655.688	59286.69
656.039	59386.57
656.391	59090.54
656.742	59149.52
657.094	59182.51
657.445	59183.42
657.796	59176.18
658.147	59093.25
658.498	59149.07
658.849	59245.11
659.2	59135.51
659.551	59043.53
659.902	59182.06
660.253	59062.51
660.604	59128.73
660.955	59006.47
661.306	59163.76
661.656	58966.47
662.007	58953.14
662.358	58997.43
662.708	59043.08
663.059	58982.52
663.409	58850.99
663.76	58994.49
664.11	59027.49
664.461	58989.3
664.811	58988.84
665.161	58911.11
665.511	58851.22
665.862	58899.36
666.212	58930.31
666.562	58888.96
666.912	58905.68
667.262	58779.13
667.612	58873.14
667.962	58846.02
668.312	58754.73
668.662	58895.29
669.011	58857.1
669.361	58779.36
669.711	58826.36
670.06	58811
670.41	58709.53
670.76	58644.67
671.109	58806.93
671.459	58719.47
671.808	58700.49
672.157	58814.16
672.507	58577.56
672.856	58571.68
673.205	58682.41
673.554	58635.63
673.904	58583.88
674.253	58766.03
674.602	58660.94
674.951	58281.07
675.3	58221.18
675.649	58624.33
675.998	58602.64
676.346	58628.4
676.695	58715.41
677.044	58527.84
677.393	58525.13
677.741	58573.26
678.09	58499.82
678.438	58490.55
678.787	58562.87
679.135	58519.03
679.484	58340.27
679.832	58469.76
680.181	58404.23
680.529	58383.44
680.877	58298.69
681.225	58310.9
681.573	58536.2
681.922	58296.21
682.27	58229.77
682.618	58216.66
682.966	58230.9
683.314	58243.33
683.661	58197
684.009	58167.85
684.357	58026.61
684.705	58038.81
685.053	58011.69
685.4	57968.31
685.748	57932.38
686.095	57933.5
686.443	57790.01
686.79	57833.62
687.138	57911.36
687.485	57914.75
687.832	57761.98
688.18	57742.78
688.527	57693.06
688.874	57695.77
689.221	57658.48
689.568	57549.79
689.915	57453.97
690.262	57557.7
690.609	57466.62
690.956	57416.23
691.303	57390.24
691.65	57261.43
691.997	57237.48
692.344	57177.59
692.69	57028.22
693.037	57130.14
693.383	56861.89
693.73	56990.03
694.077	56868.22
694.423	56859.18
694.769	56763.59
695.116	56738.28
695.462	56626.42
695.808	56495.12
696.155	56655.35
696.501	56435.69
696.847	56519.3
697.193	56341.91
697.539	56409.25
697.885	56244.74
698.231	56099.2
698.577	56121.58
698.923	56072.31
699.269	55903.95
699.614	55825.99
699.96	55750.96
700.306	55776.05
700.651	55637.07
700.997	55592.78
701.342	55526.79
701.688	55535.38
702.033	55428.03
702.379	55388.71
702.724	55311.65
703.069	55333.57
703.415	55128.38
703.76	55085.22
704.105	55080.47
704.45	54938.33
704.795	54920.25
705.14	54774.27
705.485	54790.08
705.83	54619.47
706.175	54753.48
706.52	54573.59
706.865	54514.16
707.209	54367.72
707.554	54327.5
707.899	54398
708.243	54216.77
708.588	54101.52
708.932	54030.78
709.277	54113.72
709.621	53981.97
709.966	53731.58
710.31	53862.43
710.654	53623.34
710.998	53724.58
711.342	53696.1
711.687	53562.77
712.031	53417.92
712.375	53381.08
712.719	53216.34
713.063	53236.45
713.407	53445.04
713.75	53222.89
714.094	53141.54
714.438	53048.44
714.782	53074.42
715.125	52977.7
715.469	53022.67
715.812	52763.7
716.156	52774.09
716.499	52697.48
716.843	52813.41
717.186	52578.17
717.53	52671.04
717.873	52664.72
718.216	52613.87
718.559	52456.59
718.902	52227.67
719.246	52296.82
719.589	52180.44
719.932	52019.31
720.275	52174.11
720.617	52036.71
720.96	51898.41
721.303	51998.29
721.646	51908.58
721.989	51789.49
722.331	51817.51
722.674	51717.17
723.016	51721.92
723.359	51569.83
723.701	51719.43
724.044	51481.25
724.386	51323.74
724.729	51452.32
725.071	51423.39
725.413	51313.79
725.755	51285.77
726.097	51225.43
726.439	50969.39
726.782	51040.13
727.124	51211.2
727.465	50963.97
727.807	50866.12
728.149	50971.2
728.491	50781.15
728.833	50840.58
729.175	50786.12
729.516	50740.7
729.858	50722.17
730.199	50724.65
730.541	50717.42
730.882	50582.51
731.224	50599.69
731.565	50519.46
731.906	50539.8
732.248	50445.57
732.589	50311.78
732.93	50222.3
733.271	50288.06
733.612	50205.12
733.953	50263.88
734.294	50107.72
734.635	49975.3
734.976	50274.27
735.317	49925.35
735.658	49910.89
735.999	49917.9
736.339	49816.2
736.68	49923.77
737.021	49790.89
737.361	49731.01
737.702	49909.08
738.042	49679.71
738.383	49773.49
738.723	49691.91
739.063	49533.05
739.404	49611.46
739.744	49496.89
740.084	49307.74
740.424	49632.25
740.764	49400.4
741.104	49519.94
741.444	49264.58
741.784	49156.56
742.124	49323.11
742.464	49239.72
742.804	49085.38
743.143	49096.22
743.483	49065.04
743.823	48901.43
744.162	48999.05
744.502	49021.42
744.841	48794.76
745.181	48934.42
745.52	48716.35
745.86	48761.99
746.199	48714.31
746.538	48749.11
746.877	48732.84
747.216	48634.31
747.556	48647.42
747.895	48474.09
748.234	48451.72
748.573	48356.81
748.911	48279.52
749.25	48219.41
749.589	48012.86
749.928	48205.63
750.267	48157.49
750.605	47931.28
750.944	48011.96
751.283	47921.34
751.621	47943.94
751.96	47706.43
752.298	47787.56
752.636	47672.76
752.975	47506.89
753.313	47335.37
753.651	47740.1
753.989	47381.92
754.327	47350.28
754.666	47066.67
755.004	47253.33
755.342	47163.17
