Data from 7548_FLMS001491_004.txt Node
Date: Thu Apr 12 17:06:24 BST 2018
User: hsy
Spectrometer: FLMS00149
Trigger mode: 0
Integration Time (sec): 1.000000E-2
Scans to average: 10
Electric dark correction enabled: true
Nonlinearity correction enabled: false
Boxcar width: 0
XAxis mode: Wavelengths
Number of Pixels in Spectrum: 2048
>>>>>Begin Spectral Data<<<<<
341.393	-39.28
341.776	-39.28
342.16	-39.28
342.543	-69.79
342.927	-68.43
343.31	-84.25
343.693	-68.88
344.077	-56
344.46	-47.87
344.843	-55.32
345.226	-52.61
345.61	-27.75
345.993	-12.61
346.376	-21.65
346.759	7.5
347.142	38.91
347.525	18.57
347.908	62.64
348.291	99.93
348.674	100.15
349.057	99.25
349.44	128.17
349.823	132.92
350.206	173.37
350.588	213.14
350.971	252.92
351.354	251.79
351.737	281.62
352.119	284.78
352.502	314.84
352.884	309.41
353.267	326.81
353.65	326.59
354.032	347.38
354.414	342.86
354.797	356.42
355.179	342.18
355.562	363.87
355.944	380.6
356.326	395.51
356.709	372.91
357.091	385.79
357.473	382.86
357.855	383.08
358.238	379.02
358.62	365.68
359.002	384.21
359.384	358.68
359.766	386.7
360.148	391.22
360.53	403.87
360.912	388.05
361.294	385.79
361.676	371.11
362.057	379.69
362.439	385.12
362.821	368.62
363.203	390.54
363.584	368.62
363.966	380.37
364.348	381.73
364.729	360.71
365.111	364.78
365.493	387.6
365.874	373.82
366.256	381.73
366.637	382.86
367.019	367.04
367.4	353.25
367.781	352.58
368.163	371.78
368.544	371.33
368.925	378.34
369.306	357.55
369.688	386.92
370.069	366.81
370.45	361.39
370.831	372.24
371.212	359.58
371.593	375.63
371.974	366.81
372.355	368.39
372.736	369.07
373.117	382.18
373.498	385.79
373.879	377.43
374.26	391.9
374.641	353.25
375.021	397.09
375.402	395.51
375.783	405
376.163	403.2
376.544	414.72
376.925	398.68
377.305	395.06
377.686	375.4
378.066	389.41
378.447	387.6
378.827	403.42
379.208	411.56
379.588	414.04
379.968	421.95
380.349	420.37
380.729	410.2
381.109	442.29
381.489	423.08
381.87	435.96
382.25	433.7
382.63	416.53
383.01	419.01
383.39	421.5
383.77	428.96
384.15	432.8
384.53	448.17
384.91	420.6
385.29	431.67
385.67	467.83
386.049	449.75
386.429	454.49
386.809	451.33
387.189	462.86
387.568	453.82
387.948	458.56
388.328	442.06
388.707	444.55
389.087	452.69
389.466	474.61
389.846	488.62
390.225	465.57
390.605	482.29
390.984	488.39
391.363	472.12
391.743	492.23
392.122	500.59
392.501	490.2
392.881	473.7
393.26	488.39
393.639	513.25
394.018	509.18
394.397	480.71
394.776	524.1
395.155	503.31
395.534	527.94
395.913	517.77
396.292	519.8
396.671	521.61
397.05	533.14
397.429	537.43
397.808	542.4
398.186	558.9
398.565	545.34
398.944	518.9
399.323	552.57
399.701	561.61
400.08	575.39
400.458	558.67
400.837	548.28
401.215	561.38
401.594	539.24
401.972	553.7
402.351	567.94
402.729	575.85
403.107	576.3
403.486	563.19
403.864	588.73
404.242	589.86
404.62	597.31
404.999	574.94
405.377	607.94
405.755	617.88
406.133	608.39
406.511	613.81
406.889	633.92
407.267	627.82
407.645	614.72
408.023	628.73
408.401	626.01
408.779	653.81
409.156	654.26
409.534	689.74
409.912	655.84
410.29	665.34
410.667	684.54
411.045	698.33
411.422	675.28
411.8	711.66
412.178	694.49
412.555	719.57
412.933	714.37
413.31	728.38
413.687	722.74
414.065	728.38
414.442	742.17
414.819	737.65
415.197	757.76
415.574	778.33
415.951	757.54
416.328	767.25
416.705	762.51
417.082	790.3
417.46	795.73
417.837	794.15
418.214	792.11
418.591	789.4
418.967	811.09
419.344	802.28
419.721	805.44
420.098	828.5
420.475	848.16
420.852	835.73
421.228	832.56
421.605	829.4
421.982	846.12
422.358	870.08
422.735	849.51
423.111	868.27
423.488	874.14
423.864	852.45
424.241	891.32
424.617	899.91
424.994	914.37
425.37	892.9
425.746	917.53
426.123	924.76
426.499	918.44
426.875	944.2
427.251	934.03
427.627	954.82
428.003	978.32
428.379	983.75
428.756	971.54
429.132	979.9
429.507	982.16
429.883	999.11
430.259	1029.62
430.635	1030.52
431.011	1021.71
431.387	1067.13
431.763	1077.98
432.138	1070.07
432.514	1066.68
432.89	1113.69
433.265	1126.79
433.641	1127.47
434.016	1121.37
434.392	1120.46
434.767	1159.56
435.143	1173.8
435.518	1159.11
435.894	1170.86
436.269	1190.75
436.644	1178.32
437.02	1186.45
437.395	1216.06
437.77	1197.98
438.145	1235.72
438.52	1247.02
438.895	1252.44
439.271	1246.11
439.646	1272.78
440.021	1284.53
440.395	1291.76
440.77	1288.14
441.145	1284.98
441.52	1317.3
441.895	1311.42
442.27	1347.8
442.645	1316.62
443.019	1353.68
443.394	1336.5
443.769	1364.3
444.143	1353.23
444.518	1373.79
444.892	1376.05
445.267	1372.89
445.641	1360.01
446.016	1411.76
446.39	1418.31
446.764	1403.17
447.139	1391.42
447.513	1464.86
447.887	1442.72
448.262	1437.29
448.636	1473.9
449.01	1479.33
449.384	1483.85
449.758	1514.35
450.132	1490.85
450.506	1533.11
450.88	1517.06
451.254	1552.32
451.628	1565.2
452.002	1569.94
452.376	1573.33
452.75	1608.36
453.123	1591.41
453.497	1641.81
453.871	1639.55
454.244	1685.42
454.618	1665.31
454.992	1728.58
455.365	1693.56
455.739	1748.24
456.112	1761.58
456.486	1785.08
456.859	1797.96
457.232	1868.02
457.606	1823.27
457.979	1861.91
458.352	1879.99
458.725	1907.34
459.099	1935.36
459.472	1951.63
459.845	1963.83
460.218	2016.26
460.591	2006.54
460.964	2042.7
461.337	2058.52
461.71	2067.56
462.083	2130.16
462.456	2148.69
462.829	2148.23
463.201	2178.52
463.574	2168.12
463.947	2183.26
464.32	2259.87
464.692	2246.99
465.065	2313.2
465.438	2303.03
465.81	2325.63
466.183	2347.33
466.555	2372.64
466.928	2479.98
467.3	2398.85
467.672	2482.91
468.045	2530.6
468.417	2502.58
468.789	2541.67
469.161	2558.85
469.534	2576.47
469.906	2644.49
470.278	2651.5
470.65	2687.66
471.022	2734.66
471.394	2766.98
471.766	2791.83
472.138	2822.79
472.51	2927.87
472.882	2918.61
473.253	2970.59
473.625	2990.02
473.997	3079.74
474.369	3077.7
474.74	3121.32
475.112	3204.7
475.484	3229.34
475.855	3334.19
476.227	3336.9
476.598	3429.78
476.97	3475.66
477.341	3513.85
477.713	3579.38
478.084	3613.73
478.455	3709.78
478.827	3731.02
479.198	3868.19
479.569	3935.98
479.94	3993.84
480.311	4023.44
480.682	4134.62
481.053	4204.45
481.424	4326.71
481.795	4329.65
482.166	4430.89
482.537	4461.39
482.908	4589.07
483.279	4661.84
483.65	4788.39
484.021	4902.06
484.391	4958.78
484.762	5066.35
485.133	5112.22
485.503	5213.24
485.874	5304.76
486.244	5462.27
486.615	5592.44
486.985	5618.65
487.356	5767.12
487.726	5882.15
488.097	6112.65
488.467	6092.76
488.837	6333.66
489.207	6356.94
489.578	6564.84
489.948	6645.97
490.318	6833.31
490.688	6925.06
491.058	7047.54
491.428	7223.36
491.798	7316.23
492.168	7515.1
492.538	7729.56
492.908	7879.16
493.278	8005.26
493.648	8198.24
494.017	8303.78
494.387	8493.15
494.757	8650.66
495.126	8862.41
495.496	8945.57
495.866	9213.81
496.235	9356.18
496.605	9451.32
496.974	9737.19
497.344	9870.29
497.713	10063.28
498.082	10239.32
498.452	10430.05
498.821	10695.35
499.19	10802.24
499.559	11022.58
499.928	11212.63
500.298	11396.13
500.667	11703.69
501.036	11745.04
501.405	12059.61
501.774	12175.54
502.143	12414.41
502.512	12675.64
502.88	12890.1
503.249	13175.29
503.618	13354.27
503.987	13493.92
504.356	13746.8
504.724	14014.14
505.093	14186.79
505.462	14436.05
505.83	14620.22
506.199	14898.18
506.567	15168.23
506.936	15381.56
507.304	15651.83
507.672	15841.43
508.041	15964.14
508.409	16231.93
508.777	16576.33
509.145	16875.53
509.514	17036.88
509.882	17390.77
510.25	17501.5
510.618	17754.6
510.986	17858.1
511.354	18168.38
511.722	18509.16
512.09	18713.22
512.458	18821.92
512.826	19115.92
513.193	19275.02
513.561	19485.18
513.929	19667.77
514.297	20043.81
514.664	20174.88
515.032	20364.93
515.4	20606.73
515.767	20797.46
516.135	21068.41
516.502	21004.01
516.869	21508.63
517.237	21679.7
517.604	21627.5
517.972	22104.77
518.339	22207.37
518.706	22504.76
519.073	22584.31
519.44	22802.83
519.808	23126.89
520.175	23198.53
520.542	23539.76
520.909	23799.42
521.276	23937.94
521.643	24235.11
522.009	24425.16
522.376	24567.08
522.743	24810.69
523.11	25091.13
523.477	25493.38
523.843	25605.47
524.21	25925.46
524.577	26214.95
524.943	26452.91
525.31	26562.73
525.676	26954.14
526.043	27183.96
526.409	27206.33
526.776	27633.21
527.142	27769.71
527.508	28045.63
527.874	28213.31
528.241	28505.51
528.607	28548.22
528.973	28923.58
529.339	29080.86
529.705	29408.76
530.071	29565.14
530.437	29763.33
530.803	30028.41
531.169	30113.83
531.535	30308.17
531.901	30426.59
532.267	30696.64
532.632	30972.11
532.998	31018.44
533.364	31307.24
533.73	31408.71
534.095	31692.99
534.461	31730.73
534.826	31903.61
535.192	32163.72
535.557	32331.4
535.923	32409.81
536.288	32572.29
536.653	32708.33
537.019	32781.33
537.384	32934.32
537.749	33054.09
538.114	33250.02
538.479	33242.11
538.845	33453.63
539.21	33528.65
539.575	33597.58
539.94	33761.87
540.305	34009.32
540.67	34083.21
541.034	34212.7
541.399	34237.79
541.764	34430.32
542.129	34569.3
542.494	34732.69
542.858	34839.8
543.223	34780.37
543.587	35091.55
543.952	34891.33
544.316	35170.64
544.681	35197.76
545.045	35415.16
545.41	35606.79
545.774	35625.77
546.138	35533.57
546.503	35794.36
546.867	35868.48
547.231	36214.46
547.595	36264.17
547.959	36397.73
548.324	36513.66
548.688	36632.07
549.052	36728.34
549.416	36735.57
549.779	36920.2
550.143	36914.78
550.507	37241.1
550.871	37465.72
551.235	37354.09
551.599	37714.3
551.962	37616.68
552.326	37865.04
552.689	38059.61
553.053	37774.87
553.417	38087.63
553.78	38466.38
554.143	38418.92
554.507	38509.76
554.87	38794.5
555.234	39075.4
555.597	38982.75
555.96	39011.45
556.323	39170.09
556.686	39359.01
557.05	39595.16
557.413	39715.61
557.776	39785.89
558.139	40126.67
558.502	40207.12
558.865	40272.43
559.228	40600.1
559.59	40764.17
559.953	40892.07
560.316	41089.36
560.679	41113.54
561.041	41403.25
561.404	41709
561.767	41856.12
562.129	41753.52
562.492	42284.13
562.854	42241.19
563.217	42281.19
563.579	42435.31
563.941	42690.9
564.304	42816.32
564.666	43106.48
565.028	43204.1
565.39	43301.05
565.753	43597.77
566.115	43776.52
566.477	43854.03
566.839	44149.16
567.201	44611.07
567.563	44471.42
567.925	44786.66
568.287	44869.6
568.648	45026.66
569.01	45242.69
569.372	45598.84
569.734	45677.94
570.095	45892.62
570.457	46123.8
570.819	46128.55
571.18	46227.75
571.542	46523.79
571.903	46674.97
572.265	46916.32
572.626	46947.96
572.987	46932.82
573.349	47318.35
573.71	47441.51
574.071	47641.95
574.432	47799.24
574.794	48246.91
575.155	48071.32
575.516	48250.53
575.877	48365.1
576.238	48496.39
576.599	48662.94
576.96	48638.31
577.32	48843.28
577.681	48993.56
578.042	49229.93
578.403	49226.09
578.763	49383.15
579.124	49534.33
579.485	49804.83
579.845	49966.64
580.206	50009.8
580.566	50111.04
580.927	50253.86
581.287	50498.38
581.648	50410.02
582.008	50701.99
582.368	50805.03
582.728	50801.42
583.089	50902.21
583.449	51028.53
583.809	51162.76
584.169	51357.56
584.529	51306.49
584.889	51684.33
585.249	51579.93
585.609	51595.3
585.969	51925
586.329	51812.01
586.688	52096.3
587.048	52267.37
587.408	52313.47
587.768	52343.52
588.127	52552.33
588.487	52587.36
588.846	52915.49
589.206	52759.79
589.565	52899.22
589.925	53187.57
590.284	53197.51
590.643	53347.34
591.003	53426.89
591.362	53730.83
591.721	53746.65
592.08	53815.35
592.44	54039.75
592.799	54033.42
593.158	54194.78
593.517	54224.61
593.876	54393.41
594.235	54401.1
594.593	54458.95
594.952	54679.06
595.311	54697.59
595.67	54767.87
596.029	55073.17
596.387	55204.01
596.746	55319.04
597.104	55245.14
597.463	55388.42
597.822	55591.8
598.18	55591.12
598.538	55625.47
598.897	55923.77
599.255	55791.12
599.613	56167.83
599.972	56088.29
600.33	56219.81
600.688	56195.85
601.046	56378
601.404	56564.43
601.762	56609.85
602.12	56749.06
602.478	56858.89
602.836	56957.64
603.194	56877.19
603.552	57088.94
603.91	57003.29
604.268	57140.91
604.625	57263.4
604.983	57494.8
605.341	57407.35
605.698	57591.52
606.056	57756.94
606.413	57708.13
606.771	57978.4
607.128	57977.05
607.485	57924.85
607.843	57973.21
608.2	58177.27
608.557	58332.52
608.914	58260.66
609.272	58463.82
609.629	58550.37
609.986	58685.05
610.343	58671.27
610.7	58847.99
611.057	58869.68
611.414	58888.89
611.771	59019.06
612.127	59062.67
612.484	59150.58
612.841	59318.93
613.198	59180.18
613.554	59171.82
613.911	59475.54
614.267	59526.39
614.624	59519.83
614.98	59651.81
615.337	59781.3
615.693	59739.71
616.05	59822.65
616.406	59958.24
616.762	59904
617.118	59960.95
617.475	59949.2
617.831	60122.76
618.187	60184.22
618.543	60185.8
618.899	60383.31
619.255	60330.89
619.611	60263.09
619.967	60410.66
620.323	60446.81
620.678	60409.08
621.034	60443.65
621.39	60432.35
621.746	60518.9
622.101	60759.57
622.457	60561.61
622.812	60659.24
623.168	60757.77
623.523	60788.27
623.879	60802.96
624.234	60716.41
624.589	60837.54
624.945	60873.47
625.3	60892
625.655	60924.09
626.01	60934.03
626.365	60894.94
626.72	60856.52
627.075	60927.48
627.43	60895.16
627.785	60952.34
628.14	60931.1
628.495	60989.63
628.85	61014.03
629.205	60952.56
629.559	61022.17
629.914	60973.81
630.269	60995.05
630.623	60873.24
630.978	60884.77
631.332	60975.84
631.687	60943.07
632.041	60913.92
632.396	60915.95
632.75	60835.05
633.104	60933.81
633.459	60888.61
633.813	60829.18
634.167	60786.92
634.521	60898.55
634.875	60823.53
635.229	60779.24
635.583	60676.87
635.937	60669.63
636.291	60623.99
636.645	60689.29
636.999	60645.45
637.352	60674.15
637.706	60500.15
638.06	60605.91
638.413	60501.73
638.767	60432.8
639.121	60578.56
639.474	60442.97
639.828	60400.49
640.181	60428.96
640.534	60442.29
640.888	60311.68
641.241	60279.81
641.594	60359.13
641.947	60392.13
642.301	60306.71
642.654	60287.5
643.007	60274.62
643.36	60296.99
643.713	60201.62
644.066	60281.62
644.419	60128.4
644.771	59870.78
645.124	59681.64
645.477	59682.77
645.83	59551.24
646.182	59543.56
646.535	59518.93
646.888	59618.59
647.24	59516.22
647.593	59579.27
647.945	59500.85
648.298	59460.85
648.65	59311.7
649.002	59180.41
649.355	59179.05
649.707	59159.16
650.059	59099.28
650.411	59398.93
650.763	59564.58
651.115	59890.67
651.467	59757.57
651.819	59758.25
652.171	59769.77
652.523	59707.85
652.875	59667.4
653.227	59560.96
653.578	59716.89
653.93	59614.52
654.282	59530
654.633	59513.05
654.985	59494.3
655.337	59563.45
655.688	59491.13
656.039	59599.15
656.391	59319.16
656.742	59349.44
657.094	59326.62
657.445	59421.08
657.796	59395.77
658.147	59275.09
658.498	59255.43
658.849	59377.46
659.2	59303.57
659.551	59168.43
659.902	59328.88
660.253	59249.11
660.604	59242.78
660.955	59146.96
661.306	59262.66
661.656	59156.45
662.007	59227.64
662.358	59199.84
662.708	59132.05
663.059	59108.09
663.409	59040.52
663.76	59113.52
664.11	59130.92
664.461	59103.8
664.811	59117.58
665.161	59068.09
665.511	59095.21
665.862	59025.83
666.212	59050.92
666.562	59108.77
666.912	59067.42
667.262	58957.36
667.612	58967.31
667.962	59048.21
668.312	58940.19
668.662	59069.9
669.011	59015.89
669.361	59033.97
669.711	58951.03
670.06	58930.47
670.41	58888.44
670.76	58863.35
671.109	58974.99
671.459	58950.81
671.808	58921.66
672.157	58958.94
672.507	58784.49
672.856	58787.2
673.205	58811.6
673.554	58890.25
673.904	58790.81
674.253	58976.57
674.602	58785.39
674.951	58500.65
675.3	58352.41
675.649	58804.6
675.998	58797.14
676.346	58806.18
676.695	58864.26
677.044	58750.81
677.393	58861.77
677.741	58812.51
678.09	58728.44
678.438	58673.75
678.787	58759.4
679.135	58713.53
679.484	58577.03
679.832	58656.35
680.181	58544.04
680.529	58614.77
680.877	58502.91
681.225	58556.24
681.573	58685.96
681.922	58477.15
682.27	58445.51
682.618	58454.1
682.966	58403.48
683.314	58401.44
683.661	58359.64
684.009	58314.44
684.357	58253.43
684.705	58183.15
685.053	58238.96
685.4	58144.73
685.748	58142.47
686.095	58069.93
686.443	58002.36
686.79	57995.81
687.138	58004.84
687.485	58029.25
687.832	57926.65
688.18	57996.94
688.527	57862.7
688.874	57869.26
689.221	57877.62
689.568	57731.41
689.915	57662.71
690.262	57779.77
690.609	57626.1
690.956	57582.03
691.303	57607.12
691.65	57415.03
691.997	57456.84
692.344	57276.05
692.69	57316.5
693.037	57356.05
693.383	57056.17
693.73	57237.41
694.077	57103.17
694.423	57059.11
694.769	57033.12
695.116	56932.1
695.462	56969.84
695.808	56870.19
696.155	56833.12
696.501	56655.28
696.847	56737.53
697.193	56485.11
697.539	56560.82
697.885	56321.5
698.231	56275.62
698.577	56277.21
698.923	56173.03
699.269	56098.91
699.614	55982.75
699.96	55945.92
700.306	56004.9
700.651	55928.52
700.997	55869.53
701.342	55756.32
701.688	55800.84
702.033	55629.09
702.379	55749.54
702.724	55521.52
703.069	55659.82
703.415	55369.21
703.76	55312.49
704.105	55282.66
704.45	55203.79
704.795	55083.34
705.14	54978.94
705.485	55081.76
705.83	54749.56
706.175	54962.44
706.52	54816.45
706.865	54703.24
707.209	54643.8
707.554	54680.86
707.899	54610.58
708.243	54529.68
708.588	54453.75
708.932	54270.71
709.277	54343.7
709.621	54212.4
709.966	54038.4
710.31	54149.58
710.654	53915.91
710.998	53992.52
711.342	54010.6
711.687	53908.91
712.031	53726.54
712.375	53590.05
712.719	53620.33
713.063	53596.37
713.407	53611.51
713.75	53574.45
714.094	53433.67
714.438	53322.26
714.782	53269.15
715.125	53146.67
715.469	53342.37
715.812	53045.65
716.156	53067.35
716.499	53051.75
716.843	53036.16
717.186	52955.94
717.53	52956.84
717.873	52935.37
718.216	52755.72
718.559	52661.48
718.902	52591.88
719.246	52643.86
719.589	52475.72
719.932	52442.28
720.275	52472.11
720.617	52475.95
720.96	52332.45
721.303	52286.35
721.646	52350.3
721.989	52134.26
722.331	52167.03
722.674	52078.67
723.016	52055.85
723.359	51969.07
723.701	51967.72
724.044	51909.19
724.386	51742.86
724.729	51814.95
725.071	51691.34
725.413	51645.24
725.755	51634.39
726.097	51562.75
726.439	51484.34
726.782	51418.13
727.124	51493.38
727.465	51456.32
727.807	51272.82
728.149	51345.36
728.491	51224.91
728.833	51330.67
729.175	51172.93
729.516	51134.74
729.858	51167.06
730.199	51133.16
730.541	51072.82
730.882	50883.22
731.224	50849.1
731.565	50705.83
731.906	50814.3
732.248	50826.73
732.589	50687.98
732.93	50601.2
733.271	50659.28
733.612	50520.52
733.953	50680.74
734.294	50453.18
734.635	50284.14
734.976	50499.96
735.317	50275.56
735.658	50460.41
735.999	50259.06
736.339	50261.77
736.68	50253.86
737.021	50098.84
737.361	50030.82
737.702	50227.87
738.042	50149.68
738.383	50032.63
738.723	50011.16
739.063	49918.73
739.404	49934.32
739.744	49884.15
740.084	49780.2
740.424	49824.5
740.764	49800.54
741.104	49782.91
741.444	49607.33
741.784	49481.68
742.124	49589.25
742.464	49440.55
742.804	49459.98
743.143	49276.94
743.483	49264.28
743.823	49268.13
744.162	49196.49
744.502	49333.66
744.841	49036.95
745.181	49252.31
745.52	49080.56
745.86	49276.49
746.199	49070.16
746.538	49016.15
746.877	49068.36
747.216	48946.55
747.556	48866.78
747.895	48927.57
748.234	48754.47
748.573	48771.64
748.911	48627.24
749.25	48516.05
749.589	48452.33
749.928	48490.97
750.267	48470.63
750.605	48341.37
750.944	48297.08
751.283	48282.39
751.621	48296.17
751.96	48027.03
752.298	47994.49
752.636	48099.79
752.975	48019.12
753.313	47761.5
753.651	48012.34
753.989	47896.86
754.327	47738.22
754.666	47449.87
755.004	47661.84
