Data from 7548_FLMS001491_009.txt Node
Date: Thu Apr 12 17:06:35 BST 2018
User: hsy
Spectrometer: FLMS00149
Trigger mode: 0
Integration Time (sec): 1.000000E-2
Scans to average: 10
Electric dark correction enabled: true
Nonlinearity correction enabled: false
Boxcar width: 0
XAxis mode: Wavelengths
Number of Pixels in Spectrum: 2048
>>>>>Begin Spectral Data<<<<<
341.393	1.58
341.776	1.58
342.16	1.58
342.543	-51.75
342.927	-77.06
343.31	-92.43
343.693	-49.04
344.077	-67.34
344.46	-72.99
344.843	-56.04
345.226	-52.65
345.61	-32.99
345.993	-3.39
346.376	2.03
346.759	28.7
347.142	36.16
347.525	14.91
347.908	78.42
348.291	74.35
348.674	88.13
349.057	104.18
349.44	122.48
349.823	126.1
350.206	184.4
350.588	229.82
350.971	245.87
351.354	272.08
351.737	284.74
352.119	269.37
352.502	297.17
352.884	312.76
353.267	312.53
353.65	321.57
354.032	347.34
354.414	347.79
354.797	366.09
355.179	370.84
355.562	362.25
355.944	359.99
356.326	383.27
356.709	389.82
357.091	371.06
357.473	377.39
357.855	376.71
358.238	379.2
358.62	392.53
359.002	388.46
359.384	401.35
359.766	379.2
360.148	384.4
360.53	399.54
360.912	384.85
361.294	362.93
361.676	394.79
362.057	376.94
362.439	379.43
362.821	347.56
363.203	374.45
363.584	394.11
363.966	398.18
364.348	363.15
364.729	388.01
365.111	371.06
365.493	382.14
365.874	381.01
366.256	368.8
366.637	375.13
367.019	369.93
367.4	377.84
367.781	381.46
368.163	369.03
368.544	389.59
368.925	382.81
369.306	397.96
369.688	365.87
370.069	362.25
370.45	381.68
370.831	357.73
371.212	374.45
371.593	384.4
371.974	373.55
372.355	397.73
372.736	389.59
373.117	364.96
373.498	377.84
373.879	393.66
374.26	362.7
374.641	414.9
375.021	377.17
375.402	418.29
375.783	410.38
376.163	374.68
376.544	409.48
376.925	391.85
377.305	413.1
377.686	416.71
378.066	390.72
378.447	385.3
378.827	408.58
379.208	396.83
379.588	423.94
379.968	412.64
380.349	418.52
380.729	427.33
381.109	431.85
381.489	427.11
381.87	427.11
382.25	433.43
382.63	438.86
383.01	405.41
383.39	429.59
383.77	432.53
384.15	421.68
384.53	454.45
384.91	449.93
385.29	458.74
385.67	445.64
386.049	449.25
386.429	435.92
386.809	467.11
387.189	462.36
387.568	477.5
387.948	453.55
388.328	450.61
388.707	456.03
389.087	465.75
389.466	481.57
389.846	456.49
390.225	470.72
390.605	484.28
390.984	481.8
391.363	480.89
391.743	480.67
392.122	478.18
392.501	512.53
392.881	489.93
393.26	495.13
393.639	503.49
394.018	504.17
394.397	528.12
394.776	527.22
395.155	516.82
395.534	517.95
395.913	515.24
396.292	540.1
396.671	527.44
397.05	542.13
397.429	502.13
397.808	534
398.186	538.29
398.565	527.44
398.944	549.59
399.323	536.03
399.701	532.64
400.08	539.65
400.458	554.56
400.837	536.94
401.215	545.75
401.594	556.14
401.972	572.64
402.351	565.18
402.729	578.06
403.107	567.89
403.486	592.53
403.864	586.88
404.242	581
404.62	586.88
404.999	588.46
405.377	609.93
405.755	587.1
406.133	594.56
406.511	610.38
406.889	607.44
407.267	612.64
407.645	633.66
408.023	628.01
408.401	633.66
408.779	638.18
409.156	651.51
409.534	663.71
409.912	687.67
410.29	675.69
410.667	662.58
411.045	663.71
411.422	685.41
411.8	684.95
412.178	694.9
412.555	704.16
412.933	724.27
413.31	722.92
413.687	740.32
414.065	733.77
414.442	714.33
414.819	728.57
415.197	752.97
415.574	746.65
415.951	750.94
416.328	730.6
416.705	765.4
417.082	745.29
417.46	775.12
417.837	765.86
418.214	796.59
418.591	785.74
418.967	753.65
419.344	778.28
419.721	808.34
420.098	815.12
420.475	823.93
420.852	829.58
421.228	833.88
421.605	833.88
421.982	818.06
422.358	832.52
422.735	848.79
423.111	867.32
423.488	876.59
423.864	867.55
424.241	868.9
424.617	863.93
424.994	895.57
425.37	903.71
425.746	891.05
426.123	916.59
426.499	910.48
426.875	932.63
427.251	923.82
427.627	930.82
428.003	967.21
428.379	958.62
428.756	966.3
429.132	973.53
429.507	987.77
429.883	956.81
430.259	991.84
430.635	997.94
431.011	1013.76
431.387	1056.24
431.763	1046.98
432.138	1059.18
432.514	1050.59
432.89	1057.6
433.265	1084.72
433.641	1120.87
434.016	1101.44
434.392	1110.25
434.767	1099.18
435.143	1131.72
435.518	1150.25
435.894	1152.51
436.269	1132.4
436.644	1154.77
437.02	1172.62
437.395	1210.36
437.77	1201.55
438.145	1208.1
438.52	1205.17
438.895	1229.12
439.271	1220.76
439.646	1234.09
440.021	1250.81
440.395	1256.69
440.77	1239.06
441.145	1278.38
441.52	1300.98
441.895	1300.08
442.27	1335.11
442.645	1342.56
443.019	1348.21
443.394	1311.15
443.769	1295.56
444.143	1325.16
444.518	1314.54
444.892	1330.59
445.267	1329
445.641	1367.42
446.016	1376.01
446.39	1401.77
446.764	1407.19
447.139	1390.25
447.513	1386.63
447.887	1376.23
448.262	1416.46
448.636	1419.4
449.01	1417.36
449.384	1425.05
449.758	1461.2
450.132	1482.9
450.506	1486.29
450.88	1510.92
451.254	1485.38
451.628	1514.08
452.002	1551.15
452.376	1525.84
452.75	1563.57
453.123	1558.6
453.497	1569
453.871	1591.82
454.244	1647.19
454.618	1635.21
454.992	1693.97
455.365	1688.77
455.739	1727.19
456.112	1718.15
456.486	1744.13
456.859	1727.64
457.232	1765.38
457.606	1809.22
457.979	1827.07
458.352	1828.65
458.725	1869.1
459.099	1871.14
459.472	1878.14
459.845	1954.52
460.218	1943
460.591	1971.7
460.964	1977.12
461.337	2041.3
461.71	2043.11
462.083	2064.8
462.456	2081.75
462.829	2076.1
463.201	2140.06
463.574	2110.68
463.947	2152.94
464.32	2190.45
464.692	2179.6
465.065	2246.27
465.438	2241.07
465.81	2300.05
466.183	2279.26
466.555	2331.24
466.928	2363.1
467.3	2354.97
467.672	2389.77
468.045	2434.29
468.417	2421.63
468.789	2448.75
469.161	2507.5
469.534	2536.66
469.906	2570.78
470.278	2582.53
470.65	2599.03
471.022	2661.17
471.394	2704.34
471.766	2728.97
472.138	2777.33
472.51	2815.52
472.882	2858
473.253	2841.73
473.625	2946.36
473.997	2980.94
474.369	2980.26
474.74	3028.85
475.112	3085.34
475.484	3130.54
475.855	3186.58
476.227	3272.46
476.598	3328.95
476.97	3328.5
477.341	3423.64
477.713	3519.68
478.084	3522.17
478.455	3587.25
478.827	3630.64
479.198	3721.94
479.569	3752.44
479.94	3855.04
480.311	3897.75
480.682	4003.96
481.053	4043.96
481.424	4163.73
481.795	4215.71
482.166	4285.99
482.537	4349.94
482.908	4471.97
483.279	4535.02
483.65	4621.12
484.021	4696.83
484.391	4807.56
484.762	4869.02
485.133	4924.62
485.503	5062.24
485.874	5219.3
486.244	5288.67
486.615	5400.99
486.985	5460.87
487.356	5588.55
487.726	5684.14
488.097	5874.87
488.467	5941.09
488.837	6051.14
489.207	6126.39
489.578	6281.19
489.948	6447.51
490.318	6583.56
490.688	6686.38
491.058	6821.52
491.428	6997.78
491.798	7093.15
492.168	7278.68
492.538	7406.36
492.908	7561.16
493.278	7725.9
493.648	7871.66
494.017	8078.88
494.387	8248.14
494.757	8291.99
495.126	8532.88
495.496	8666.66
495.866	8793.67
496.235	9033.89
496.605	9205.63
496.974	9338.96
497.344	9524.95
497.713	9781.21
498.082	9885.84
498.452	10113.86
498.821	10307.75
499.19	10508.88
499.559	10726.27
499.928	10940.28
500.298	11181.85
500.667	11248.97
501.036	11489.19
501.405	11648.73
501.774	11900.93
502.143	12063.19
502.512	12263.41
502.88	12557.86
503.249	12694.58
503.618	13001.24
503.987	13154
504.356	13401.46
504.724	13603.48
505.093	13746.76
505.462	14055.45
505.83	14189.68
506.199	14476.91
506.567	14828.99
506.936	14989.44
507.304	15179.04
507.672	15411.57
508.041	15692.47
508.409	15964.78
508.777	16160.71
509.145	16460.81
509.514	16493.13
509.882	16832.78
510.25	17060.34
510.618	17323.39
510.986	17402.71
511.354	17764.96
511.722	18026.42
512.09	18271.61
512.458	18310.48
512.826	18667.76
513.193	18848.09
513.561	18981.2
513.929	19145.71
514.297	19516.1
514.664	19746.6
515.032	19935.07
515.4	20160.15
515.767	20365.57
516.135	20596.29
516.502	20591.32
516.869	21023.4
517.237	21208.93
517.604	21197.63
517.972	21464.29
518.339	21760.11
518.706	21882.36
519.073	22117.84
519.44	22269.7
519.808	22632.85
520.175	22774.77
520.542	23032.16
520.909	23198.94
521.276	23365.04
521.643	23703.78
522.009	23818.36
522.376	24111.91
522.743	24284.33
523.11	24599.35
523.477	24931.32
523.843	25061.26
524.21	25327.24
524.577	25618.76
524.943	25743.73
525.31	26030.28
525.676	26266.65
526.043	26578.51
526.409	26760.65
526.776	26963.36
527.142	27159.06
527.508	27339.17
527.874	27642.44
528.241	27733.28
528.607	27994.29
528.973	28193.83
529.339	28399.71
529.705	28716.08
530.071	28926.02
530.437	29077.88
530.803	29339.12
531.169	29371.43
531.535	29615.49
531.901	29758.31
532.267	29981.81
532.632	30246.89
532.998	30432.19
533.364	30540.89
533.73	30665.18
534.095	30970.49
534.461	31111.5
534.826	31396.46
535.192	31438.95
535.557	31680.97
535.923	31576.34
536.288	31888.65
536.653	32045.94
537.019	32164.13
537.384	32319.83
537.749	32415.42
538.114	32386.95
538.479	32540.39
538.845	32710.78
539.21	32662.87
539.575	33075.06
539.94	33131.56
540.305	33215.17
540.67	33152.57
541.034	33385.79
541.399	33458.56
541.764	33684.76
542.129	33807.02
542.494	33949.16
542.858	34115.26
543.223	33923.4
543.587	34333.56
543.952	34364.75
544.316	34433.44
544.681	34421.02
545.045	34744.62
545.41	34748.01
545.774	34999.53
546.138	34965.41
546.503	35163.82
546.867	35204.27
547.231	35428
547.595	35606.75
547.959	35670.47
548.324	35623.47
548.688	35737.59
549.052	35864.14
549.416	35832.5
549.779	36042.67
550.143	36105.27
550.507	36528.98
550.871	36491.47
551.235	36482.43
551.599	36760.39
551.962	36969.88
552.326	36974.62
552.689	37140.04
553.053	37146.37
553.417	37246.48
553.78	37580.93
554.143	37662.06
554.507	37764.88
554.87	37981.37
555.234	38302.95
555.597	38105.21
555.96	38404.64
556.323	38400.57
556.686	38499.55
557.05	38863.38
557.413	38909.03
557.776	38843.72
558.139	39172.53
558.502	39216.14
558.865	39242.36
559.228	39607.32
559.59	39635.57
559.953	39935.9
560.316	40328.88
560.679	40266.96
561.041	40500.4
561.404	40799.15
561.767	41038.69
562.129	40944.01
562.492	41227.84
562.854	41340.83
563.217	41429.42
563.579	41556.87
563.941	41811.1
564.304	41973.59
564.666	42262.62
565.028	42320.24
565.39	42516.85
565.753	42814.92
566.115	42948.02
566.477	43052.2
566.839	43215.13
567.201	43527.9
567.563	43466.43
567.925	43778.06
568.287	43978.73
568.648	44073.87
569.01	44295.78
569.372	44686.06
569.734	44582.1
570.095	45013.73
570.457	45179.6
570.819	45205.82
571.18	45291.01
571.542	45691
571.903	45704.79
572.265	45888.96
572.626	46042.41
572.987	46085.34
573.349	46395.62
573.71	46430.42
574.071	46619.34
574.432	46961.7
574.794	47202.6
575.155	47308.13
575.516	47353.11
575.877	47486.89
576.238	47638.3
576.599	47829.7
576.96	47907.21
577.32	48019.53
577.681	48221.33
578.042	48511.49
578.403	48531.61
578.763	48623.81
579.124	48661.09
579.485	49067.41
579.845	49355.99
580.206	49080.74
580.566	49319.61
580.927	49323.45
581.287	49688.64
581.648	49651.35
582.008	49852.47
582.368	50008.4
582.728	50111.45
583.089	50269.86
583.449	50281.62
583.809	50417.66
584.169	50657.88
584.529	50632.12
584.889	51004.76
585.249	50975.16
585.609	50918.66
585.969	51263.74
586.329	51350.51
586.688	51527.01
587.048	51602.71
587.408	51654.91
587.768	51792.54
588.127	51927.45
588.487	52080.89
588.846	52281.11
589.206	52258.06
589.565	52273.43
589.925	52656.92
590.284	52665.51
590.643	52756.13
591.003	52904.6
591.362	53164.93
591.721	53231.37
592.08	53281.08
592.44	53560.4
592.799	53566.5
593.158	53598.14
593.517	53704.35
593.876	53935.76
594.235	53886.72
594.593	54026.15
594.952	54184.79
595.311	54317.44
595.67	54418.68
596.029	54600.82
596.387	54730.99
596.746	54890.76
597.104	54764.89
597.463	54916.52
597.822	55230.41
598.18	55094.82
598.538	55168.27
598.897	55438.99
599.255	55416.85
599.613	55780.45
599.972	55628.82
600.33	55808.7
600.688	55877.17
601.046	55991.97
601.404	56175.02
601.762	56164.4
602.12	56336.37
602.478	56409.36
602.836	56585.18
603.194	56487.55
603.552	56607.1
603.91	56623.82
604.268	56742.01
604.625	56849.35
604.983	56954.43
605.341	56911.27
605.698	57143.13
606.056	57360.75
606.413	57283.47
606.771	57454.53
607.128	57508.32
607.485	57514.65
607.843	57572.27
608.2	57720.97
608.557	57874.64
608.914	57844.58
609.272	58020.4
609.629	58060.62
609.986	58225.81
610.343	58208.41
610.7	58429.2
611.057	58432.59
611.414	58433.49
611.771	58557.78
612.127	58645.69
612.484	58729.76
612.841	58853.82
613.198	58758.91
613.554	58839.58
613.911	59048.39
614.267	59052.68
614.624	59079.58
614.98	59205.9
615.337	59397.08
615.693	59352.79
616.05	59347.37
616.406	59481.6
616.762	59472.11
617.118	59571.99
617.475	59556.17
617.831	59683.18
618.187	59725.89
618.543	59771.31
618.899	59882.49
619.255	59927.46
619.611	59848.6
619.967	60056.5
620.323	60087.23
620.678	60048.59
621.034	60022.15
621.39	60110.06
621.746	60174.46
622.101	60392.54
622.457	60187.8
622.812	60396.38
623.168	60405.64
623.523	60354.35
623.879	60486.55
624.234	60400.67
624.589	60474.79
624.945	60520.89
625.3	60527.67
625.655	60544.85
626.01	60630.95
626.365	60624.39
626.72	60576.94
627.075	60543.94
627.43	60600.44
627.785	60651.51
628.14	60609.25
628.495	60600.21
628.85	60689.48
629.205	60579.88
629.559	60725.86
629.914	60585.75
630.269	60642.02
630.623	60542.14
630.978	60452.65
631.332	60600.67
631.687	60603.83
632.041	60587.33
632.396	60571.74
632.75	60535.36
633.104	60534
633.459	60452.2
633.813	60458.75
634.167	60422.82
634.521	60469.82
634.875	60463.72
635.229	60394.34
635.583	60327.91
635.937	60331.75
636.291	60390.05
636.645	60368.13
636.999	60292.2
637.352	60342.37
637.706	60168.59
638.06	60316.83
638.413	60143.28
638.767	60178.98
639.121	60136.05
639.474	60070.96
639.828	60118.65
640.181	60160.68
640.534	60151.86
640.888	60032.32
641.241	59920.91
641.594	59971.98
641.947	60045.43
642.301	59957.75
642.654	59962.72
643.007	59898.54
643.36	59974.92
643.713	59934.7
644.066	59994.58
644.419	59854.25
644.771	59559.34
645.124	59345.11
645.477	59317.54
645.83	59237.99
646.182	59222.62
646.535	59154.6
646.888	59192.57
647.24	59092.23
647.593	59252
647.945	59130.87
648.298	59066.47
648.65	58919.58
649.002	58828.06
649.355	58781.73
649.707	58721.62
650.059	58713.26
650.411	59066.7
650.763	59154.15
651.115	59542.39
651.467	59445.22
651.819	59391.66
652.171	59327.71
652.523	59259.23
652.875	59315.05
653.227	59130.42
653.578	59356.63
653.93	59286.12
654.282	59145.79
654.633	59176.07
654.985	59195.51
655.337	59186.01
655.688	59120.03
656.039	59165.9
656.391	58936.08
656.742	59077.32
657.094	59042.52
657.445	59041.16
657.796	59068.28
658.147	58945.12
658.498	59080.48
658.849	59029.18
659.2	58967.72
659.551	58868.73
659.902	59038.45
660.253	58843.42
660.604	58946.92
660.955	58834.39
661.306	58942.86
661.656	58765.01
662.007	58769.98
662.358	58816.76
662.708	58818.11
663.059	58798
663.409	58666.03
663.76	58806.36
664.11	58839.13
664.461	58809.08
664.811	58740.15
665.161	58733.14
665.511	58685.01
665.862	58638.68
666.212	58738.34
666.562	58710.55
666.912	58693.15
667.262	58621.06
667.612	58631.9
667.962	58693.6
668.312	58549.87
668.662	58704.67
669.011	58623.09
669.361	58574.05
669.711	58649.98
670.06	58592.36
670.41	58484.11
670.76	58497.44
671.109	58521.17
671.459	58556.65
671.808	58523.21
672.157	58537.9
672.507	58425.81
672.856	58411.35
673.205	58466.49
673.554	58555.97
673.904	58447.5
674.253	58593.94
674.602	58474.62
674.951	58158.24
675.3	58043.22
675.649	58462.19
675.998	58448.41
676.346	58522.75
676.695	58524.56
677.044	58249.09
677.393	58416.54
677.741	58485.24
678.09	58380.39
678.438	58343.55
678.787	58439.37
679.135	58358.47
679.484	58209.99
679.832	58295.42
680.181	58240.05
680.529	58265.81
680.877	58182.42
681.225	58172.93
681.573	58422.87
681.922	58147.17
682.27	58124.57
682.618	58097.91
682.966	58084.57
683.314	58103.11
683.661	58058.59
684.009	57954.18
684.357	57985.82
684.705	57860.63
685.053	57904.92
685.4	57819.5
685.748	57770.46
686.095	57711.7
686.443	57704.47
686.79	57707.64
687.138	57723
687.485	57704.47
687.832	57590.35
688.18	57677.81
688.527	57485.04
688.874	57530.46
689.221	57506.06
689.568	57332.73
689.915	57359.4
690.262	57322.33
690.609	57259.74
690.956	57253.41
691.303	57197.14
691.65	57114.66
691.997	57086.18
692.344	56989.24
692.69	57063.81
693.037	56994.66
693.383	56777.94
693.73	56924.83
694.077	56753.54
694.423	56715.8
694.769	56702.69
695.116	56709.92
695.462	56570.94
695.808	56414.79
696.155	56522.13
696.501	56322.81
696.847	56371.4
697.193	56279.65
697.539	56315.58
697.885	56066.55
698.231	55973.44
698.577	56052.54
698.923	55994.91
699.269	55816.39
699.614	55771.19
699.96	55732.32
700.306	55695.94
700.651	55583.85
700.997	55485.77
701.342	55478.09
701.688	55499.78
702.033	55369.17
702.379	55443.29
702.724	55119.23
703.069	55237.64
703.415	55015.5
703.76	54965.11
704.105	55016.41
704.45	54917.43
704.795	54819.12
705.14	54716.3
705.485	54812.8
705.83	54510.43
706.175	54658.45
706.52	54527.61
706.865	54466.14
707.209	54334.16
707.554	54286.03
707.899	54277.22
708.243	54126.71
708.588	54086.94
708.932	54004.46
709.277	53947.96
709.621	53879.26
709.966	53717.46
710.31	53733.73
710.654	53542.1
710.998	53610.57
711.342	53581.42
711.687	53469.55
712.031	53393.85
712.375	53319.28
712.719	53186.85
713.063	53165.38
713.407	53316.11
713.75	53041.32
714.094	53081.99
714.438	52977.59
714.782	52950.7
715.125	52724.72
715.469	52964.94
715.812	52672.06
716.156	52634.32
716.499	52589.13
716.843	52667.32
717.186	52486.08
717.53	52602.91
717.873	52597.94
718.216	52399.07
718.559	52304.84
718.902	52109.82
719.246	52250.15
719.589	52086.54
719.932	52054.22
720.275	51977.16
720.617	52105.97
720.96	51917.28
721.303	52018.52
721.646	51948.24
721.989	51734.68
722.331	51798.64
722.674	51653.56
723.016	51730.62
723.359	51500.34
723.701	51615.82
724.044	51422.15
724.386	51331.76
724.729	51379.44
725.071	51486.33
725.413	51344.41
725.755	51229.16
726.097	51212.44
726.439	50996.63
726.782	50922.73
727.124	51129.96
727.465	50930.64
727.807	50960.02
728.149	50849.74
728.491	50823.52
728.833	50843.63
729.175	50805.44
729.516	50686.12
729.858	50631.21
730.199	50673.92
730.541	50683.87
730.882	50536.98
731.224	50480.25
731.565	50296.3
731.906	50458.79
732.248	50494.49
732.589	50264.89
732.93	50167.27
733.271	50224.44
733.612	50087.72
733.953	50273.25
734.294	49961.17
734.635	49919.82
734.976	50063.32
735.317	49923.43
735.658	49923.66
735.999	49796.2
736.339	49820.84
736.68	49764.57
737.021	49833.72
737.361	49599.15
737.702	49912.36
738.042	49637.11
738.383	49628.75
738.723	49753.95
739.063	49432.15
739.404	49602.76
739.744	49468.3
740.084	49346.27
740.424	49386.72
740.764	49336.78
741.104	49512.82
741.444	49129.33
741.784	49130.23
742.124	49350.79
742.464	49145.6
742.804	49033.51
743.143	48939.05
743.483	49079.39
743.823	49022.89
744.162	48884.14
744.502	48958.71
744.841	48734.76
745.181	48925.27
745.52	48722.79
745.86	48728.44
746.199	48690.92
746.538	48602.79
746.877	48617.7
747.216	48532.51
747.556	48429.01
747.895	48449.8
748.234	48338.62
748.573	48191.95
748.911	48118.73
749.25	48242.8
749.589	48001.68
749.928	48088.68
750.267	48068.79
750.605	47964.84
750.944	47859.31
751.283	47868.8
751.621	47841.68
751.96	47651.18
752.298	47647.33
752.636	47703.6
752.975	47519.2
753.313	47199.66
753.651	47479.66
753.989	47219.32
754.327	47329.38
754.666	47072.89
755.004	47095.03
755.342	47074.24
