Data from 7548_FLMS001491_002.txt Node
Date: Thu Apr 12 17:06:19 BST 2018
User: hsy
Spectrometer: FLMS00149
Trigger mode: 0
Integration Time (sec): 1.000000E-2
Scans to average: 10
Electric dark correction enabled: true
Nonlinearity correction enabled: false
Boxcar width: 0
XAxis mode: Wavelengths
Number of Pixels in Spectrum: 2048
>>>>>Begin Spectral Data<<<<<
341.393	3.35
341.776	3.35
342.16	3.35
342.543	-56.31
342.927	-71.9
343.31	-63.77
343.693	-71.68
344.077	-50.44
344.46	-62.41
344.843	-58.35
345.226	-71.23
345.61	-44.33
345.993	-23.77
346.376	7.87
346.759	6.51
347.142	37.02
347.525	50.35
347.908	50.35
348.291	70.92
348.674	100.75
349.057	122.21
349.44	120.63
349.823	134.87
350.206	173.06
350.588	247.41
350.971	267.3
351.354	281.76
351.737	276.79
352.119	272.72
352.502	318.14
352.884	334.19
353.267	308.65
353.65	327.86
354.032	332.38
354.414	336.67
354.797	366.73
355.179	364.24
355.562	373.73
355.944	350.46
356.326	382.09
356.709	391.13
357.091	386.39
357.473	378.48
357.855	380.29
358.238	392.26
358.62	379.16
359.002	377.8
359.384	397.46
359.766	411.25
360.148	380.29
360.53	394.75
360.912	390.91
361.294	393.85
361.676	370.57
362.057	390
362.439	395.2
362.821	394.3
363.203	388.87
363.584	379.16
363.966	391.59
364.348	382.09
364.729	403.56
365.111	375.09
365.493	379.16
365.874	353.17
366.256	364.92
366.637	367.18
367.019	351.13
367.4	378.25
367.781	379.61
368.163	379.38
368.544	370.12
368.925	390.68
369.306	390.23
369.688	375.77
370.069	393.17
370.45	368.08
370.831	385.26
371.212	382.32
371.593	387.29
371.974	373.28
372.355	379.38
372.736	396.56
373.117	395.65
373.498	387.29
373.879	394.07
374.26	371.02
374.641	398.14
375.021	379.16
375.402	422.09
375.783	410.34
376.163	414.86
376.544	402.66
376.925	392.04
377.305	396.78
377.686	392.04
378.066	418.93
378.447	409.89
378.827	408.31
379.208	410.57
379.588	435.43
379.968	431.58
380.349	403.56
380.729	414.86
381.109	428.42
381.489	426.16
381.87	407.18
382.25	428.42
382.63	446.05
383.01	444.47
383.39	425.03
383.77	434.97
384.15	438.14
384.53	443.11
384.91	449.89
385.29	456.44
385.67	446.27
386.049	477.23
386.429	440.62
386.809	451.25
387.189	474.75
387.568	458.25
387.948	465.48
388.328	460.96
388.707	488.08
389.087	483.56
389.466	485.59
389.846	481.53
390.225	486.95
390.605	505.03
390.984	492.83
391.363	488.08
391.743	518.36
392.122	512.49
392.501	503.22
392.881	493.28
393.26	522.66
393.639	516.1
394.018	512.26
394.397	523.79
394.776	499.61
395.155	539.38
395.534	520.17
395.913	519.94
396.292	530.57
396.671	540.06
397.05	548.42
397.429	531.24
397.808	522.43
398.186	550
398.565	558.14
398.944	561.07
399.323	546.16
399.701	587.06
400.08	546.38
400.458	584.8
400.837	574.41
401.215	579.83
401.594	578.02
401.972	577.12
402.351	588.64
402.729	573.05
403.107	593.39
403.486	589.55
403.864	607.63
404.242	612.14
404.62	622.77
404.999	610.79
405.377	608.08
405.755	630
406.133	644.23
406.511	620.05
406.889	651.24
407.267	653.5
407.645	657.57
408.023	682.65
408.401	689.66
408.779	666.15
409.156	668.64
409.534	687.17
409.912	681.3
410.29	704.8
410.667	709.54
411.045	699.83
411.422	741.41
411.8	725.59
412.178	707.74
412.555	747.51
412.933	752.48
413.31	764.01
413.687	769.43
414.065	782.08
414.442	770.33
414.819	785.02
415.197	770.78
415.574	799.03
415.951	791.12
416.328	808.52
416.705	801.52
417.082	812.82
417.46	813.72
417.837	818.02
418.214	837
418.591	821.86
418.967	841.07
419.344	842.2
419.721	859.37
420.098	865.47
420.475	871.35
420.852	868.64
421.228	889.43
421.605	880.39
421.982	875.41
422.358	897.11
422.735	911.35
423.111	890.33
423.488	905.02
423.864	926.94
424.241	915.19
424.617	929.2
424.994	935.98
425.37	934.85
425.746	927.84
426.123	934.17
426.499	943.66
426.875	958.35
427.251	994.51
427.627	999.71
428.003	1014.85
428.379	1015.3
428.756	1029.99
429.132	1040.83
429.507	1024.34
429.883	1053.72
430.259	1060.04
430.635	1069.53
431.011	1054.85
431.387	1088.52
431.763	1076.99
432.138	1112.7
432.514	1103.43
432.89	1143.43
433.265	1135.07
433.641	1172.81
434.016	1161.28
434.392	1182.07
434.767	1201.73
435.143	1191.79
435.518	1222.07
435.894	1243.99
436.269	1242.18
436.644	1261.17
437.02	1254.84
437.395	1278.57
437.77	1304.56
438.145	1298.45
438.52	1321.96
438.895	1328.51
439.271	1340.94
439.646	1332.13
440.021	1337.32
440.395	1334.84
440.77	1370.09
441.145	1376.42
441.52	1395.18
441.895	1370.77
442.27	1387.49
442.645	1389.07
443.019	1408.51
443.394	1388.4
443.769	1416.87
444.143	1433.59
444.518	1424.1
444.892	1444.44
445.267	1465.91
445.641	1450.77
446.016	1474.5
446.39	1455.29
446.764	1471.78
447.139	1504.32
447.513	1507.04
447.887	1502.29
448.262	1501.84
448.636	1522.63
449.01	1557.66
449.384	1554.72
449.758	1583.19
450.132	1613.02
450.506	1583.64
450.88	1608.05
451.254	1604.89
451.628	1635.39
452.002	1665.9
452.376	1658.67
452.75	1681.5
453.123	1693.25
453.497	1685.34
453.871	1725.79
454.244	1735.96
454.618	1792.9
454.992	1804.66
455.365	1816.63
455.739	1828.61
456.112	1836.75
456.486	1849.4
456.859	1884.65
457.232	1923.07
457.606	1935.05
457.979	1954.93
458.352	2006.23
458.725	2034.48
459.099	2018.21
459.472	2028.15
459.845	2079
460.218	2095.5
460.591	2128.04
460.964	2137.08
461.337	2176.62
461.71	2228.37
462.083	2248.71
462.456	2222.27
462.829	2231.09
463.201	2255.72
463.574	2281.48
463.947	2335.49
464.32	2340.91
464.692	2386.34
465.065	2374.36
465.438	2416.39
465.81	2469.95
466.183	2468.14
466.555	2507.24
466.928	2535.26
467.3	2529.83
467.672	2565.31
468.045	2657.51
468.417	2686.67
468.789	2682.6
469.161	2676.5
469.534	2745.2
469.906	2772.54
470.278	2812.31
470.65	2859.77
471.022	2867.9
471.394	2921.46
471.766	2937.06
472.138	2995.81
472.51	3078.75
472.882	3163.94
473.253	3124.62
473.625	3161.23
473.997	3247.56
474.369	3270.83
474.74	3302.7
475.112	3350.83
475.484	3425.4
475.855	3448
476.227	3505.4
476.598	3597.83
476.97	3631.95
477.341	3708.56
477.713	3791.95
478.084	3803.47
478.455	3937.03
478.827	3941.55
479.198	4077.36
479.569	4083.01
479.94	4231.03
480.311	4263.12
480.682	4340.86
481.053	4485.49
481.424	4491.82
481.795	4616.33
482.166	4641.87
482.537	4773.62
482.908	4857.01
483.279	4927.29
483.65	4986.72
484.021	5151.91
484.391	5245.24
484.762	5314.17
485.133	5398.46
485.503	5463.32
485.874	5659.02
486.244	5760.26
486.615	5854.72
486.985	5927.71
487.356	6058.78
487.726	6207.93
488.097	6314.82
488.467	6391.43
488.837	6573.8
489.207	6733.57
489.578	6841.13
489.948	6997.74
490.318	7208.58
490.688	7263.95
491.058	7394.57
491.428	7588.01
491.798	7647.21
492.168	7913.87
492.538	8023.25
492.908	8204.94
493.278	8369
493.648	8493.29
494.017	8679.73
494.387	8840.4
494.757	9013.28
495.126	9219.6
495.496	9365.14
495.866	9469.54
496.235	9714.96
496.605	9959.7
496.974	10111.78
497.344	10274.04
497.713	10466.35
498.082	10655.72
498.452	10881.25
498.821	11087.12
499.19	11203.05
499.559	11467.23
499.928	11680.33
500.298	11854.34
500.667	12132.29
501.036	12220.88
501.405	12429.69
501.774	12697.25
502.143	12969.11
502.512	13182.21
502.88	13451.81
503.249	13549.88
503.618	13757.56
503.987	13992.36
504.356	14248.4
504.724	14507.6
505.093	14635.28
505.462	14929.96
505.83	15106.23
506.199	15378.99
506.567	15684.07
506.936	15905.53
507.304	16127.67
507.672	16400.88
508.041	16616.92
508.409	16863.92
508.777	17069.34
509.145	17433.4
509.514	17472.27
509.882	17826.16
510.25	17998.58
510.618	18225.24
510.986	18418.91
511.354	18600.82
511.722	18978.67
512.09	19266.57
512.458	19424.98
512.826	19715.15
513.193	19820
513.561	20093.67
513.929	20302.7
514.297	20594.67
514.664	20728.45
515.032	20958.95
515.4	21278.04
515.767	21427.87
516.135	21731.59
516.502	21563.46
516.869	22185.81
517.237	22324.34
517.604	22267.62
517.972	22723.88
518.339	22931.78
518.706	23047.26
519.073	23209.74
519.44	23475.5
519.808	23865.32
520.175	23916.62
520.542	24254.24
520.909	24502.36
521.276	24694
521.643	24878.4
522.009	25185.51
522.376	25490.59
522.743	25582.11
523.11	25988.2
523.477	26237.69
523.843	26454.4
524.21	26788.41
524.577	27092.13
524.943	27210.77
525.31	27361.05
525.676	27817.76
526.043	28083.29
526.409	28158.54
526.776	28497.97
527.142	28643.5
527.508	28896.6
527.874	29148.34
528.241	29419.07
528.607	29487.77
528.973	29886.63
529.339	29859.29
529.705	30243
530.071	30468.31
530.437	30755.31
530.803	31033.04
531.169	31263.09
531.535	31251.79
531.901	31548.73
532.267	31652.46
532.632	31995.5
532.998	32094.48
533.364	32238.88
533.73	32365.21
534.095	32591.19
534.461	32610.17
534.826	32868.47
535.192	33039.99
535.557	33265.3
535.923	33305.97
536.288	33568.11
536.653	33811.27
537.019	33764.95
537.384	33891.72
537.749	33913.42
538.114	34188.21
538.479	34212.39
538.845	34401.54
539.21	34567.64
539.575	34654.41
539.94	34852.6
540.305	35076.55
540.67	35053.5
541.034	35239.71
541.399	35244.23
541.764	35359.71
542.129	35497.56
542.494	35655.07
542.858	35956.07
543.223	35730.77
543.587	36102.06
543.952	36129.4
544.316	36212.79
544.681	36224.77
545.045	36635.83
545.41	36602.61
545.774	36642.38
546.138	36723.06
546.503	36882.6
546.867	36824.53
547.231	37205.31
547.595	37215.02
547.959	37467.22
548.324	37384.06
548.688	37559.87
549.052	37710.6
549.416	37811.62
549.779	37888.68
550.143	38083.02
550.507	38169.12
550.871	38423.81
551.235	38394.2
551.599	38763.01
551.962	38802.55
552.326	38868.09
552.689	38930.46
553.053	38877.58
553.417	39030.8
553.78	39353.27
554.143	39461.74
554.507	39557.34
554.87	39678.69
555.234	40030.77
555.597	39917.55
555.96	40113.03
556.323	40321.16
556.686	40390.53
557.05	40670.07
557.413	40848.83
557.776	40897.87
558.139	41076.62
558.502	41335.59
558.865	41366.33
559.228	41720.44
559.59	41710.73
559.953	41962.02
560.316	42330.6
560.679	42230.71
561.041	42555.45
561.404	42752.51
561.767	43048.77
562.129	42879.28
562.492	43495.09
562.854	43472.03
563.217	43516.78
563.579	43647.4
563.941	43872.02
564.304	44133.49
564.666	44514.49
565.028	44407.83
565.39	44469.3
565.753	44812.79
566.115	45092.56
566.477	45153.8
566.839	45433.79
567.201	45789.04
567.563	45731.41
567.925	46061.8
568.287	46210.49
568.648	46278.97
569.01	46530.49
569.372	46820.42
569.734	46744.27
570.095	47063.58
570.457	47309.67
570.819	47290.47
571.18	47376.34
571.542	47760.28
571.903	47700.62
572.265	47921.86
572.626	48157.34
572.987	48077.34
573.349	48485.69
573.71	48423.32
574.071	48703.08
574.432	48813.59
574.794	49070.98
575.155	49187.14
575.516	49215.16
575.877	49343.74
576.238	49358.21
576.599	49691.76
576.96	49811.76
577.32	49928.14
577.681	49937.18
578.042	50247.68
578.403	50248.58
578.763	50385.98
579.124	50544.39
579.485	50683.14
579.845	50935.57
580.206	50985.06
580.566	50974.44
580.927	51056.69
581.287	51196.35
581.648	51308.44
582.008	51509.11
582.368	51501.88
582.728	51663.46
583.089	51644.02
583.449	51926.73
583.809	51924.47
584.169	52084.01
584.529	52069.1
584.889	52380.95
585.249	52266.38
585.609	52254.63
585.969	52664.79
586.329	52591.8
586.688	52816.87
587.048	52851
587.408	52963.99
587.768	52951.56
588.127	53140.48
588.487	53112.23
588.846	53500.7
589.206	53351.32
589.565	53471.77
589.925	53723.52
590.284	53695.95
590.643	53817.75
591.003	53944.75
591.362	54123.96
591.721	54132.77
592.08	54227.68
592.44	54426.32
592.799	54384.29
593.158	54619.09
593.517	54607.34
593.876	54821.34
594.235	54899.98
594.593	54923.49
594.952	55163.03
595.311	55086.42
595.67	55289.58
596.029	55496.35
596.387	55583.81
596.746	55692.73
597.104	55638.27
597.463	55743.12
597.822	55917.81
598.18	55943.35
598.538	56022.44
598.897	56229.44
599.255	56098.14
599.613	56522.54
599.972	56432.15
600.33	56575.87
600.688	56615.42
601.046	56799.14
601.404	56982.41
601.762	56951
602.12	57090.89
602.478	57150.55
602.836	57225.8
603.194	57119.36
603.552	57301.73
603.91	57308.73
604.268	57525.22
604.625	57516.41
604.983	57708.95
605.341	57550.99
605.698	57836.4
606.056	58082.27
606.413	57928.15
606.771	58154.36
607.128	58234.36
607.485	58240.23
607.843	58319.33
608.2	58414.47
608.557	58573.78
608.914	58501.7
609.272	58676.38
609.629	58853.55
609.986	58951.18
610.343	58955.02
610.7	59129.02
611.057	59113.66
611.414	59113.43
611.771	59305.97
612.127	59448.11
612.484	59437.26
612.841	59537.38
613.198	59469.35
613.554	59529.01
613.911	59774.88
614.267	59787.76
614.624	59813.53
614.98	59873.19
615.337	59982.56
615.693	60003.58
616.05	60028.21
616.406	60147.3
616.762	60113.63
617.118	60219.84
617.475	60126.51
617.831	60364.47
618.187	60340.97
618.543	60457.13
618.899	60566.05
619.255	60557.46
619.611	60590.91
619.967	60683.79
620.323	60722.88
620.678	60707.74
621.034	60638.59
621.39	60697.34
621.746	60726.04
622.101	61025.25
622.457	60826.83
622.812	60953.38
623.168	60933.27
623.523	60979.15
623.879	61086.49
624.234	61009.88
624.589	61102.08
624.945	61126.26
625.3	61167.39
625.655	61193.6
626.01	61163.77
626.365	61165.81
626.72	61104.57
627.075	61105.02
627.43	61097.79
627.785	61136.43
628.14	61145.69
628.495	61193.83
628.85	61239.7
629.205	61167.16
629.559	61286.03
629.914	61222.75
630.269	61271.57
630.623	61133.04
630.978	61109.76
631.332	61241.96
631.687	61252.58
632.041	61149.54
632.396	61234.73
632.75	61121.74
633.104	61181.63
633.459	61071.8
633.813	61065.7
634.167	61046.04
634.521	61054.85
634.875	61077.45
635.229	61045.58
635.583	60944.34
635.937	60944.12
636.291	60970.56
636.645	60950.22
636.999	60868.41
637.352	60945.02
637.706	60729.21
638.06	60879.94
638.413	60797.46
638.767	60742.09
639.121	60843.1
639.474	60682.2
639.828	60677.91
640.181	60626.84
640.534	60716.55
640.888	60632.26
641.241	60516.78
641.594	60540.96
641.947	60648.08
642.301	60543.9
642.654	60616.89
643.007	60516.11
643.36	60583.22
643.713	60537.35
644.066	60614.64
644.419	60361.99
644.771	60179.17
645.124	59923.81
645.477	59910.47
645.83	59757.48
646.182	59817.14
646.535	59737.6
646.888	59805.84
647.24	59679.07
647.593	59807.42
647.945	59655.34
648.298	59591.39
648.65	59488.34
649.002	59367.44
649.355	59365.63
649.707	59340.54
650.059	59400.66
650.411	59614.44
650.763	59770.82
651.115	60158.15
651.467	60019.4
651.819	59957.03
652.171	59923.81
652.523	59826.63
652.875	59850.14
653.227	59759.52
653.578	59931.72
653.93	59828.22
654.282	59706.86
654.633	59692.63
654.985	59684.72
655.337	59794.54
655.688	59653.76
656.039	59740.53
656.391	59578.73
656.742	59568.79
657.094	59616.47
657.445	59635.68
657.796	59622.34
658.147	59527.43
658.498	59596.36
658.849	59648.33
659.2	59545.28
659.551	59444.5
659.902	59626.41
660.253	59488.56
660.604	59594.32
660.955	59414.89
661.306	59542.35
661.656	59454.21
662.007	59475.91
662.358	59420.54
662.708	59471.84
663.059	59359.07
663.409	59272.75
663.76	59377.38
664.11	59412.63
664.461	59440.88
664.811	59467.32
665.161	59363.14
665.511	59322.24
665.862	59334.67
666.212	59432.75
666.562	59483.59
666.912	59381.45
667.262	59275.01
667.612	59313.65
667.962	59340.32
668.312	59231.39
668.662	59356.36
669.011	59261.45
669.361	59301.68
669.711	59306.65
670.06	59227.33
670.41	59143.04
670.76	59197.95
671.109	59305.29
671.459	59262.35
671.808	59238.63
672.157	59256.03
672.507	59139.42
672.856	59108.01
673.205	59167.67
673.554	59226.42
673.904	59143.94
674.253	59317.49
674.602	59065.98
674.951	58851.52
675.3	58711.41
675.649	59123.15
675.998	59055.58
676.346	59100.32
676.695	59145.07
677.044	58995.92
677.393	59029.59
677.741	59104.39
678.09	59073.88
678.438	59004.06
678.787	59073.21
679.135	59046.77
679.484	58849.26
679.832	59039.99
680.181	58843.38
680.529	58898.97
680.877	58815.59
681.225	58797.51
681.573	59005.41
681.922	58752.31
682.27	58712.31
682.618	58682.93
682.966	58689.26
683.314	58735.14
683.661	58672.31
684.009	58567.91
684.357	58547.12
684.705	58534.69
685.053	58536.72
685.4	58437.97
685.748	58400.23
686.095	58401.13
686.443	58281.59
686.79	58258.54
687.138	58357.75
687.485	58299.89
687.832	58262.15
688.18	58209.73
688.527	58113.23
688.874	58093.35
689.221	58189.16
689.568	58054.7
689.915	57969.96
690.262	58053.12
690.609	57937.87
690.956	57806.35
691.303	57872.79
691.65	57747.14
691.997	57719.8
692.344	57623.3
692.69	57627.59
693.037	57661.27
693.383	57457.43
693.73	57449.52
694.077	57382.63
694.423	57396.87
694.769	57292.24
695.116	57241.39
695.462	57231.22
695.808	57124.78
696.155	57166.59
696.501	56965.69
696.847	56964.34
697.193	56822.87
697.539	56893.15
697.885	56685.25
698.231	56633.04
698.577	56679.82
698.923	56654.06
699.269	56479.15
699.614	56522.77
699.96	56380.62
700.306	56423.33
700.651	56181.98
700.997	56162.77
701.342	56122.55
701.688	56093.4
702.033	56030.8
702.379	55951.25
702.724	55905.83
703.069	55873.29
703.415	55654.99
703.76	55561.43
704.105	55733.18
704.45	55590.13
704.795	55436.69
705.14	55280.31
705.485	55396.92
705.83	55130.94
706.175	55283.25
706.52	55202.8
706.865	55127.55
707.209	55038.06
707.554	54944.73
707.899	54938.63
708.243	54889.59
708.588	54812.3
708.932	54672.42
709.277	54662.25
709.621	54595.36
709.966	54450.73
710.31	54459.32
710.654	54171.64
710.998	54280.56
711.342	54302.03
711.687	54206.67
712.031	54125.99
712.375	53933.68
712.719	53982.04
713.063	53904.08
713.407	54073.11
713.75	53834.02
714.094	53701.14
714.438	53656.4
714.782	53645.1
715.125	53503.41
715.469	53632.22
715.812	53359.91
716.156	53335.73
716.499	53345.67
716.843	53396.29
717.186	53134.15
717.53	53182.74
717.873	53272
718.216	53151.1
718.559	53002.86
718.902	52709.76
719.246	52915.18
719.589	52841.73
719.932	52731.9
720.275	52705.69
720.617	52734.62
720.96	52498.46
721.303	52601.96
721.646	52586.82
721.989	52480.61
722.331	52519.03
722.674	52378.69
723.016	52461.86
723.359	52233.84
723.701	52242.43
724.044	52088.76
724.386	52043.79
724.729	52224.35
725.071	52077.23
725.413	52110
725.755	52030.23
726.097	51946.84
726.439	51784.13
726.782	51721.76
727.124	51875.2
727.465	51784.13
727.807	51663.23
728.149	51584.82
728.491	51608.54
728.833	51609.9
729.175	51462.33
729.516	51419.62
729.858	51450.36
730.199	51527.19
730.541	51455.33
730.882	51366.97
731.224	51410.58
731.565	51152.51
731.906	51162.45
732.248	51199.29
732.589	51046.3
732.93	50943.7
733.271	51029.12
733.612	50903.48
733.953	50987.77
734.294	50888.11
734.635	50759.75
734.976	51050.14
735.317	50720.43
735.658	50796.81
735.999	50613.32
736.339	50630.72
736.68	50720.21
737.021	50581.9
737.361	50454
737.702	50601.56
738.042	50473.88
738.383	50432.98
738.723	50606.76
739.063	50250.61
739.404	50510.72
739.744	50321.35
740.084	50196.38
740.424	50252.42
740.764	50052.88
741.104	50233.44
741.444	50038.42
741.784	50033.22
742.124	50165.64
742.464	49864.64
742.804	49892.66
743.143	49857.4
743.483	49918.65
743.823	49691.76
744.162	49767.24
744.502	49808.82
744.841	49555.49
745.181	49695.37
745.52	49533.34
745.86	49496.96
746.199	49521.37
746.538	49453.35
746.877	49590.74
747.216	49508.71
747.556	49281.15
747.895	49321.6
748.234	49205.67
748.573	49127.03
748.911	49060.81
749.25	49151.66
749.589	48863.98
749.928	48977.2
750.267	48949.86
750.605	48825.11
750.944	48831.67
751.283	48600.71
751.621	48786.47
751.96	48538.57
752.298	48484.56
752.636	48620.83
752.975	48341.29
753.313	48227.84
753.651	48444.56
753.989	48176.09
754.327	48103.1
754.666	47719.61
755.004	48013.84
755.342	47942.2
