Data from 7726_FLMS001491_005.txt Node
Date: Thu Apr 19 15:17:07 BST 2018
User: hsy
Spectrometer: FLMS00149
Trigger mode: 0
Integration Time (sec): 1.000000E-2
Scans to average: 10
Electric dark correction enabled: true
Nonlinearity correction enabled: false
Boxcar width: 0
XAxis mode: Wavelengths
Number of Pixels in Spectrum: 2048
>>>>>Begin Spectral Data<<<<<
341.393	13.56
341.776	13.56
342.16	13.56
342.543	-60.56
342.927	-63.05
343.31	-76.83
343.693	-56.72
344.077	-56.95
344.46	-69.15
344.843	-45.42
345.226	-39.77
345.61	-29.6
345.993	-12.2
346.376	-2.94
346.759	2.03
347.142	22.15
347.525	48.81
347.908	58.76
348.291	66.66
348.674	91.75
349.057	99.43
349.44	131.3
349.823	157.06
350.206	157.28
350.588	234.34
350.971	242.03
351.354	255.36
351.737	277.51
352.119	283.83
352.502	297.39
352.884	305.75
353.267	296.72
353.65	327
354.032	343.04
354.414	327.68
354.797	335.81
355.179	349.14
355.562	345.53
355.944	356.6
356.326	371.97
356.709	372.42
357.091	364.96
357.473	376.71
357.855	410.61
358.238	374.23
358.62	385.75
359.002	364.51
359.384	390.27
359.766	411.97
360.148	382.36
360.53	387.79
360.912	370.39
361.294	355.7
361.676	395.02
362.057	378.3
362.439	368.35
362.821	367
363.203	353.44
363.584	382.81
363.966	404.96
364.348	374
364.729	352.99
365.111	368.8
365.493	356.6
365.874	365.64
366.256	376.04
366.637	364.74
367.019	376.71
367.4	359.99
367.781	365.64
368.163	387.56
368.544	377.84
368.925	364.28
369.306	374.91
369.688	353.66
370.069	376.26
370.45	376.94
370.831	391.63
371.212	380.78
371.593	381.68
371.974	374
372.355	395.7
372.736	372.87
373.117	391.18
373.498	373.55
373.879	378.75
374.26	381.68
374.641	371.29
375.021	385.3
375.402	388.69
375.783	401.8
376.163	415.13
376.544	402.93
376.925	395.47
377.305	402.02
377.686	389.82
378.066	402.7
378.447	408.12
378.827	420.33
379.208	406.99
379.588	413.77
379.968	426.66
380.349	409.25
380.729	432.76
381.109	419.88
381.489	422.81
381.87	402.48
382.25	417.84
382.63	430.05
383.01	432.76
383.39	447.45
383.77	430.72
384.15	458.29
384.53	459.42
384.91	470.95
385.29	463.04
385.67	460.33
386.049	476.15
386.429	467.56
386.809	469.59
387.189	479.54
387.568	492.64
387.948	464.17
388.328	497.39
388.707	469.37
389.087	463.49
389.466	492.87
389.846	491.51
390.225	494.22
390.605	499.87
390.984	533.55
391.363	513.66
391.743	508.91
392.122	508.01
392.501	525.18
392.881	519.76
393.26	534
393.639	555.01
394.018	546.2
394.397	531.51
394.776	557.95
395.155	550.49
395.534	541
395.913	549.59
396.292	556.14
396.671	545.97
397.05	582.58
397.429	560.44
397.808	576.93
398.186	585.97
398.565	583.71
398.944	587.1
399.323	594.11
399.701	569.25
400.08	587.33
400.458	621
400.837	615.13
401.215	617.61
401.594	621
401.972	614.45
402.351	625.07
402.729	627.78
403.107	636.37
403.486	645.41
403.864	649.25
404.242	659.87
404.62	668.46
404.999	655.12
405.377	675.46
405.755	668.01
406.133	679.3
406.511	697.83
406.889	710.94
407.267	701.9
407.645	708
408.023	723.82
408.401	723.6
408.779	702.35
409.156	743.48
409.534	731.05
409.912	748.23
410.29	778.28
410.667	767.44
411.045	766.31
411.422	798.62
411.8	789.81
412.178	798.62
412.555	810.15
412.933	802.01
413.31	830.03
413.687	855.57
414.065	839.53
414.442	872.29
414.819	869.58
415.197	894.21
415.574	886.53
415.951	851.95
416.328	894.44
416.705	895.12
417.082	904.38
417.46	924.27
417.837	911.16
418.214	902.58
418.591	930.37
418.967	941.9
419.344	944.83
419.721	947.09
420.098	942.35
420.475	955.91
420.852	950.94
421.228	967.43
421.605	972.18
421.982	990.26
422.358	995.91
422.735	994.32
423.111	1002.69
423.488	1028
423.864	1046.3
424.241	1039.75
424.617	1062.57
424.994	1060.99
425.37	1059.18
425.746	1072.29
426.123	1087.88
426.499	1096.69
426.875	1113.64
427.251	1117.03
427.627	1169.23
428.003	1175.79
428.379	1178.05
428.756	1173.75
429.132	1190.93
429.507	1217.14
429.883	1208.33
430.259	1264.83
430.635	1235
431.011	1256.24
431.387	1276.8
431.763	1322.68
432.138	1289.68
432.514	1320.42
432.89	1322.45
433.265	1353.18
433.641	1380.98
434.016	1394.77
434.392	1381.21
434.767	1438.38
435.143	1439.06
435.518	1458.94
435.894	1478.38
436.269	1506.4
436.644	1483.58
437.02	1503.01
437.395	1511.37
437.77	1521.32
438.145	1524.48
438.52	1562.9
438.895	1560.64
439.271	1567.64
439.646	1623.46
440.021	1587.08
440.395	1611.94
440.77	1597.25
441.145	1644.25
441.52	1637.47
441.895	1682.44
442.27	1691.03
442.645	1647.64
443.019	1683.8
443.394	1700.97
443.769	1708.66
444.143	1742.78
444.518	1737.13
444.892	1732.38
445.267	1730.58
445.641	1750.69
446.016	1790.24
446.39	1776.68
446.764	1780.52
447.139	1783.23
447.513	1792.04
447.887	1794.98
448.262	1815.55
448.636	1884.92
449.01	1886.73
449.384	1845.38
449.758	1903.23
450.132	1928.99
450.506	1936.22
450.88	1924.92
451.254	1906.16
451.628	1961.76
452.002	2011.92
452.376	1986.84
452.75	2060.74
453.123	2041.53
453.497	2093.28
453.871	2101.41
454.244	2179.6
454.618	2190.45
454.992	2161.53
455.365	2173.95
455.739	2248.75
456.112	2285.36
456.486	2253.05
456.859	2279.26
457.232	2323.78
457.606	2345.02
457.979	2404.91
458.352	2445.59
458.725	2474.29
459.099	2505.02
459.472	2550.44
459.845	2524.68
460.218	2545.47
460.591	2570.78
460.964	2619.82
461.337	2653.04
461.71	2708.18
462.083	2772.13
462.456	2743.43
462.829	2763.54
463.201	2839.02
463.574	2869.98
463.947	2879.25
464.32	2901.84
464.692	2926.7
465.065	2968.96
465.438	3012.58
465.81	3040.37
466.183	3065.91
466.555	3101.84
466.928	3132.8
467.3	3164.21
467.672	3260.25
468.045	3266.35
468.417	3265.45
468.789	3259.35
469.161	3401.49
469.534	3399.91
469.906	3478.1
470.278	3466.8
470.65	3535.05
471.022	3593.13
471.394	3622.28
471.766	3661.6
472.138	3719.9
472.51	3808.49
472.882	3825.89
473.253	3918.09
473.625	3928.26
473.997	4041.93
474.369	4050.51
474.74	4101.59
475.112	4162.15
475.484	4193.79
475.855	4286.44
476.227	4359.21
476.598	4497.73
476.97	4532.08
477.341	4558.75
477.713	4684.17
478.084	4700.22
478.455	4883.94
478.827	4918.51
479.198	5019.98
479.569	5030.15
479.94	5152.63
480.311	5315.57
480.682	5363.25
481.053	5456.58
481.424	5577.71
481.795	5654.77
482.166	5726.18
482.537	5784.03
482.908	5962.78
483.279	5992.38
483.65	6188.54
484.021	6297.91
484.391	6383.79
484.762	6435.54
485.133	6585.14
485.503	6605.93
485.874	6798.47
486.244	6877.79
486.615	7076.42
486.985	7165.46
487.356	7331.78
487.726	7355.29
488.097	7628.05
488.467	7646.13
488.837	7837.76
489.207	7927.48
489.578	8089.05
489.948	8262.61
490.318	8397.97
490.688	8454.92
491.058	8600
491.428	8797.73
491.798	8867.34
492.168	9085.86
492.538	9155.69
492.908	9354.33
493.278	9498.06
493.648	9637.26
494.017	9763.59
494.387	9912.51
494.757	10037.93
495.126	10233.18
495.496	10331.03
495.866	10481.76
496.235	10580.06
496.605	10837.23
496.974	10955.64
497.344	11063.21
497.713	11248.29
498.082	11417.78
498.452	11585.01
498.821	11699.13
499.19	11827.94
499.559	12018.67
499.928	12162.39
500.298	12281.03
500.667	12539.56
501.036	12555.6
501.405	12788.59
501.774	12946.1
502.143	13152.2
502.512	13317.84
502.88	13445.97
503.249	13584.5
503.618	13736.81
503.987	13913.53
504.356	14079.63
504.724	14245.28
505.093	14437.59
505.462	14501.54
505.83	14636
506.199	14872.38
506.567	15116.89
506.936	15170.67
507.304	15440.05
507.672	15596.43
508.041	15637.78
508.409	15938.56
508.777	16102.63
509.145	16294.03
509.514	16317.99
509.882	16513.46
510.25	16633.01
510.618	16830.52
510.986	17001.36
511.354	17160.68
511.722	17363.84
512.09	17618.52
512.458	17597.28
512.826	17825.29
513.193	17855.35
513.561	18037.04
513.929	18178.51
514.297	18428.67
514.664	18617.36
515.032	18645.16
515.4	18871.14
515.767	19048.31
516.135	19138.48
516.502	19015.77
516.869	19474.52
517.237	19572.59
517.604	19527.62
517.972	19860.95
518.339	19875.41
518.706	19952.24
519.073	20158.11
519.44	20281.05
519.808	20584.54
520.175	20664.77
520.542	20807.81
520.909	20913.57
521.276	21051.42
521.643	21356.05
522.009	21352.66
522.376	21527.12
522.743	21617.28
523.11	21871.97
523.477	22072.87
523.843	22172.52
524.21	22401.22
524.577	22564.15
524.943	22655
525.31	22742
525.676	22975.22
526.043	23169.79
526.409	23156.68
526.776	23381.53
527.142	23550.12
527.508	23609.77
527.874	23892.03
528.241	23971.57
528.607	24053.6
528.973	24221.06
529.339	24289.08
529.705	24533.82
530.071	24608.62
530.437	24672.35
530.803	24746.69
531.169	24908.05
531.535	24943.52
531.901	24951.21
532.267	25204.08
532.632	25277.75
532.998	25327.7
533.364	25481.59
533.73	25423.51
534.095	25660.12
534.461	25660.79
534.826	25662.83
535.192	25767.46
535.557	25931.97
535.923	25988.47
536.288	25980.79
536.653	26082.25
537.019	26076.83
537.384	26101.46
537.749	26176.03
538.114	26322.47
538.479	26142.82
538.845	26312.3
539.21	26273.66
539.575	26343.94
539.94	26312.53
540.305	26362.92
540.67	26442.24
541.034	26399.53
541.399	26404.96
541.764	26594.55
542.129	26522.69
542.494	26512.3
542.858	26452.64
543.223	26502.81
543.587	26722.24
543.952	26529.47
544.316	26635.46
544.681	26626.19
545.045	26694.89
545.41	26764.72
545.774	26596.81
546.138	26651.05
546.503	26807.43
546.867	26793.42
547.231	26952.29
547.595	26999.29
547.959	26882.91
548.324	27097.14
548.688	26946.64
549.052	27019.4
549.416	26901.67
549.779	26897.6
550.143	26930.82
550.507	27140.98
550.871	27029.12
551.235	26986.64
551.599	27227.31
551.962	27194.09
552.326	27133.75
552.689	27217.82
553.053	27085.62
553.417	27199.96
553.78	27402.9
554.143	27462.1
554.507	27524.25
554.87	27468.88
555.234	27683.34
555.597	27536.45
555.96	27671.36
556.323	27692.83
556.686	27730.34
557.05	27931.69
557.413	27801.3
557.776	27823.9
558.139	28032.03
558.502	27932.82
558.865	27998.59
559.228	28147.51
559.59	28299.59
559.953	28162.2
560.316	28444
560.679	28443.77
561.041	28413.49
561.404	28630.21
561.767	28720.15
562.129	28780.94
562.492	28966.92
562.854	28857.32
563.217	28970.09
563.579	28924.21
563.941	29128.5
564.304	29247.37
564.666	29490.07
565.028	29382.96
565.39	29542.5
565.753	29530.3
566.115	29754.92
566.477	29798.76
566.839	29926.9
567.201	30082.82
567.563	30017.29
567.925	30167.12
568.287	30296.83
568.648	30228.13
569.01	30480.33
569.372	30610.49
569.734	30558.74
570.095	30827.89
570.457	30916.02
570.819	30932.07
571.18	30868.79
571.542	31108.33
571.903	31136.58
572.265	31227.65
572.626	31317.37
572.987	31361.66
573.349	31501.32
573.71	31444.37
574.071	31712.84
574.432	31699.28
574.794	32068.31
575.155	31921.87
575.516	31691.82
575.877	31983.34
576.238	32068.76
576.599	32082.77
576.96	32140.85
577.32	31988.09
577.681	32106.73
578.042	32268.76
578.403	32213.62
578.763	32226.72
579.124	32079.16
579.485	32300.62
579.845	32394.63
580.206	32313.5
580.566	32286.61
580.927	32393.95
581.287	32464.68
581.648	32329.32
582.008	32508.3
582.368	32397.11
582.728	32442.54
583.089	32394.18
583.449	32352.14
583.809	32286.38
584.169	32514.17
584.529	32275.08
584.889	32507.17
585.249	32193.05
585.609	32008.88
585.969	32321.18
586.329	32260.17
586.688	32492.25
587.048	32321.41
587.408	32183.11
587.768	32025.37
588.127	32191.24
588.487	31997.58
588.846	32253.16
589.206	31887.07
589.565	31910.12
589.925	32125.03
590.284	32015.43
590.643	31957.13
591.003	31851.82
591.362	32085.03
591.721	31985.15
592.08	31951.7
592.44	31990.12
592.799	31809.33
593.158	31825.15
593.517	31913.06
593.876	31991.48
594.235	31898.37
594.593	31734.31
594.952	31933.17
595.311	31788.99
595.67	31865.15
596.029	32064.92
596.387	31994.64
596.746	32030.57
597.104	31798.71
597.463	31822.89
597.822	31975.2
598.18	31754.87
598.538	31779.28
598.897	32031.7
599.255	31846.62
599.613	32131.36
599.972	31849.78
600.33	31958.71
600.688	31856.11
601.046	32022.43
601.404	32097.69
601.762	32074.41
602.12	32078.48
602.478	32042.55
602.836	31983.11
603.194	31892.72
603.552	31909.22
603.91	31824.25
604.268	31980.85
604.625	32108.76
604.983	32224.46
605.341	31979.05
605.698	32170.45
606.056	32266.5
606.413	32194.86
606.771	32434.18
607.128	32149.89
607.485	32166.16
607.843	32295.65
608.2	32399.83
608.557	32479.82
608.914	32455.87
609.272	32639.14
609.629	32648.86
609.986	32666.03
610.343	32575.19
610.7	32875.75
611.057	32694.06
611.414	32673.27
611.771	32780.61
612.127	32823.77
612.484	32934.28
612.841	32998
613.198	32761.85
613.554	32786.03
613.911	33098.11
614.267	33131.33
614.624	33139.47
614.98	33256.3
615.337	33308.05
615.693	33306.24
616.05	33283.42
616.406	33387.37
616.762	33342.4
617.118	33442.74
617.475	33350.76
617.831	33628.27
618.187	33511.89
618.543	33622.39
618.899	33898.54
619.255	33775.61
619.611	33664.65
619.967	33874.14
620.323	33909.16
620.678	33668.49
621.034	33694.26
621.39	33734.48
621.746	33816.51
622.101	34073.23
622.457	33789.62
622.812	34010.18
623.168	33931.99
623.523	34067.58
623.879	34025.55
624.234	33805.66
624.589	33950.07
624.945	33946.23
625.3	34087.92
625.655	33991.87
626.01	33997.98
626.365	34067.58
626.72	33897.64
627.075	33902.39
627.43	33931.76
627.785	33913.91
628.14	34023.06
628.495	33989.61
628.85	34005.21
629.205	33942.16
629.559	34011.76
629.914	33928.6
630.269	33919.33
630.623	33710.3
630.978	33718.44
631.332	33902.16
631.687	33734.93
632.041	33698.1
632.396	33770.19
632.75	33724.31
633.104	33762.28
633.459	33497.42
633.813	33562.06
634.167	33434.83
634.521	33513.7
634.875	33473.02
635.229	33388.05
635.583	33240.48
635.937	33256.75
636.291	33217.88
636.645	33134.27
636.999	33104.44
637.352	33167.72
637.706	32978.12
638.06	33037.78
638.413	33006.82
638.767	32934.5
639.121	33056.98
639.474	32925.24
639.828	32816.99
640.181	32839.59
640.534	32904.9
640.888	32713.49
641.241	32629.2
641.594	32686.82
641.947	32688.41
642.301	32497.45
642.654	32686.82
643.007	32522.08
643.36	32685.69
643.713	32539.26
644.066	32616.54
644.419	32330.22
644.771	31988.09
645.124	31629.68
645.477	31772.27
645.83	31644.37
646.182	31696.12
646.535	31596.01
646.888	31682.78
647.24	31542.22
647.593	31780.63
647.945	31558.72
648.298	31448.89
648.65	31519.85
649.002	31023.82
649.355	30930.71
649.707	30843.03
650.059	30772.52
650.411	31335.9
650.763	31471.49
651.115	32081.87
651.467	31832.38
651.819	31879.16
652.171	31790.8
652.523	31706.74
652.875	31801.2
653.227	31761.42
653.578	31847.75
653.93	31772.95
654.282	31790.12
654.633	31790.12
654.985	31689.56
655.337	31758.71
655.688	31826.51
656.039	31793.06
656.391	31520.3
656.742	31621.32
657.094	31613.18
657.445	31694.08
657.796	31631.03
658.147	31563.01
658.498	31620.86
658.849	31585.84
659.2	31494.77
659.551	31593.07
659.902	31650.02
660.253	31614.76
660.604	31684.14
660.955	31601.65
661.306	31771.14
661.656	31573.41
662.007	31616.34
662.358	31769.11
662.708	31664.25
663.059	31752.84
663.409	31443.69
663.76	31746.28
664.11	31779.5
664.461	31843.46
664.811	31751.71
665.161	31645.27
665.511	31622.67
665.862	31662.67
666.212	31607.53
666.562	31772.5
666.912	31591.26
667.262	31494.77
667.612	31518.95
667.962	31698.15
668.312	31616.34
668.662	31686.17
669.011	31732.27
669.361	31706.51
669.711	31655.66
670.06	31644.37
670.41	31465.16
670.76	31480.08
671.109	31552.84
671.459	31615.44
671.808	31412.73
672.157	31703.57
672.507	31203.93
672.856	31435.33
673.205	31419.29
673.554	31347.65
673.904	31422.9
674.253	31483.47
674.602	31415.9
674.951	30990.82
675.3	30853.2
675.649	31340.19
675.998	31330.48
676.346	31302
676.695	31305.84
677.044	31154.89
677.393	31270.59
677.741	31253.42
678.09	31095.45
678.438	31122.8
678.787	31216.81
679.135	30997.6
679.484	31029.01
679.832	30948.34
680.181	30875.12
680.529	30963.48
680.877	30783.6
681.225	30804.39
681.573	31096.58
681.922	30877.61
682.27	30812.07
682.618	30790.38
682.966	30645.07
683.314	30770.26
683.661	30659.53
684.009	30624.51
684.357	30515.13
684.705	30463.83
685.053	30479.2
685.4	30360.56
685.748	30208.92
686.095	30065.42
686.443	29938.87
686.79	29952.21
687.138	30063.84
687.485	30017.97
687.832	29861.14
688.18	29872.43
688.527	29754.7
688.874	29564.42
689.221	29658.88
689.568	29492.78
689.915	29420.92
690.262	29417.98
690.609	29376.4
690.956	29101.61
691.303	29215.5
691.65	28910.43
691.997	28935.28
692.344	28767.83
692.69	28678.57
693.037	28764.22
693.383	28381.4
693.73	28582.75
694.077	28344.79
694.423	28255.3
694.769	28230.22
695.116	28121.52
695.462	28128.07
695.808	27924.24
696.155	28053.95
696.501	27628.65
696.847	27778.7
697.193	27451.93
697.539	27538.26
697.885	27403.8
698.231	27380.07
698.577	27244.03
698.923	27244.71
699.269	26968.56
699.614	26889.91
699.96	26862.12
700.306	26773.31
700.651	26620.32
700.997	26609.7
701.342	26543.26
701.688	26504.84
702.033	26381
702.379	26256.71
702.724	26161.35
703.069	26281.34
703.415	25974.68
703.76	25967.23
704.105	25999.54
704.45	25708.02
704.795	25629.38
705.14	25709.38
705.485	25552.32
705.83	25429.61
706.175	25514.13
706.52	25440.01
706.865	25319.11
707.209	25192.56
707.554	25110.3
707.899	25228.94
708.243	25052.9
708.588	24994.6
708.932	24887.71
709.277	24830.08
709.621	24766.58
709.966	24689.29
710.31	24739.01
710.654	24485.68
710.998	24570.88
711.342	24602.74
711.687	24407.95
712.031	24423.99
712.375	24244.33
712.719	24159.14
713.063	24214.5
713.407	24289.76
713.75	24137.9
714.094	24107.39
714.438	23899.48
714.782	24050.89
715.125	23938.81
715.469	24011.57
715.812	23894.29
716.156	23751.01
716.499	23825.14
716.843	23806.15
717.186	23582.66
717.53	23678.25
717.873	23680.73
718.216	23645.93
718.559	23516.9
718.902	23424.47
719.246	23503.79
719.589	23502.88
719.932	23409.78
720.275	23306.96
720.617	23424.47
720.96	23183.12
721.303	23309.9
721.646	23409.78
721.989	23254.98
722.331	23288.88
722.674	23243.46
723.016	23283.68
723.359	23144.7
723.701	23135.66
724.044	23093.63
724.386	23045.5
724.729	23086.85
725.071	23083.91
725.413	22990.58
725.755	23026.51
726.097	22902.22
726.439	22830.81
726.782	22801.21
727.124	22930.24
727.465	22881.66
727.807	22773.64
728.149	22855.44
728.491	22802.56
728.833	22795.33
729.175	22790.36
729.516	22721.89
729.858	22728.44
730.199	22811.38
730.541	22762.34
730.882	22842.56
731.224	22818.38
731.565	22738.39
731.906	22868.55
732.248	22824.48
732.589	22698.61
732.93	22795.33
733.271	22786.29
733.612	22715.56
733.953	22744.26
734.294	22807.99
734.635	22639.18
734.976	22867.65
735.317	22738.16
735.658	22695.9
735.999	22622.46
736.339	22742.23
736.68	22655.45
737.021	22816.12
737.361	22742.68
737.702	23021.77
738.042	22814.77
738.383	22878.04
738.723	22961.66
739.063	22814.99
739.404	22929.11
739.744	23014.99
740.084	22941.09
740.424	23107.87
740.764	23151.48
741.104	23231.48
741.444	23106.96
741.784	23100.64
742.124	23188.77
742.464	23201.88
742.804	23203.01
743.143	23344.47
743.483	23447.07
743.823	23324.81
744.162	23432.15
744.502	23637.34
744.841	23521.42
745.181	23725.93
745.52	23641.19
745.86	23733.16
746.199	23751.92
746.538	23784.23
746.877	24009.09
747.216	24011.8
747.556	24028.97
747.895	24259.7
748.234	24336.31
748.573	24329.76
748.911	24357.55
749.25	24470.77
749.589	24426.48
749.928	24786.01
750.267	24836.41
750.605	24953.47
750.944	25047.93
751.283	25047.48
751.621	25243.86
751.96	25176.97
752.298	25435.04
752.636	25472.55
752.975	25575.82
753.313	25646.78
753.651	25994.8
753.989	25931.07
754.327	26021.01
754.666	26068.69
755.004	26293.09
