Data from 7726_FLMS001491_006.txt Node
Date: Thu Apr 19 15:17:10 BST 2018
User: hsy
Spectrometer: FLMS00149
Trigger mode: 0
Integration Time (sec): 1.000000E-2
Scans to average: 10
Electric dark correction enabled: true
Nonlinearity correction enabled: false
Boxcar width: 0
XAxis mode: Wavelengths
Number of Pixels in Spectrum: 2048
>>>>>Begin Spectral Data<<<<<
341.393	-1.5
341.776	-1.5
342.16	-1.5
342.543	-80.59
342.927	-79.24
343.31	-66.35
343.693	-73.13
344.077	-76.07
344.46	-65.45
344.843	-54.83
345.226	-51.21
345.61	-25.68
345.993	-24.1
346.376	-2.85
346.759	33.08
347.142	36.69
347.525	37.37
347.908	49.35
348.291	78.95
348.674	78.05
349.057	126.18
349.44	133.64
349.823	145.17
350.206	152.85
350.588	188.1
350.971	244.37
351.354	245.95
351.737	268.78
352.119	270.36
352.502	292.28
352.884	295.44
353.267	284.37
353.65	311.26
354.032	298.16
354.414	321.66
354.797	333.41
355.179	349.68
355.562	316.46
355.944	329.34
356.326	353.3
356.709	362.11
357.091	339.74
357.473	359.62
357.855	365.95
358.238	380.19
358.62	356.91
359.002	348.1
359.384	383.35
359.766	376.35
360.148	371.15
360.53	359.4
360.912	364.82
361.294	346.97
361.676	353.3
362.057	370.02
362.439	380.41
362.821	349
363.203	372.73
363.584	360.53
363.966	353.07
364.348	355.56
364.729	351.04
365.111	346.97
365.493	365.05
365.874	335.67
366.256	363.47
366.637	343.58
367.019	378.15
367.4	344.93
367.781	359.62
368.163	334.31
368.544	342.9
368.925	323.92
369.306	350.81
369.688	353.97
370.069	344.03
370.45	376.12
370.831	347.42
371.212	355.33
371.593	358.72
371.974	337.03
372.355	365.95
372.736	356.46
373.117	358.27
373.498	361.21
373.879	357.36
374.26	359.62
374.641	346.74
375.021	361.66
375.402	387.19
375.783	374.09
376.163	396.01
376.544	390.81
376.925	391.03
377.305	385.84
377.686	391.94
378.066	377.02
378.447	388.32
378.827	398.94
379.208	410.02
379.588	394.42
379.968	394.65
380.349	392.62
380.729	396.01
381.109	391.26
381.489	414.31
381.87	385.16
382.25	393.52
382.63	432.84
383.01	414.76
383.39	406.85
383.77	388.1
384.15	408.66
384.53	413.41
384.91	417.47
385.29	430.36
385.67	434.88
386.049	430.81
386.429	429.68
386.809	431.26
387.189	430.36
387.568	454.54
387.948	438.49
388.328	443.91
388.707	453.86
389.087	443.01
389.466	457.93
389.846	457.7
390.225	469.45
390.605	461.32
390.984	459.51
391.363	453.41
391.743	506.74
392.122	480.75
392.501	476.91
392.881	499.51
393.26	500.18
393.639	478.94
394.018	522.1
394.397	509.45
394.776	528.88
395.155	508.32
395.534	512.84
395.913	518.26
396.292	516.46
396.671	522.78
397.05	511.71
397.429	543.57
397.808	534.99
398.186	510.35
398.565	527.98
398.944	535.66
399.323	537.7
399.701	537.02
400.08	537.02
400.458	547.64
400.837	535.44
401.215	537.7
401.594	557.58
401.972	577.24
402.351	551.71
402.729	571.82
403.107	587.19
403.486	570.47
403.864	598.04
404.242	584.93
404.62	598.26
404.999	584.25
405.377	608.88
405.755	619.05
406.133	624.02
406.511	613.63
406.889	623.35
407.267	604.36
407.645	618.37
408.023	658.82
408.401	647.98
408.779	631.71
409.156	682.1
409.534	662.21
409.912	677.36
410.29	691.14
410.667	667.86
411.045	688.43
411.422	693.63
411.8	709.67
412.178	738.37
412.555	737.92
412.933	728.2
413.31	735.88
413.687	724.36
414.065	745.15
414.442	757.35
414.819	777.47
415.197	762.55
415.574	781.53
415.951	775.66
416.328	768.43
416.705	777.92
417.082	797.8
417.46	797.35
417.837	821.31
418.214	829.67
418.591	838.71
418.967	805.94
419.344	851.59
419.721	819.5
420.098	846.16
420.475	872.38
420.852	849.55
421.228	871.7
421.605	858.37
421.982	872.15
422.358	883.23
422.735	904.47
423.111	901.76
423.488	917.12
423.864	926.16
424.241	938.14
424.617	926.39
424.994	921.42
425.37	933.17
425.746	948.08
426.123	958.93
426.499	971.36
426.875	980.85
427.251	1010.91
427.627	997.57
428.003	1035.09
428.379	1020.4
428.756	1021.75
429.132	1033.28
429.507	1057.68
429.883	1043.9
430.259	1074.63
430.635	1084.35
431.011	1077.8
431.387	1099.72
431.763	1118.02
432.138	1122.54
432.514	1165.25
432.89	1144.01
433.265	1194.63
433.641	1163.67
434.016	1212.48
434.392	1198.47
434.767	1227.62
435.143	1230.33
435.518	1243.67
435.894	1235.08
436.269	1256.32
436.644	1283.89
437.02	1295.42
437.395	1312.37
437.77	1313.04
438.145	1331.8
438.52	1321.18
438.895	1352.14
439.271	1365.7
439.646	1375.87
440.021	1392.14
440.395	1358.92
440.77	1373.83
441.145	1375.87
441.52	1387.62
441.895	1471.23
442.27	1442.76
442.645	1422.42
443.019	1450.44
443.394	1463.55
443.769	1428.52
444.143	1441.4
444.518	1498.35
444.892	1471.01
445.267	1464
445.641	1475.53
446.016	1513.72
446.39	1508.29
446.764	1541.74
447.139	1528.63
447.513	1532.02
447.887	1560.95
448.262	1572.47
448.636	1582.19
449.01	1580.61
449.384	1619.7
449.758	1626.26
450.132	1603.66
450.506	1636.43
450.88	1638.69
451.254	1665.35
451.628	1673.49
452.002	1668.29
452.376	1692.92
452.75	1717.78
453.123	1727.27
453.497	1744.45
453.871	1780.83
454.244	1814.27
454.618	1816.31
454.992	1850.88
455.365	1873.71
455.739	1910.54
456.112	1913.25
456.486	1909.41
456.859	1961.39
457.232	1985.57
457.606	2006.36
457.979	1990.54
458.352	2063.53
458.725	2050.88
459.099	2089.97
459.472	2113.48
459.845	2142.18
460.218	2169.52
460.591	2188.28
460.964	2177.43
461.337	2235.96
461.71	2296.3
462.083	2291.55
462.456	2317.76
462.829	2313.47
463.201	2346.01
463.574	2372
463.947	2388.72
464.32	2448.16
464.692	2472.56
465.065	2497.19
465.438	2538.55
465.81	2520.7
466.183	2520.7
466.555	2609.73
466.928	2624.65
467.3	2620.35
467.672	2682.5
468.045	2736.96
468.417	2701.71
468.789	2734.02
469.161	2760.92
469.534	2829.61
469.906	2885.21
470.278	2876.39
470.65	2900.12
471.022	2973.79
471.394	3010.63
471.766	3026.67
472.138	3127.69
472.51	3127.01
472.882	3193.67
473.253	3247.68
473.625	3280.68
473.997	3331.97
474.369	3358.87
474.74	3345.53
475.112	3464.63
475.484	3554.34
475.855	3564.06
476.227	3643.83
476.598	3727.22
476.97	3765.18
477.341	3818.52
477.713	3887.67
478.084	3944.84
478.455	4018.06
478.827	4055.35
479.198	4171.05
479.569	4159.3
479.94	4267.32
480.311	4399.97
480.682	4409.91
481.053	4574.88
481.424	4601.55
481.795	4674.54
482.166	4773.07
482.537	4856.68
482.908	4932.84
483.279	5016.45
483.65	5072.49
484.021	5225.26
484.391	5301.19
484.762	5371.24
485.133	5422.99
485.503	5529.43
485.874	5734.85
486.244	5768.07
486.615	5801.06
486.985	5972.58
487.356	6063.65
487.726	6131.45
488.097	6295.74
488.467	6341.61
488.837	6534.15
489.207	6590.19
489.578	6761.71
489.948	6829.74
490.318	6968.04
490.688	7105.43
491.058	7230.18
491.428	7321.02
491.798	7432.66
492.168	7620
492.538	7704.97
492.908	7860.9
493.278	7940.67
493.648	8058.4
494.017	8247.55
494.387	8376.81
494.757	8468.79
495.126	8633.76
495.496	8720.53
495.866	8871.49
496.235	8925.27
496.605	9206.85
496.974	9231.71
497.344	9443.45
497.713	9560.06
498.082	9661.53
498.452	9793.05
498.821	10005.7
499.19	10064.68
499.559	10188.52
499.928	10307.38
500.298	10456.76
500.667	10663.31
501.036	10760.03
501.405	10851.78
501.774	10988.5
502.143	11222.84
502.512	11332.89
502.88	11556.17
503.249	11627.8
503.618	11802.71
503.987	11896.95
504.356	12081.35
504.724	12271.17
505.093	12392.75
505.462	12435.46
505.83	12583.26
506.199	12784.16
506.567	13004.94
506.936	13082.45
507.304	13335.1
507.672	13509.56
508.041	13566.73
508.409	13661.65
508.777	13804.92
509.145	14105.48
509.514	14197.9
509.882	14396.09
510.25	14404
510.618	14626.59
510.986	14594.73
511.354	14832.92
511.722	15063.19
512.09	15137.54
512.458	15279.68
512.826	15446.91
513.193	15554.7
513.561	15630.86
513.929	15806.22
514.297	16024.75
514.664	16144.52
515.032	16191.75
515.4	16393.55
515.767	16509.48
516.135	16570.95
516.502	16538.86
516.869	16838.51
517.237	16969.36
517.604	16857.04
517.972	17189.46
518.339	17309.91
518.706	17462.68
519.073	17499.74
519.44	17598.49
519.808	17789.67
520.175	17880.07
520.542	18118.93
520.909	18110.57
521.276	18283.67
521.643	18440.05
522.009	18597.34
522.376	18704.45
522.743	18692.47
523.11	18958
523.477	19170.88
523.843	19142.18
524.21	19341.27
524.577	19527.71
524.943	19643.18
525.31	19674.6
525.676	19876.4
526.043	19933.12
526.409	20103.06
526.776	20241.59
527.142	20354.35
527.508	20406.33
527.874	20553.22
528.241	20716.38
528.607	20623.72
528.973	21002.24
529.339	20892.87
529.705	21101.45
530.071	21235.91
530.437	21333.54
530.803	21456.7
531.169	21571.27
531.535	21573.08
531.901	21622.79
532.267	21594.32
532.632	21755.9
532.998	21870.7
533.364	21956.57
533.73	21922.22
534.095	22153.17
534.461	22084.7
534.826	22206.73
535.192	22308.88
535.557	22421.42
535.923	22380.51
536.288	22415.54
536.653	22501.41
537.019	22481.3
537.384	22470.91
537.749	22543.9
538.114	22612.6
538.479	22520.4
538.845	22598.59
539.21	22584.12
539.575	22546.61
539.94	22728.07
540.305	22719.71
540.67	22635.42
541.034	22759.71
541.399	22770.11
541.764	22753.61
542.129	22839.03
542.494	22816.21
542.858	22818.02
543.223	22748.87
543.587	22916.32
543.952	22813.95
544.316	22822.31
544.681	22755.42
545.045	22854.4
545.41	22967.16
545.774	22856.21
546.138	22840.61
546.503	22909.31
546.867	22955.19
547.231	23024.34
547.595	23113.38
547.959	23073.83
548.324	23052.81
548.688	23081.06
549.052	23099.82
549.416	23028.63
549.779	22948.63
550.143	23052.13
550.507	23230.43
550.871	23146.59
551.235	23118.12
551.599	23269.08
551.962	23176.2
552.326	23229.3
552.689	23292.81
553.053	23064.79
553.417	23219.36
553.78	23401.28
554.143	23451.22
554.507	23385.91
554.87	23408.96
555.234	23551.56
555.597	23356.31
555.96	23519.47
556.323	23455.51
556.686	23462.97
557.05	23718.78
557.413	23709.29
557.776	23615.96
558.139	23721.95
558.502	23787.03
558.865	23876.29
559.228	23902.51
559.59	23914.48
559.953	24047.81
560.316	24176.4
560.679	24103.41
561.041	24243.52
561.404	24303.85
561.767	24445.32
562.129	24382.95
562.492	24538.2
562.854	24525.77
563.217	24460.68
563.579	24701.81
563.941	24620.91
564.304	24883.05
564.666	25103.38
565.028	24989.48
565.39	25057.5
565.753	25116.26
566.115	25122.81
566.477	25359.64
566.839	25341.57
567.201	25640.99
567.563	25403.48
567.925	25626.53
568.287	25520.54
568.648	25676.92
569.01	25863.59
569.372	25979.29
569.734	25841.67
570.095	26018.84
570.457	26163.92
570.819	26078.72
571.18	26181.77
571.542	26247.3
571.903	26211.82
572.265	26382.22
572.626	26477.58
572.987	26528.2
573.349	26642.32
573.71	26797.12
574.071	26740.85
574.432	26931.35
574.794	27103.55
575.155	27058.81
575.516	26977.23
575.877	27098.13
576.238	26995.53
576.599	26937
576.96	27074.63
577.32	27265.58
577.681	27216.54
578.042	27291.57
578.403	27135.64
578.763	27278.46
579.124	27303.77
579.485	27463.32
579.845	27408.63
580.206	27374.73
580.566	27336.77
580.927	27300.38
581.287	27457.44
581.648	27351
582.008	27566.37
582.368	27424.45
582.728	27460.83
583.089	27362.98
583.449	27333.15
583.809	27432.36
584.169	27452.24
584.529	27355.98
584.889	27537.67
585.249	27245.02
585.609	27227.84
585.969	27440.04
586.329	27188.07
586.688	27351.91
587.048	27348.74
587.408	27236.66
587.768	27156.21
588.127	27247.05
588.487	27167.96
588.846	27309.65
589.206	27038.7
589.565	27083.21
589.925	27199.82
590.284	27135.87
590.643	27238.01
591.003	27046.38
591.362	27112.82
591.721	27121.86
592.08	27070.56
592.44	27143.33
592.799	27074.85
593.158	27071.92
593.517	27000.5
593.876	27102.87
594.235	27087.51
594.593	27093.61
594.952	26911.24
595.311	27023.1
595.67	27088.41
596.029	27034.18
596.387	27163.44
596.746	27009.09
597.104	27008.87
597.463	27044.8
597.822	27102.87
598.18	26921.18
598.538	26968.87
598.897	27075.98
599.255	26895.87
599.613	27327.95
599.972	27031.24
600.33	27085.93
600.688	27165.25
601.046	27142.2
601.404	27224.91
601.762	27190.56
602.12	27203.89
602.478	27108.3
602.836	27195.98
603.194	27038.92
603.552	27002.76
603.91	27002.99
604.268	27187.17
604.625	27165.02
604.983	27344.22
605.341	27081.41
605.698	27307.84
606.056	27346.03
606.413	27227.62
606.771	27325.92
607.128	27347.84
607.485	27249.99
607.843	27250.22
608.2	27395.97
608.557	27549.87
608.914	27402.75
609.272	27580.83
609.629	27612.69
609.986	27678
610.343	27605.46
610.7	27790.77
611.057	27491.57
611.414	27591.68
611.771	27788.51
612.127	27774.04
612.484	27823.76
612.841	27791.67
613.198	27807.94
613.554	27768.17
613.911	28100.81
614.267	27953.25
614.624	27975.17
614.98	28033.47
615.337	28218.55
615.693	28207.25
616.05	28093.81
616.406	28265.1
616.762	28228.04
617.118	28277.99
617.475	28261.26
617.831	28329.96
618.187	28376.74
618.543	28404.54
618.899	28600.01
619.255	28495.15
619.611	28419.45
619.967	28591.2
620.323	28694.02
620.678	28452.44
621.034	28447.02
621.39	28457.87
621.746	28555.94
622.101	28812.89
622.457	28563.63
622.812	28663.51
623.168	28784.19
623.523	28651.99
623.879	28829.16
624.234	28642.27
624.589	28732.21
624.945	28783.51
625.3	28737.86
625.655	28900.12
626.01	28630.29
626.365	28850.63
626.72	28749.61
627.075	28614.7
627.43	28738.54
627.785	28638.43
628.14	28690.18
628.495	28803.17
628.85	28723.17
629.205	28611.76
629.559	28809.95
629.914	28643.4
630.269	28653.57
630.623	28568.6
630.978	28561.14
631.332	28688.6
631.687	28625.77
632.041	28466
632.396	28466.68
632.75	28366.12
633.104	28533.12
633.459	28375.84
633.813	28452.44
634.167	28238.89
634.521	28333.58
634.875	28215.84
635.229	28208.83
635.583	28003.64
635.937	28173.58
636.291	28015.85
636.645	28073.92
636.999	27976.75
637.352	28068.27
637.706	27848.39
638.06	27986.24
638.413	27887.94
638.767	27736.98
639.121	28012.91
639.474	27748.51
639.828	27776.08
640.181	27729.3
640.534	27770.65
640.888	27643.2
641.241	27524.11
641.594	27601.39
641.947	27662.41
642.301	27562.75
642.654	27470.1
643.007	27391.45
643.36	27514.16
643.713	27421.74
644.066	27491.57
644.419	27298.8
644.771	27019.04
645.124	26777.46
645.477	26830.34
645.83	26795.54
646.182	26804.58
646.535	26754.64
646.888	26835.76
647.24	26812.94
647.593	26920.51
647.945	26675.54
648.298	26631.02
648.65	26489.11
649.002	26223.35
649.355	26253.86
649.707	25867.88
650.059	25947.43
650.411	26407.53
650.763	26550.8
651.115	26924.57
651.467	27112.82
651.819	26915.54
652.171	26958.47
652.523	26858.36
652.875	26808.19
653.227	26767.74
653.578	27054.74
653.93	26901.3
654.282	26790.79
654.633	26725.48
654.985	26863.56
655.337	26716.44
655.688	26724.81
656.039	26872.6
656.391	26624.47
656.742	26694.98
657.094	26650.23
657.445	26688.2
657.796	26714.41
658.147	26634.19
658.498	26855.2
658.849	26952.37
659.2	26800.74
659.551	26791.92
659.902	26861.07
660.253	26747.63
660.604	26747.86
660.955	26649.1
661.306	26897
661.656	26821.3
662.007	26744.92
662.358	26745.14
662.708	26727.07
663.059	26757.8
663.409	26520.97
663.76	26785.6
664.11	26770.91
664.461	26781.08
664.811	26828.08
665.161	26708.76
665.511	26636.45
665.862	26789.89
666.212	26734.3
666.562	26845.48
666.912	26760.96
667.262	26641.42
667.612	26837.57
667.962	26836.89
668.312	26658.37
668.662	26902.65
669.011	26807.06
669.361	26803.9
669.711	26911.24
670.06	26730.46
670.41	26752.83
670.76	26830.57
671.109	26860.17
671.459	26823.33
671.808	26752.6
672.157	26767.74
672.507	26752.15
672.856	26561.65
673.205	26668.99
673.554	26687.74
673.904	26539.95
674.253	26810.23
674.602	26614.75
674.951	26255.67
675.3	26120.08
675.649	26575.88
675.998	26575.21
676.346	26584.92
676.695	26703.79
677.044	26523.91
677.393	26531.59
677.741	26589.22
678.09	26495.43
678.438	26397.58
678.787	26485.04
679.135	26382.89
679.484	26299.05
679.832	26318.49
680.181	26286.85
680.529	26217.25
680.877	26251.15
681.225	26218.6
681.573	26440.29
681.922	26126.4
682.27	26055.44
682.618	26146.97
682.966	25994.66
683.314	26091.83
683.661	25964.83
684.009	25934.32
684.357	25747.88
684.705	25794.21
685.053	25891.16
685.4	25697.49
685.748	25653.42
686.095	25569.13
686.443	25495.46
686.79	25421.11
687.138	25478.06
687.485	25472.86
687.832	25297.5
688.18	25303.6
688.527	25285.97
688.874	25208.69
689.221	25194
689.568	25103.38
689.915	25066.77
690.262	25037.39
690.609	24898.41
690.956	24798.53
691.303	24833.56
691.65	24631.3
691.997	24530.74
692.344	24455.49
692.69	24416.17
693.037	24384.53
693.383	24074.93
693.73	24186.12
694.077	24047.14
694.423	23952.22
694.769	23889.17
695.116	23870.87
695.462	23780.7
695.808	23664.32
696.155	23612.57
696.501	23386.59
696.847	23492.8
697.193	23312.24
697.539	23300.04
697.885	23098.23
698.231	23034.06
698.577	23081.06
698.923	23049.2
699.269	22938.92
699.614	22838.35
699.96	22638.13
700.306	22660.51
700.651	22582.09
700.997	22422.77
701.342	22491.47
701.688	22366.5
702.033	22321.31
702.379	22286.28
702.724	22292.61
703.069	22234.08
703.415	21986.85
703.76	22019.39
704.105	22065.27
704.45	21879.74
704.795	21831.83
705.14	21656.46
705.485	21667.99
705.83	21543.47
706.175	21610.82
706.52	21556.58
706.865	21452.63
707.209	21379.18
707.554	21364.49
707.899	21288.79
708.243	21215.12
708.588	21071.62
708.932	20962.92
709.277	21058.74
709.621	20990.27
709.966	20736.04
710.31	20916.14
710.654	20748.69
710.998	20764.74
711.342	20876.37
711.687	20771.52
712.031	20703.5
712.375	20583.72
712.719	20526.1
713.063	20400.9
713.407	20541.69
713.75	20482.48
714.094	20399.1
714.438	20321.13
714.782	20270.74
715.125	20206.33
715.469	20360.23
715.812	20075.26
716.156	20101.48
716.499	20144.41
716.843	20180.12
717.186	19982.16
717.53	20066.68
717.873	20038.43
718.216	20126.11
718.559	19949.84
718.902	19759.79
719.246	19832.78
719.589	19804.31
719.932	19747.81
720.275	19865.55
720.617	19793.01
720.96	19752.11
721.303	19829.17
721.646	19679.34
721.989	19718.21
722.331	19656.97
722.674	19648.83
723.016	19676.86
723.359	19712.56
723.701	19617.87
724.044	19621.72
724.386	19465.11
724.729	19716.85
725.071	19524.32
725.413	19729.28
725.755	19614.48
726.097	19460.36
726.439	19405.68
726.782	19425.79
727.124	19573.58
727.465	19526.35
727.807	19474.83
728.149	19480.02
728.491	19350.99
728.833	19485.22
729.175	19492.91
729.516	19385.56
729.858	19438.44
730.199	19433.7
730.541	19431.44
730.882	19404.09
731.224	19381.72
731.565	19424.43
731.906	19468.05
732.248	19439.35
732.589	19337.88
732.93	19419.24
733.271	19377.2
733.612	19466.69
733.953	19544.2
734.294	19401.16
734.635	19303.08
734.976	19596.18
735.317	19400.25
735.658	19510.31
735.999	19331.33
736.339	19490.42
736.68	19365.9
737.021	19508.72
737.361	19464.43
737.702	19612
738.042	19628.95
738.383	19581.72
738.723	19646.8
739.063	19548.5
739.404	19736.51
739.744	19647.93
740.084	19679.57
740.424	19877.75
740.764	19694.48
741.104	19825.33
741.444	19811.99
741.784	19838.89
742.124	19983.06
742.464	20000.69
742.804	19919.34
743.143	20004.98
743.483	20151.19
743.823	20042.04
744.162	20180.35
744.502	20225.09
744.841	20229.16
745.181	20345.76
745.52	20399.32
745.86	20510.28
746.199	20524.52
746.538	20637.06
746.877	20747.11
747.216	20785.07
747.556	20794.79
747.895	20894.9
748.234	20919.53
748.573	20983.49
748.911	21056.71
749.25	21208.57
749.589	21262.58
749.928	21297.15
750.267	21510.25
750.605	21487.88
750.944	21731.26
751.283	21684.03
751.621	21861.88
751.96	21910.47
752.298	22026.4
752.636	22074.76
752.975	22142.78
753.313	22293.51
753.651	22587.51
753.989	22535.76
754.327	22738.7
754.666	22731.69
755.004	22994.51
755.342	23105.24
