Data from 7726_FLMS001491_009.txt Node
Date: Thu Apr 19 15:17:20 BST 2018
User: hsy
Spectrometer: FLMS00149
Trigger mode: 0
Integration Time (sec): 1.000000E-2
Scans to average: 10
Electric dark correction enabled: true
Nonlinearity correction enabled: false
Boxcar width: 0
XAxis mode: Wavelengths
Number of Pixels in Spectrum: 2048
>>>>>Begin Spectral Data<<<<<
341.393	2.47
341.776	2.47
342.16	2.47
342.543	-54.02
342.927	-82.27
343.31	-83.18
343.693	-75.27
344.077	-60.13
344.46	-65.1
344.843	-62.84
345.226	-32.33
345.61	-43.63
345.993	-7.25
346.376	7.22
346.759	-2.5
347.142	35.01
347.525	41.34
347.908	53.09
348.291	68.68
348.674	104.16
349.057	122.69
349.44	130.83
349.823	150.04
350.206	176.7
350.588	204.73
350.971	254.44
351.354	260.54
351.737	268.68
352.119	282.92
352.502	297.83
352.884	296.93
353.267	305.29
353.65	331.95
354.032	317.94
354.414	363.37
354.797	359.07
355.179	334.89
355.562	342.35
355.944	375.8
356.326	356.59
356.709	373.54
357.091	377.38
357.473	381.9
357.855	378.51
358.238	371.73
358.62	383.48
359.002	382.12
359.384	369.24
359.766	388
360.148	368.56
360.53	377.83
360.912	377.15
361.294	394.33
361.676	377.15
362.057	376.7
362.439	374.44
362.821	393.87
363.203	381.9
363.584	366.76
363.966	370.37
364.348	352.07
364.729	367.43
365.111	374.21
365.493	378.06
365.874	367.43
366.256	344.84
366.637	369.92
367.019	364.04
367.4	359.3
367.781	363.59
368.163	375.12
368.544	384.61
368.925	377.83
369.306	366.98
369.688	370.15
370.069	384.38
370.45	361.11
370.831	358.85
371.212	362.01
371.593	371.73
371.974	362.91
372.355	368.34
372.736	370.6
373.117	371.28
373.498	364.04
373.879	368.11
374.26	386.42
374.641	381.9
375.021	377.38
375.402	405.62
375.783	396.36
376.163	383.25
376.544	390.26
376.925	398.17
377.305	402.46
377.686	416.25
378.066	397.72
378.447	405.17
378.827	412.63
379.208	395
379.588	382.57
379.968	425.96
380.349	405.85
380.729	411.73
381.109	435
381.489	431.84
381.87	408.79
382.25	409.24
382.63	425.96
383.01	426.42
383.39	437.71
383.77	439.52
384.15	474.55
384.53	428.9
384.91	448.34
385.29	435.23
385.67	454.89
386.049	458.96
386.429	486.3
386.809	452.4
387.189	447.88
387.568	449.69
387.948	455.12
388.328	482.46
388.707	472.74
389.087	471.16
389.466	460.99
389.846	460.31
390.225	482.46
390.605	493.98
390.984	500.31
391.363	499.86
391.743	481.33
392.122	509.8
392.501	506.41
392.881	512.29
393.26	525.4
393.639	515.68
394.018	528.11
394.397	515.45
394.776	540.99
395.155	561.1
395.534	522.68
395.913	540.99
396.292	550.48
396.671	557.94
397.05	546.86
397.429	553.42
397.808	564.72
398.186	574.66
398.565	562.23
398.944	563.59
399.323	573.76
399.701	560.65
400.08	574.89
400.458	572.17
400.837	585.51
401.215	593.64
401.594	607.2
401.972	603.13
402.351	594.32
402.729	608.78
403.107	597.03
403.486	621.44
403.864	628.22
404.242	637.26
404.62	629.35
404.999	643.13
405.377	664.38
405.755	655.11
406.133	644.49
406.511	669.12
406.889	670.02
407.267	679.06
407.645	658.95
408.023	677.71
408.401	677.93
408.779	707.54
409.156	711.83
409.534	695.33
409.912	704.37
410.29	732.62
410.667	732.4
411.045	753.64
411.422	738.27
411.8	760.19
412.178	776.46
412.555	781.43
412.933	779.85
413.31	803.58
413.687	804.03
414.065	834.77
414.442	815.78
414.819	810.13
415.197	836.57
415.574	816.91
415.951	824.14
416.328	874.54
416.705	837.7
417.082	853.97
417.46	860.3
417.837	862.56
418.214	865.05
418.591	878.15
418.967	893.07
419.344	904.82
419.721	890.13
420.098	898.72
420.475	926.29
420.852	913.18
421.228	910.47
421.605	930.13
421.982	939.17
422.358	961.99
422.735	969.45
423.111	950.24
423.488	982.11
423.864	984.14
424.241	1007.42
424.617	983.01
424.994	992.05
425.37	1016
425.746	1004.93
426.123	1028.21
426.499	1053.29
426.875	1053.29
427.251	1046.51
427.627	1091.93
428.003	1092.61
428.379	1096.23
428.756	1101.65
429.132	1134.87
429.507	1148.43
429.883	1132.39
430.259	1159.96
430.635	1168.32
431.011	1173.29
431.387	1192.04
431.763	1210.12
432.138	1200.63
432.514	1228.2
432.89	1235.21
433.265	1278.37
433.641	1279.5
434.016	1273.4
434.392	1323.79
434.767	1351.59
435.143	1336
435.518	1341.19
435.894	1385.03
436.269	1368.99
436.644	1413.73
437.02	1387.75
437.395	1403.11
437.77	1441.53
438.145	1451.25
438.52	1432.94
438.895	1474.75
439.271	1479.49
439.646	1495.99
440.021	1493.96
440.395	1509.78
440.77	1491.47
441.145	1535.09
441.52	1552.04
441.895	1537.35
442.27	1570.79
442.645	1551.81
443.019	1560.4
443.394	1594.29
443.769	1597.46
444.143	1610.34
444.518	1623.45
444.892	1653.5
445.267	1646.95
445.641	1619.6
446.016	1636.78
446.39	1642.65
446.764	1683.56
447.139	1679.26
447.513	1702.31
447.887	1688.3
448.262	1700.51
448.636	1722.88
449.01	1696.21
449.384	1739.6
449.758	1761.97
450.132	1754.29
450.506	1790.22
450.88	1801.75
451.254	1810.11
451.628	1810.11
452.002	1851.69
452.376	1880.39
452.75	1857.34
453.123	1914.06
453.497	1914.06
453.871	1947.73
454.244	1998.58
454.618	1998.35
454.992	2021.85
455.365	1997.67
455.739	2055.98
456.112	2085.58
456.486	2107.5
456.859	2141.62
457.232	2197.67
457.606	2165.58
457.979	2208.97
458.352	2249.19
458.725	2293.71
459.099	2314.05
459.472	2316.08
459.845	2388.17
460.218	2380.71
460.591	2388.4
460.964	2435.4
461.337	2458.23
461.71	2494.16
462.083	2556.75
462.456	2512.01
462.829	2553.37
463.201	2585.23
463.574	2581.16
463.947	2601.73
464.32	2662.97
464.692	2689.63
465.065	2733.7
465.438	2761.95
465.81	2785.22
466.183	2820.25
466.555	2883.07
466.928	2933.02
467.3	2900.93
467.672	2931.89
468.045	2993.35
468.417	3036.06
468.789	3022.73
469.161	3045.56
469.534	3126.46
469.906	3171.88
470.278	3184.76
470.65	3261.82
471.022	3320.58
471.394	3326.45
471.766	3371.2
472.138	3424.53
472.51	3476.05
472.882	3540.23
473.253	3543.85
473.625	3620.23
473.997	3661.13
474.369	3733.45
474.74	3738.64
475.112	3781.58
475.484	3874.91
475.855	3965.98
476.227	3979.32
476.598	4098.86
476.97	4130.05
477.341	4217.05
477.713	4266.54
478.084	4314.9
478.455	4497.49
478.827	4448.91
479.198	4590.6
479.569	4639.19
479.94	4760.54
480.311	4797.15
480.682	4914.21
481.053	5054.77
481.424	5097.25
481.795	5204.37
482.166	5274.65
482.537	5304.93
482.908	5449.79
483.279	5520.52
483.65	5660.4
484.021	5741.76
484.391	5858.14
484.762	5926.84
485.133	5953.73
485.503	6070.79
485.874	6263.78
486.244	6348.75
486.615	6478.23
486.985	6618.34
487.356	6700.83
487.726	6708.74
488.097	6905.79
488.467	7018.11
488.837	7192.79
489.207	7257.2
489.578	7464.2
489.948	7512.1
490.318	7654.25
490.688	7797.07
491.058	7922.94
491.428	8069.83
491.798	8191.18
492.168	8341.46
492.538	8489.25
492.908	8601.57
493.278	8733.77
493.648	8850.15
494.017	9055.34
494.387	9152.29
494.757	9308.44
495.126	9470.25
495.496	9604.25
495.866	9705.95
496.235	9908.88
496.605	9948.2
496.974	10074.75
497.344	10230.45
497.713	10362.65
498.082	10571.69
498.452	10700.95
498.821	10883.99
499.19	10922.18
499.559	11115.4
499.928	11204.66
500.298	11449.18
500.667	11625.89
501.036	11626.35
501.405	11870.41
501.774	11956.06
502.143	12101.36
502.512	12264.52
502.88	12496.38
503.249	12506.32
503.618	12770.72
503.987	12844.62
504.356	12988.8
504.724	13102.47
505.093	13276.02
505.462	13429.46
505.83	13544.49
506.199	13718.72
506.567	13933.63
506.936	14015.21
507.304	14238.48
507.672	14395.99
508.041	14524.12
508.409	14721.41
508.777	14882.53
509.145	14957.78
509.514	15082.53
509.882	15282.07
510.25	15373.59
510.618	15644.32
510.986	15689.74
511.354	15782.62
511.722	16007.25
512.09	16257.41
512.458	16132.22
512.826	16394.58
513.193	16493.34
513.561	16681.58
513.929	16831.18
514.297	16908.69
514.664	17040.22
515.032	17189.36
515.4	17379.42
515.767	17538.06
516.135	17509.58
516.502	17498.06
516.869	17856.92
517.237	17919.74
517.604	17872.51
517.972	18189.79
518.339	18303.23
518.706	18391.37
519.073	18521.98
519.44	18615.54
519.808	18877.68
520.175	18821.64
520.542	19080.39
520.909	19216.2
521.276	19342.75
521.643	19487.16
522.009	19565.57
522.376	19781.16
522.743	19836.53
523.11	20147.03
523.477	20177.76
523.843	20259.11
524.21	20549.28
524.577	20645.09
524.943	20739.1
525.31	20800.57
525.676	21061.8
526.043	21191.52
526.409	21225.87
526.776	21476.48
527.142	21467.44
527.508	21649.13
527.874	21735.01
528.241	21990.37
528.607	21910.6
528.973	22199.18
529.339	22158.05
529.705	22397.59
530.071	22603.23
530.437	22649.79
530.803	22769.1
531.169	22722.33
531.535	22740.4
531.901	22920.97
532.267	22924.13
532.632	23080.96
532.998	23231.01
533.364	23213.39
533.73	23280.28
534.095	23479.14
534.461	23590.33
534.826	23535.41
535.192	23650.66
535.557	23708.06
535.923	23838.46
536.288	23827.61
536.653	23928.62
537.019	23796.42
537.384	23895.4
537.749	23980.15
538.114	23921.16
538.479	23959.58
538.845	24009.3
539.21	23937.21
539.575	23989.64
539.94	23958.23
540.305	24157.32
540.67	24155.06
541.034	24125.91
541.399	24232.12
541.764	24303.98
542.129	24332.45
542.494	24304.43
542.858	24423.52
543.223	24277.99
543.587	24381.94
543.952	24298.78
544.316	24472.34
544.681	24320.25
545.045	24449.96
545.41	24497.87
545.774	24420.59
546.138	24441.83
546.503	24594.14
546.867	24504.43
547.231	24663.07
547.595	24534.71
547.959	24650.64
548.324	24615.38
548.688	24647.93
549.052	24620.81
549.416	24553.69
549.779	24553.69
550.143	24586.91
550.507	24696.74
550.871	24658.55
551.235	24610.64
551.599	24916.62
551.962	24817.86
552.326	24820.12
552.689	24936.51
553.053	24807.7
553.417	24878.2
553.78	25022.15
554.143	24985.54
554.507	25061.02
554.87	25147.12
555.234	25234.35
555.597	25112.77
555.96	25232.54
556.323	25222.6
556.686	25135.82
557.05	25381.01
557.413	25412.43
557.776	25312.54
558.139	25492.2
558.502	25557.51
558.865	25510.28
559.228	25689.03
559.59	25659.65
559.953	25712.53
560.316	26028.91
560.679	25916.59
561.041	25987.33
561.404	26117.04
561.767	26215.12
562.129	26194.78
562.492	26422.12
562.854	26225.51
563.217	26363.81
563.579	26440.65
563.941	26521.32
564.304	26562.45
564.666	26817.81
565.028	26801.77
565.39	26906.85
565.753	27095.77
566.115	26991.82
566.477	27235.43
566.839	27243.79
567.201	27445.37
567.563	27399.04
567.925	27599.49
568.287	27535.99
568.648	27621.18
569.01	27732.14
569.372	27999.25
569.734	27853.49
570.095	28031.79
570.457	28050.32
570.819	28175.06
571.18	28138.46
571.542	28278.56
571.903	28218.68
572.265	28331.67
572.626	28469.97
572.987	28505.68
573.349	28643.75
573.71	28690.3
574.071	28822.96
574.432	28878.32
574.794	29124.42
575.155	29061.59
575.516	29082.61
575.877	29096.62
576.238	29175.94
576.599	29179.11
576.96	29276.73
577.32	29290.52
577.681	29314.02
578.042	29355.15
578.403	29305.43
578.763	29375.26
579.124	29424.3
579.485	29537.74
579.845	29483.73
580.206	29539.32
580.566	29562.82
580.927	29552.66
581.287	29569.6
581.648	29471.08
582.008	29542.26
582.368	29583.39
582.728	29506.78
583.089	29468.59
583.449	29539.55
583.809	29533.45
584.169	29593.33
584.529	29440.79
584.889	29617.06
585.249	29411.42
585.609	29288.93
585.969	29551.53
586.329	29403.96
586.688	29450.74
587.048	29488.93
587.408	29349.72
587.768	29272.89
588.127	29322.83
588.487	29118.09
588.846	29472.88
589.206	29114.25
589.565	29050.97
589.925	29158.99
590.284	29049.39
590.643	29076.74
591.003	29153.12
591.362	29219.1
591.721	29163.96
592.08	29078.09
592.44	29216.62
592.799	29108.83
593.158	29103.18
593.517	28999.9
593.876	29175.26
594.235	29141.59
594.593	29019.34
594.952	28982.05
595.311	28989.51
595.67	29077.87
596.029	29208.03
596.387	29104.98
596.746	29199.44
597.104	29058.43
597.463	29063.85
597.822	29252.32
598.18	28990.64
598.538	29079
598.897	29218.2
599.255	28950.41
599.613	29352.43
599.972	29096.17
600.33	29144.76
600.688	29024.76
601.046	29142.04
601.404	29380.68
601.762	29177.07
602.12	29189.73
602.478	29228.6
602.836	29346.33
603.194	29110.41
603.552	29263.62
603.91	29142.72
604.268	29190.86
604.625	29175.72
604.983	29395.37
605.341	29245.77
605.698	29520.57
606.056	29549.94
606.413	29386.56
606.771	29504.07
607.128	29486.67
607.485	29340.23
607.843	29439.66
608.2	29523.73
608.557	29521.47
608.914	29422.26
609.272	29667.45
609.629	29816.6
609.986	29850.27
610.343	29761.69
610.7	29908.58
611.057	29834
611.414	29844.4
611.771	29862.48
612.127	29909.26
612.484	29855.25
612.841	30033.09
613.198	29913.1
613.554	29930.95
613.911	30073.32
614.267	30139.98
614.624	30141.79
614.98	30187.67
615.337	30325.29
615.693	30312.64
616.05	30348.11
616.406	30416.81
616.762	30444.61
617.118	30490.94
617.475	30378.85
617.831	30539.3
618.187	30502.91
618.543	30590.14
618.899	30895.9
619.255	30747.2
619.611	30655
619.967	30876.69
620.323	30884.15
620.678	30671.95
621.034	30713.98
621.39	30805.73
621.746	30675.79
622.101	30970.47
622.457	30830.59
622.812	30956.91
623.168	30908.55
623.523	30855.67
623.879	30946.97
624.234	30866.74
624.589	30991.71
624.945	30975.44
625.3	31065.38
625.655	31104.03
626.01	31029.45
626.365	30934.54
626.72	30937.03
627.075	30878.5
627.43	31124.82
627.785	30964.82
628.14	31003.92
628.495	30854.99
628.85	31141.77
629.205	30885.73
629.559	31031.26
629.914	30883.92
630.269	30805.05
630.623	30735.9
630.978	30689.35
631.332	30920.53
631.687	30822.23
632.041	30772.28
632.396	30782.91
632.75	30681.21
633.104	30732.06
633.459	30532.29
633.813	30588.33
634.167	30518.73
634.521	30585.17
634.875	30612.97
635.229	30464.27
635.583	30429.69
635.937	30243.94
636.291	30274.44
636.645	30312.64
636.999	30258.4
637.352	30133.88
637.706	30062.25
638.06	30158.51
638.413	30148.12
638.767	29997.16
639.121	30112.87
639.474	29933.21
639.828	29916.26
640.181	29917.17
640.534	29903.83
640.888	29760.11
641.241	29646.89
641.594	29672.65
641.947	29810.73
642.301	29594.69
642.654	29692.99
643.007	29525.76
643.36	29691.86
643.713	29678.08
644.066	29757.85
644.419	29457.29
644.771	29010.3
645.124	28836.74
645.477	28845.78
645.83	28822.73
646.182	28832.45
646.535	28688.95
646.888	28951.99
647.24	28838.32
647.593	28897.31
647.945	28825.89
648.298	28762.17
648.65	28545.45
649.002	28333.25
649.355	28086.7
649.707	28107.27
650.059	27905.92
650.411	28536.18
650.763	28712.23
651.115	29155.38
651.467	29075.38
651.819	28997.42
652.171	28924.88
652.523	28897.08
652.875	28851.66
653.227	28848.94
653.578	29066.34
653.93	28967.59
654.282	28878.77
654.633	28848.94
654.985	28954.7
655.337	28871.54
655.688	28794.26
656.039	28951.32
656.391	28745.22
656.742	28889.17
657.094	28769.17
657.445	28843.75
657.796	28932.78
658.147	28646.69
658.498	28819.79
658.849	28896.18
659.2	28772.11
659.551	28773.01
659.902	28960.13
660.253	28778.66
660.604	28911.99
660.955	28791.09
661.306	28846.46
661.656	28728.04
662.007	28823.18
662.358	28835.84
662.708	28905.21
663.059	28958.32
663.409	28705.22
663.76	28852.79
664.11	28954.03
664.461	28907.7
664.811	28924.42
665.161	28937.53
665.511	28949.06
665.862	28943.86
666.212	29069.96
666.562	29021.14
666.912	28883.07
667.262	28760.59
667.612	28847.81
667.962	28847.81
668.312	28810.3
668.662	29044.65
669.011	28915.38
669.361	28779.79
669.711	28964.65
670.06	28843.75
670.41	28803.3
670.76	28737.76
671.109	28831.32
671.459	28811.88
671.808	28695.5
672.157	28859.34
672.507	28654.37
672.856	28656.18
673.205	28738.89
673.554	28785.22
673.904	28709.74
674.253	29014.59
674.602	28743.41
674.951	28408.5
675.3	28199.7
675.649	28585.45
675.998	28702.06
676.346	28653.47
676.695	28706.35
677.044	28370.09
677.393	28741.83
677.741	28788.61
678.09	28521.27
678.438	28545.68
678.787	28603.3
679.135	28523.98
679.484	28276.98
679.832	28490.08
680.181	28290.54
680.529	28425.45
680.877	28271.56
681.225	28232.69
681.573	28375.96
681.922	28141.62
682.27	28096.65
682.618	28224.1
682.966	28068.4
683.314	28073.15
683.661	28145.46
684.009	27950.89
684.357	27926.71
684.705	27855.3
685.053	27808.29
685.4	27726.71
685.748	27582.76
686.095	27586.61
686.443	27419.38
686.79	27461.86
687.138	27422.32
687.485	27498.25
687.832	27256.9
688.18	27310.68
688.527	27141.65
688.874	27154.07
689.221	27211.25
689.568	26901.2
689.915	26861.2
690.262	26907.75
690.609	26835.89
690.956	26616.24
691.303	26637.93
691.65	26562
691.997	26454.43
692.344	26370.37
692.69	26283.36
693.037	26306.86
693.383	26017.38
693.73	26132.86
694.077	25938.29
694.423	25907.78
694.769	25796.6
695.116	25670.5
695.462	25642.02
695.808	25599.76
696.155	25357.51
696.501	25322.03
696.847	25343.5
697.193	25053.34
697.539	25176.73
697.885	24985.32
698.231	24966.79
698.577	24885.66
698.923	24836.39
699.269	24635.72
699.614	24635.72
699.96	24478.89
700.306	24445.67
700.651	24263.08
700.997	24142.18
701.342	24289.97
701.688	24205.68
702.033	24001.84
702.379	24100.6
702.724	23911
703.069	23946.02
703.415	23721.17
703.76	23752.36
704.105	23729.53
704.45	23506.26
704.795	23464.23
705.14	23380.39
705.485	23365.47
705.83	23241.63
706.175	23256.32
706.52	23153.05
706.865	23077.12
707.209	22992.38
707.554	22951.25
707.899	22885.03
708.243	22851.14
708.588	22816.11
708.932	22701.08
709.277	22788.54
709.621	22617.92
709.966	22562.1
710.31	22607.3
710.654	22465.61
710.998	22393.3
711.342	22352.39
711.687	22332.96
712.031	22157.82
712.375	22030.82
712.719	22148.33
713.063	22033.98
713.407	22104.04
713.75	22028.56
714.094	22071.72
714.438	21969.13
714.782	21888.22
715.125	21843.71
715.469	21885.06
715.812	21809.81
716.156	21800.54
716.499	21679.87
716.843	21787.21
717.186	21540.89
717.53	21807.1
717.873	21717.83
718.216	21698.4
718.559	21566.65
718.902	21385.19
719.246	21467.22
719.589	21416.37
719.932	21380.89
720.275	21346.09
720.617	21412.3
720.96	21273.1
721.303	21406.88
721.646	21423.38
721.989	21244.85
722.331	21234
722.674	21239.88
723.016	21216.6
723.359	21034.69
723.701	21143.16
724.044	21116.72
724.386	21118.53
724.729	21191.97
725.071	21102.03
725.413	21056.83
725.755	21078.08
726.097	21042.14
726.439	20879.44
726.782	20912.66
727.124	21149.94
727.465	21082.6
727.807	20916.05
728.149	21094.12
728.491	20863.39
728.833	20947.01
729.175	20885.09
729.516	20847.12
729.858	20862.49
730.199	20910.17
730.541	20843.96
730.882	20875.37
731.224	20986.55
731.565	20794.02
731.906	20996.27
732.248	20963.5
732.589	20935.25
732.93	20842.6
733.271	20963.95
733.612	20789.27
733.953	20938.42
734.294	20884.86
734.635	20761.7
734.976	21008.02
735.317	20891.41
735.658	20895.48
735.999	20846.44
736.339	20979.1
736.68	20917.63
737.021	20961.24
737.361	20832.88
737.702	21039.21
738.042	21005.99
738.383	21196.04
738.723	21201.24
739.063	21121.46
739.404	21243.04
739.744	21140.67
740.084	21097.06
740.424	21231.07
740.764	21215.25
741.104	21288.47
741.444	21281.69
741.784	21275.36
742.124	21470.16
742.464	21438.07
742.804	21392.19
743.143	21429.93
743.483	21593.77
743.823	21493.66
744.162	21589.93
744.502	21678.96
744.841	21670.6
745.181	21739.98
745.52	21723.71
745.86	21943.59
746.199	21932.74
746.538	21931.39
746.877	22171.15
747.216	22208.22
747.556	22316.69
747.895	22349
748.234	22422
748.573	22384.71
748.911	22590.58
749.25	22709.9
749.589	22757.81
749.928	22846.39
750.267	22914.41
750.605	22905.15
750.944	23078.48
751.283	23201.86
751.621	23394.17
751.96	23385.81
752.298	23497.9
752.636	23625.13
752.975	23729.98
753.313	23937.89
753.651	24026.25
753.989	24095.85
754.327	24189.41
754.666	24153.7
755.004	24398.67
