Data from 7726_FLMS001491_004.txt Node
Date: Thu Apr 19 15:17:04 BST 2018
User: hsy
Spectrometer: FLMS00149
Trigger mode: 0
Integration Time (sec): 1.000000E-2
Scans to average: 10
Electric dark correction enabled: true
Nonlinearity correction enabled: false
Boxcar width: 0
XAxis mode: Wavelengths
Number of Pixels in Spectrum: 2048
>>>>>Begin Spectral Data<<<<<
341.393	-16.75
341.776	-16.75
342.16	-16.75
342.543	-48.39
342.927	-75.05
343.31	-79.57
343.693	-61.72
344.077	-48.61
344.46	-51.1
344.843	-46.81
345.226	-57.65
345.61	-33.47
345.993	-14.27
346.376	8.11
346.759	15.79
347.142	15.11
347.525	63.02
347.908	67.54
348.291	48.78
348.674	84.94
349.057	89.91
349.44	128.1
349.823	139.4
350.206	170.81
350.588	208.1
350.971	244.49
351.354	242.45
351.737	257.82
352.119	268.67
352.502	278.16
352.884	302.79
353.267	316.35
353.65	310.47
354.032	344.82
354.414	344.82
354.797	346.4
355.179	335.78
355.562	350.7
355.944	353.63
356.326	371.26
356.709	373.52
357.091	351.83
357.473	366.29
357.855	397.48
358.238	355.89
358.62	375.1
359.002	354.31
359.384	384.37
359.766	376.69
360.148	381.43
360.53	371.71
360.912	372.39
361.294	362.67
361.676	375.78
362.057	359.51
362.439	362
362.821	362
363.203	391.15
363.584	368.78
363.966	382.33
364.348	377.81
364.729	372.62
365.111	348.66
365.493	373.3
365.874	380.53
366.256	351.15
366.637	356.12
367.019	353.18
367.4	353.63
367.781	376.01
368.163	369.91
368.544	369.68
368.925	368.78
369.306	363.58
369.688	373.52
370.069	344.82
370.45	382.56
370.831	360.41
371.212	373.52
371.593	376.46
371.974	358.38
372.355	369.23
372.736	361.32
373.117	367.65
373.498	364.03
373.879	380.07
374.26	372.62
374.641	367.65
375.021	357.02
375.402	378.94
375.783	373.97
376.163	397.25
376.544	401.32
376.925	398.83
377.305	406.29
377.686	403.12
378.066	389.79
378.447	397.7
378.827	403.58
379.208	398.61
379.588	405.16
379.968	428.66
380.349	417.36
380.729	417.36
381.109	416.46
381.489	412.84
381.87	405.16
382.25	411.03
382.63	441.99
383.01	448.77
383.39	447.87
383.77	432.95
384.15	446.51
384.53	441.54
384.91	452.16
385.29	439.73
385.67	470.47
386.049	422.11
386.429	447.87
386.809	466.85
387.189	447.42
387.568	443.12
387.948	458.49
388.328	449
388.707	453.97
389.087	478.6
389.466	498.49
389.846	503.91
390.225	492.16
390.605	482.67
390.984	496.91
391.363	509.11
391.743	494.65
392.122	500.3
392.501	522.9
392.881	504.37
393.26	521.31
393.639	509.34
394.018	523.35
394.397	538.04
394.776	532.39
395.155	533.74
395.534	526.96
395.913	541.65
396.292	552.05
396.671	554.31
397.05	553.18
397.429	556.57
397.808	566.51
398.186	559.73
398.565	569.45
398.944	572.61
399.323	568.32
399.701	568.32
400.08	582.33
400.458	588.2
400.837	565.61
401.215	581.43
401.594	614.87
401.972	597.47
402.351	606.06
402.729	595.66
403.107	622.33
403.486	599.73
403.864	617.58
404.242	618.49
404.62	618.94
404.999	643.34
405.377	656.9
405.755	648.99
406.133	630.01
406.511	650.12
406.889	665.94
407.267	671.82
407.645	679.73
408.023	688.99
408.401	684.47
408.779	719.95
409.156	728.99
409.534	698.26
409.912	732.61
410.29	720.18
410.667	730.12
411.045	768.54
411.422	745.26
411.8	750.69
412.178	786.17
412.555	792.04
412.933	786.62
413.31	776.45
413.687	791.82
414.065	819.61
414.442	817.35
414.819	822.1
415.197	825.94
415.574	829.55
415.951	834.53
416.328	853.73
416.705	861.42
417.082	857.8
417.46	875.2
417.837	891.93
418.214	888.08
418.591	900.51
418.967	918.14
419.344	929.89
419.721	927.18
420.098	917.69
420.475	941.87
420.852	921.76
421.228	967.86
421.605	974.64
421.982	956.1
422.358	1000.62
422.735	981.41
423.111	986.61
423.488	976.67
423.864	1006.5
424.241	1008.98
424.617	1027.06
424.994	1056.44
425.37	1028.87
425.746	1004.01
426.123	1038.36
426.499	1054.41
426.875	1063.9
427.251	1096.44
427.627	1083.11
428.003	1091.47
428.379	1119.04
428.756	1107.97
429.132	1150.68
429.507	1153.84
429.883	1163.11
430.259	1192.26
430.635	1186.61
431.011	1186.38
431.387	1226.83
431.763	1262.31
432.138	1252.59
432.514	1248.07
432.89	1269.32
433.265	1296.43
433.641	1328.3
434.016	1305.7
434.392	1331.01
434.767	1385.92
435.143	1346.15
435.518	1366.49
435.894	1378.69
436.269	1422.31
436.644	1438.13
437.02	1402.42
437.395	1443.55
437.77	1439.48
438.145	1484.68
438.52	1469.31
438.895	1529.65
439.271	1493.04
439.646	1527.39
440.021	1530.1
440.395	1554.51
440.77	1537.11
441.145	1577.11
441.52	1582.3
441.895	1570.78
442.27	1602.42
442.645	1594.73
443.019	1583.43
443.394	1635.86
443.769	1645.35
444.143	1623.88
444.518	1669.31
444.892	1654.84
445.267	1643.09
445.641	1674.96
446.016	1693.03
446.39	1707.5
446.764	1684.9
447.139	1696.88
447.513	1721.73
447.887	1760.6
448.262	1712.47
448.636	1765.35
449.01	1780.04
449.384	1775.74
449.758	1802.18
450.132	1818
450.506	1817.33
450.88	1846.48
451.254	1842.18
451.628	1870.66
452.002	1893.26
452.376	1945.46
452.75	1923.54
453.123	1941.16
453.497	1987.49
453.871	1978.45
454.244	2025.46
454.618	2013.7
454.992	2087.15
455.365	2110.42
455.739	2137.09
456.112	2161.5
456.486	2170.99
456.859	2193.59
457.232	2232.23
457.606	2245.34
457.979	2305.22
458.352	2334.37
458.725	2328.95
459.099	2338.44
459.472	2413.69
459.845	2441.94
460.218	2424.09
460.591	2493.24
460.964	2482.62
461.337	2494.82
461.71	2569.4
462.083	2613.46
462.456	2599.45
462.829	2635.38
463.201	2654.14
463.574	2670.18
463.947	2746.11
464.32	2742.72
464.692	2798.09
465.065	2830.63
465.438	2840.35
465.81	2913.12
466.183	2891.2
466.555	2979.33
466.928	3004.19
467.3	2969.16
467.672	3039.67
468.045	3100.91
468.417	3125.54
468.789	3138.87
469.161	3206.67
469.534	3230.85
469.906	3288.25
470.278	3292.31
470.65	3293.67
471.022	3380.22
471.394	3435.36
471.766	3478.07
472.138	3526.66
472.51	3612.98
472.882	3687.56
473.253	3667.22
473.625	3717.39
473.997	3811.62
474.369	3835.35
474.74	3892.52
475.112	3947.66
475.484	3997.83
475.855	4091.84
476.227	4100.2
476.598	4204.61
476.97	4278.96
477.341	4366.86
477.713	4424.26
478.084	4499.97
478.455	4622
478.827	4625.84
479.198	4794.65
479.569	4762.56
479.94	4910.58
480.311	4961.2
480.682	5111.7
481.053	5199.16
481.424	5278.93
481.795	5358.47
482.166	5449.09
482.537	5525.7
482.908	5628.98
483.279	5747.62
483.65	5828.29
484.021	5970.89
484.391	6046.14
484.762	6144.22
485.133	6195.06
485.503	6284.55
485.874	6473.02
486.244	6539.01
486.615	6670.3
486.985	6746.01
487.356	6899.68
487.726	6957.98
488.097	7183.51
488.467	7278.2
488.837	7470.28
489.207	7562.94
489.578	7738.53
489.948	7789.6
490.318	7966.32
490.688	8064.39
491.058	8244.95
491.428	8383.25
491.798	8520.65
492.168	8719.06
492.538	8749.35
492.908	8936.69
493.278	9118.83
493.648	9204.48
494.017	9314.3
494.387	9485.37
494.757	9603.11
495.126	9748.87
495.496	9903.44
495.866	10041.97
496.235	10238.8
496.605	10328.51
496.974	10412.13
497.344	10672.01
497.713	10842.85
498.082	10858.22
498.452	11070.64
498.821	11152.22
499.19	11368.94
499.559	11491.42
499.928	11611.19
500.298	11667.46
500.667	12005.53
501.036	12071.29
501.405	12149.93
501.774	12324.62
502.143	12483.49
502.512	12660.88
502.88	12841.22
503.249	12817.94
503.618	13076.24
503.987	13134.09
504.356	13353.74
504.724	13557.36
505.093	13710.35
505.462	13827.63
505.83	13961.64
506.199	14171.8
506.567	14377.45
506.936	14464.45
507.304	14612.47
507.672	14765.23
508.041	14840.03
508.409	15149.63
508.777	15236.41
509.145	15469.85
509.514	15428.04
509.882	15676.85
510.25	15760.46
510.618	15869.16
510.986	16020.34
511.354	16172.65
511.722	16329.03
512.09	16614.68
512.458	16559.31
512.826	16771.73
513.193	16905.29
513.561	17007.66
513.929	17195.68
514.297	17348.67
514.664	17514.31
515.032	17634.08
515.4	17732.84
515.767	17820.52
516.135	18046.95
516.502	17937.35
516.869	18229.77
517.237	18345.03
517.604	18242.2
517.972	18614.4
518.339	18764.68
518.706	18821.17
519.073	18964.44
519.44	18991.56
519.808	19289.18
520.175	19289.41
520.542	19559.46
520.909	19562.62
521.276	19767.59
521.643	19909.05
522.009	20079.44
522.376	20185.66
522.743	20227.69
523.11	20429.72
523.477	20758.75
523.843	20722.36
524.21	21014.33
524.577	21041.45
524.943	21153.99
525.31	21270.15
525.676	21582.91
526.043	21633.3
526.409	21732.96
526.776	21939.28
527.142	21909.68
527.508	22064.02
527.874	22235.55
528.241	22328.42
528.607	22397.8
528.973	22585.14
529.339	22588.76
529.705	22787.4
530.071	22932.93
530.437	23048.41
530.803	23040.72
531.169	23156.43
531.535	23146.93
531.901	23358.68
532.267	23416.53
532.632	23506.02
532.998	23633.7
533.364	23718.67
533.73	23803.19
534.095	23953.47
534.461	23902.17
534.826	24031.66
535.192	23970.19
535.557	24235.94
535.923	24135.61
536.288	24241.37
536.653	24328.15
537.019	24330.41
537.384	24279.11
537.749	24336.96
538.114	24352.55
538.479	24339.22
538.845	24444.75
539.21	24423.06
539.575	24468.48
539.94	24454.7
540.305	24578.53
540.67	24540.12
541.034	24568.59
541.399	24590.74
541.764	24680.23
542.129	24666.22
542.494	24729.27
542.858	24732.2
543.223	24617.63
543.587	24827.57
543.952	24763.16
544.316	24735.14
544.681	24751.86
545.045	24894.68
545.41	24967.68
545.774	24786.44
546.138	24801.13
546.503	24842.71
546.867	24924.29
547.231	25045.19
547.595	24996.83
547.959	25018.52
548.324	25008.13
548.688	25059.43
549.052	24957.51
549.416	24948.92
549.779	24952.08
550.143	24849.49
550.507	25152.53
550.871	25103.49
551.235	25056.26
551.599	25186.88
551.962	25128.58
552.326	25187.11
552.689	25136.26
553.053	24966.09
553.417	25226.65
553.78	25380.32
554.143	25310.49
554.507	25365.41
554.87	25419.87
555.234	25486.31
555.597	25296.03
555.96	25552.97
556.323	25570.82
556.686	25629.81
557.05	25642.69
557.413	25667.55
557.776	25719.75
558.139	25726.75
558.502	25859.4
558.865	25753.87
559.228	26015.78
559.59	25898.95
559.953	26156.35
560.316	26421.2
560.679	26301.65
561.041	26264.82
561.404	26373.74
561.767	26580.06
562.129	26453.97
562.492	26694.86
562.854	26641.31
563.217	26646.95
563.579	26713.17
563.941	26928.3
564.304	27004.46
564.666	27157.45
565.028	27073.38
565.39	27299.59
565.753	27405.35
566.115	27377.78
566.477	27485.12
566.839	27514.5
567.201	27802.86
567.563	27566.03
567.925	27907.71
568.287	27841.95
568.648	27881.27
569.01	27999.24
569.372	28273.13
569.734	28237.87
570.095	28442.39
570.457	28392.67
570.819	28416.17
571.18	28439
571.542	28667.47
571.903	28741.36
572.265	28851.64
572.626	28796.95
572.987	28783.4
573.349	28904.97
573.71	29018.19
574.071	29064.74
574.432	29276.72
574.794	29376.6
575.155	29315.13
575.516	29335.25
575.877	29245.3
576.238	29297.96
576.599	29518.52
576.96	29561
577.32	29441.91
577.681	29484.85
578.042	29494.56
578.403	29541.57
578.763	29512.64
579.124	29509.93
579.485	29582.02
579.845	29743.14
580.206	29690.94
580.566	29766.19
580.927	29684.61
581.287	29681.45
581.648	29608.46
582.008	29599.42
582.368	29721
582.728	29736.14
583.089	29731.62
583.449	29724.16
583.809	29756.7
584.169	29793.09
584.529	29644.16
584.889	29922.12
585.249	29757.16
585.609	29604.84
585.969	29752.86
586.329	29651.85
586.688	29711.05
587.048	29643.03
587.408	29597.61
587.768	29548.12
588.127	29552.42
588.487	29549.25
588.846	29691.17
589.206	29366.43
589.565	29341.12
589.925	29585.41
590.284	29408.69
590.643	29321.01
591.003	29359.88
591.362	29517.84
591.721	29592.19
592.08	29398.52
592.44	29558.06
592.799	29277.39
593.158	29201.24
593.517	29325.3
593.876	29290.73
594.235	29304.96
594.593	29210.5
594.952	29267.9
595.311	29164.4
595.67	29290.28
596.029	29446.66
596.387	29405.3
596.746	29438.52
597.104	29182.26
597.463	29182.71
597.822	29356.49
598.18	29306.09
598.538	29283.5
598.897	29418.41
599.255	29152.43
599.613	29407.56
599.972	29241.46
600.33	29447.33
600.688	29324.17
601.046	29308.81
601.404	29494.79
601.762	29348.13
602.12	29378.86
602.478	29353.32
602.836	29355.36
603.194	29162.14
603.552	29401.46
603.91	29280.78
604.268	29430.61
604.625	29401.68
604.983	29560.78
605.341	29518.07
605.698	29504.96
606.056	29612.75
606.413	29479.87
606.771	29644.39
607.128	29556.26
607.485	29570.49
607.843	29482.36
608.2	29562.36
608.557	29725.97
608.914	29734.33
609.272	29874.44
609.629	29890.71
609.986	29906.98
610.343	29846.42
610.7	30074.66
611.057	29931.61
611.414	29838.96
611.771	30001.89
612.127	30042.12
612.484	30016.13
612.841	30229.46
613.198	30025.17
613.554	30093.42
613.911	30223.36
614.267	30283.7
614.624	30272.4
614.98	30414.09
615.337	30497.02
615.693	30513.75
616.05	30406.18
616.406	30523.91
616.762	30565.72
617.118	30558.04
617.475	30402.11
617.831	30627.42
618.187	30620.64
618.543	30684.36
618.899	30859.5
619.255	30737.47
619.611	30805.49
619.967	30997.35
620.323	31007.52
620.678	30860.86
621.034	30985.6
621.39	30810.46
621.746	30912.38
622.101	31233.5
622.457	30918.93
622.812	31158.93
623.168	31111.02
623.523	30966.39
623.879	31085.93
624.234	30992.83
624.589	31054.97
624.945	31140.85
625.3	31285.25
625.655	31270.79
626.01	31271.24
626.365	31167.29
626.72	31155.99
627.075	31174.97
627.43	31195.08
627.785	31118.25
628.14	30987.86
628.495	31175.88
628.85	31057.23
629.205	31109.66
629.559	31193.73
629.914	31018.59
630.269	30953.73
630.623	30947.63
630.978	30789.22
631.332	30916.22
631.687	30936.33
632.041	30835.55
632.396	30851.59
632.75	30759.16
633.104	30950.12
633.459	30674.65
633.813	30647.53
634.167	30621.54
634.521	30702.89
634.875	30696.11
635.229	30639.39
635.583	30386.74
635.937	30471.03
636.291	30367.31
636.645	30422.67
636.999	30292.73
637.352	30526.4
637.706	30208.67
638.06	30354.43
638.413	30165.28
638.767	30078.05
639.121	30081.44
639.474	29991.95
639.828	30049.58
640.181	29983.82
640.534	30108.56
640.888	29893.65
641.241	29748.12
641.594	29874.89
641.947	29826.53
642.301	29769.36
642.654	29790.15
643.007	29706.99
643.36	29817.27
643.713	29733.43
644.066	29784.05
644.419	29388.8
644.771	29248.69
645.124	28997.63
645.477	29013.22
645.83	28936.39
646.182	28982.71
646.535	28879.21
646.888	28916.73
647.24	28948.59
647.593	29002.15
647.945	28986.78
648.298	28692.1
648.65	28590.41
649.002	28598.77
649.355	28438.55
649.707	28261.6
650.059	28280.36
650.411	28762.83
650.763	28857.74
651.115	29276.49
651.467	29185.42
651.819	29242.37
652.171	29128.7
652.523	29031.3
652.875	29003.05
653.227	29086.66
653.578	29222.25
653.93	29178.87
654.282	29085.08
654.633	29053.9
654.985	29180.9
655.337	29071.3
655.688	29126.44
656.039	29172.76
656.391	28901.36
656.742	28960.34
657.094	28958.31
657.445	29000.11
657.796	29071.52
658.147	28916.5
658.498	28994.46
658.849	29075.82
659.2	29048.25
659.551	28958.76
659.902	29207.79
660.253	28905.88
660.604	28976.16
660.955	28987.68
661.306	29076.95
661.656	29112.43
662.007	29077.4
662.358	29002.82
662.708	29030.85
663.059	29048.02
663.409	28907.46
663.76	28998.53
664.11	29128.25
664.461	29181.8
664.811	29100.45
665.161	29159.21
665.511	29078.08
665.862	29064.29
666.212	29096.83
666.562	29152.43
666.912	29104.97
667.262	29097.51
667.612	29064.97
667.962	29048.25
668.312	28987.01
668.662	29214.12
669.011	29136.61
669.361	29067.46
669.711	29169.6
670.06	28909.95
670.41	28970.74
670.76	28980.9
671.109	29066.78
671.459	29023.16
671.808	29047.57
672.157	29127.34
672.507	28841.02
672.856	28844.64
673.205	28915.14
673.554	28964.63
673.904	28837.18
674.253	29164.18
674.602	28853.9
674.951	28486.68
675.3	28362.39
675.649	28789.95
675.998	28703.62
676.346	28885.54
676.695	28958.08
677.044	28754.47
677.393	28782.27
677.741	28705.43
678.09	28719.67
678.438	28494.36
678.787	28714.24
679.135	28611.2
679.484	28441.48
679.832	28525.32
680.181	28578.2
680.529	28487.81
680.877	28321.71
681.225	28306.35
681.573	28489.84
681.922	28348.6
682.27	28317.87
682.618	28362.84
682.966	28160.59
683.314	28234.94
683.661	28081.49
684.009	28140.47
684.357	28025
684.705	27847.15
685.053	27929.86
685.4	27711.79
685.748	27733.93
686.095	27768.28
686.443	27575.07
686.79	27570.77
687.138	27439.25
687.485	27415.75
687.832	27322.64
688.18	27399.25
688.527	27266.37
688.874	27263.66
689.221	27221.18
689.568	27093.27
689.915	26968.08
690.262	26969.66
690.609	26890.56
690.956	26744.81
691.303	26794.07
691.65	26505.26
691.997	26611.93
692.344	26499.39
692.69	26390.69
693.037	26297.13
693.383	26130.13
693.73	26119.28
694.077	26010.36
694.423	26043.58
694.769	25840.65
695.116	25782.57
695.462	25709.58
695.808	25566.98
696.155	25580.09
696.501	25412.41
696.847	25589.36
697.193	25348.91
697.539	25422.58
697.885	25190.5
698.231	25119.99
698.577	25104.85
698.923	25076.15
699.269	24951.41
699.614	24876.15
699.96	24678.64
700.306	24558.65
700.651	24472.32
700.997	24456.73
701.342	24407.24
701.688	24333.57
702.033	24203.4
702.379	24157.3
702.724	24082.95
703.069	23984.88
703.415	23732.46
703.76	23737.2
704.105	23713.92
704.45	23620.82
704.795	23636.19
705.14	23476.64
705.485	23521.39
705.83	23275.52
706.175	23440.26
706.52	23255.86
706.865	23098.12
707.209	23131.57
707.554	23147.16
707.899	23013.15
708.243	22929.76
708.588	22945.36
708.932	22770.45
709.277	22826.49
709.621	22656.78
709.966	22585.14
710.31	22530.23
710.654	22461.53
710.998	22394.41
711.342	22538.14
711.687	22365.26
712.031	22353.28
712.375	22312.83
712.719	22262.44
713.063	22185.15
713.407	22323.9
713.75	22167.75
714.094	22130.69
714.438	22028.55
714.782	22050.47
715.125	21870.36
715.469	21970.02
715.812	21816.57
716.156	21778.61
716.499	21822.67
716.843	21787.2
717.186	21696.35
717.53	21828.55
717.873	21803.01
718.216	21734.99
718.559	21637.37
718.902	21397.15
719.246	21590.82
719.589	21549.24
719.932	21371.84
720.275	21349.24
720.617	21397.38
720.96	21320.32
721.303	21454.1
721.646	21369.58
721.989	21350.14
722.331	21287.32
722.674	21306.98
723.016	21259.3
723.359	21206.87
723.701	21289.36
724.044	21147.89
724.386	21128.46
724.729	21205.29
725.071	21282.12
725.413	21195.35
725.755	21160.77
726.097	20972.53
726.439	20957.16
726.782	21070.6
727.124	21103.6
727.465	21029.48
727.807	20937.5
728.149	21045.75
728.491	20877.61
728.833	20991.06
729.175	21003.04
729.516	21034.9
729.858	20944.96
730.199	21026.09
730.541	21011.85
730.882	20954
731.224	20966.2
731.565	20857.5
731.906	20969.14
732.248	21015.46
732.589	20873.55
732.93	20939.99
733.271	20915.81
733.612	20959.42
733.953	20998.29
734.294	20830.84
734.635	20899.76
734.976	20964.84
735.317	21044.62
735.658	20975.69
735.999	20954.45
736.339	20984.05
736.68	21072.19
737.021	20998.29
737.361	20975.24
737.702	21160.55
738.042	21054.79
738.383	21186.76
738.723	21184.73
739.063	21093.43
739.404	21218.17
739.744	21254.55
740.084	21236.7
740.424	21239.87
740.764	21373.2
741.104	21420.43
741.444	21373.87
741.784	21294.33
742.124	21506.75
742.464	21461.1
742.804	21489.58
743.143	21520.76
743.483	21609.8
743.823	21564.15
744.162	21665.62
744.502	21773.86
744.841	21714.88
745.181	21850.02
745.52	21912.62
745.86	22001.65
746.199	22056.11
746.538	22160.97
746.877	22223.34
747.216	22221.99
747.556	22386.28
747.895	22436.9
748.234	22542.88
748.573	22554.18
748.911	22703.78
749.25	22798.69
749.589	22818.81
749.928	22886.6
750.267	23022.64
750.605	23132.47
750.944	23228.29
751.283	23319.13
751.621	23523.2
751.96	23489.98
752.298	23694.94
752.636	23835.73
752.975	23817.65
753.313	23979.23
753.651	24115.5
753.989	24191.2
754.327	24310.97
754.666	24298.54
