Data from 7726_FLMS001491_003.txt Node
Date: Thu Apr 19 15:17:01 BST 2018
User: hsy
Spectrometer: FLMS00149
Trigger mode: 0
Integration Time (sec): 1.000000E-2
Scans to average: 10
Electric dark correction enabled: true
Nonlinearity correction enabled: false
Boxcar width: 0
XAxis mode: Wavelengths
Number of Pixels in Spectrum: 2048
>>>>>Begin Spectral Data<<<<<
341.393	-13.95
341.776	-13.95
342.16	-13.95
342.543	-46.04
342.927	-73.39
343.31	-67.06
343.693	-70.68
344.077	-70
344.46	-69.32
344.843	-64.35
345.226	-53.28
345.61	-29.55
345.993	-6.27
346.376	-1.53
346.759	-6.27
347.142	41.64
347.525	43.45
347.908	60.62
348.291	80.05
348.674	106.04
349.057	106.49
349.44	116.44
349.823	161.18
350.206	181.75
350.588	207.96
350.971	245.7
351.354	260.16
351.737	255.19
352.119	285.25
352.502	272.59
352.884	303.1
353.267	306.72
353.65	331.12
354.032	322.53
354.414	352.14
354.797	329.54
355.179	348.97
355.562	346.49
355.944	352.59
356.326	359.14
356.709	360.5
357.091	370.67
357.473	375.64
357.855	384.68
358.238	379.03
358.62	379.71
359.002	374.28
359.384	374.96
359.766	371.12
360.148	370.22
360.53	370.67
360.912	359.37
361.294	381.29
361.676	372.93
362.057	362.98
362.439	398.46
362.821	356.66
363.203	387.84
363.584	359.82
363.966	389.2
364.348	371.8
364.729	369.76
365.111	350.56
365.493	355.53
365.874	348.97
366.256	367.96
366.637	356.66
367.019	353.27
367.4	360.95
367.781	357.79
368.163	341.97
368.544	360.05
368.925	350.33
369.306	379.48
369.688	348.97
370.069	349.65
370.45	359.14
370.831	363.66
371.212	371.35
371.593	370.89
371.974	360.72
372.355	384
372.736	402.76
373.117	379.48
373.498	373.38
373.879	377.67
374.26	375.87
374.641	353.95
375.021	382.87
375.402	371.12
375.783	381.52
376.163	389.2
376.544	394.85
376.925	397.56
377.305	392.36
377.686	395.3
378.066	378.8
378.447	424.45
378.827	381.74
379.208	396.88
379.588	392.59
379.968	398.92
380.349	401.85
380.729	413.38
381.109	419.03
381.489	395.98
381.87	432.59
382.25	437.11
382.63	449.99
383.01	413.83
383.39	422.19
383.77	436.2
384.15	438.24
384.53	440.95
384.91	439.37
385.29	440.72
385.67	452.7
386.049	450.44
386.429	417.22
386.809	439.14
387.189	439.59
387.568	466.26
387.948	475.52
388.328	454.96
388.707	452.7
389.087	476.2
389.466	479.14
389.846	474.39
390.225	487.73
390.605	467.61
390.984	478.69
391.363	469.2
391.743	476.2
392.122	482.76
392.501	498.35
392.881	498.12
393.26	517.33
393.639	511.68
394.018	480.27
394.397	503.55
394.776	497.44
395.155	508.74
395.534	553.49
395.913	523.43
396.292	525.69
396.671	527.27
397.05	520.49
397.429	532.47
397.808	541.51
398.186	534.96
398.565	536.54
398.944	539.25
399.323	558.69
399.701	570.21
400.08	562.53
400.458	539.48
400.837	548.29
401.215	573.6
401.594	558.69
401.972	590.78
402.351	559.59
402.729	581.74
403.107	580.38
403.486	595.07
403.864	594.39
404.242	588.06
404.62	606.14
404.999	594.62
405.377	606.14
405.755	624.9
406.133	639.59
406.511	642.53
406.889	659.25
407.267	651.11
407.645	644.56
408.023	666.25
408.401	682.98
408.779	661.28
409.156	681.17
409.534	666.25
409.912	673.03
410.29	690.43
410.667	686.37
411.045	729.3
411.422	708.06
411.8	738.12
412.178	718.91
412.555	740.15
412.933	748.51
413.31	776.53
413.687	775.86
414.065	766.59
414.442	764.78
414.819	778.79
415.197	804.78
415.574	816.76
415.951	795.52
416.328	775.18
416.705	815.85
417.082	811.11
417.46	832.35
417.837	839.58
418.214	840.94
418.591	830.32
418.967	852.92
419.344	865.12
419.721	847.27
420.098	875.51
420.475	857.21
420.852	869.41
421.228	881.62
421.605	898.11
421.982	884.33
422.358	892.91
422.735	903.31
423.111	920.26
423.488	927.04
423.864	922.74
424.241	944.89
424.617	962.29
424.994	941.73
425.37	976.75
425.746	965
426.123	983.99
426.499	998.67
426.875	1008.39
427.251	1021.05
427.627	1011.1
428.003	1042.74
428.379	1050.2
428.756	1052.68
429.132	1052.91
429.507	1076.64
429.883	1074.38
430.259	1084.55
430.635	1131.1
431.011	1092.91
431.387	1131.33
431.763	1175.17
432.138	1182.62
432.514	1194.15
432.89	1186.69
433.265	1209.29
433.641	1196.41
434.016	1212
434.392	1216.3
434.767	1264.66
435.143	1258.55
435.518	1272.11
435.894	1274.6
436.269	1314.15
436.644	1326.58
437.02	1317.31
437.395	1341.94
437.77	1362.28
438.145	1320.93
438.52	1366.57
438.895	1396.63
439.271	1371.55
439.646	1428.72
440.021	1399.79
440.395	1426.91
440.77	1405.9
441.145	1419.68
441.52	1439.34
441.895	1455.16
442.27	1444.31
442.645	1481.15
443.019	1470.53
443.394	1499
443.769	1506.46
444.143	1501.71
444.518	1526.12
444.892	1514.14
445.267	1513.69
445.641	1530.41
446.016	1573.57
446.39	1579.45
446.764	1581.48
447.139	1581.26
447.513	1571.77
447.887	1571.09
448.262	1562.73
448.636	1597.3
449.01	1656.96
449.384	1654.02
449.758	1665.1
450.132	1666.23
450.506	1685.89
450.88	1702.16
451.254	1708.71
451.628	1704.19
452.002	1718.66
452.376	1735.38
452.75	1762.95
453.123	1767.47
453.497	1793
453.871	1828.71
454.244	1854.02
454.618	1859.89
454.992	1912.1
455.365	1897.63
455.739	1947.35
456.112	1977.18
456.486	1966.33
456.859	1992.32
457.232	2029.61
457.606	2049.49
457.979	2053.11
458.352	2092.66
458.725	2120.23
459.099	2105.09
459.472	2165.2
459.845	2191.64
460.218	2213.33
460.591	2242.94
460.964	2261.92
461.337	2310.28
461.71	2345.31
462.083	2361.12
462.456	2366.1
462.829	2356.83
463.201	2439.31
463.574	2436.6
463.947	2508.01
464.32	2476.15
464.692	2513.66
465.065	2558.18
465.438	2595.47
465.81	2595.02
466.183	2631.85
466.555	2672.08
466.928	2700.55
467.3	2696.26
467.672	2737.16
468.045	2814.67
468.417	2804.95
468.789	2802.02
469.161	2835.24
469.534	2848.34
469.906	2957.72
470.278	2973.54
470.65	3041.33
471.022	3091.5
471.394	3085.85
471.766	3173.53
472.138	3169.24
472.51	3258.73
472.882	3311.16
473.253	3302.79
473.625	3377.37
473.997	3463.69
474.369	3470.47
474.74	3477.03
475.112	3546.18
475.484	3615.33
475.855	3702.78
476.227	3708.43
476.598	3820.97
476.97	3872.05
477.341	3901.42
477.713	3954.08
478.084	4056.9
478.455	4144.81
478.827	4162.88
479.198	4293.05
479.569	4308.19
479.94	4382.31
480.311	4462.99
480.682	4573.95
481.053	4652.59
481.424	4691.91
481.795	4815.3
482.166	4880.83
482.537	4910.44
482.908	5069.3
483.279	5156.98
483.65	5248.73
484.021	5368.05
484.391	5395.85
484.762	5484.43
485.133	5560.59
485.503	5662.51
485.874	5835.38
486.244	5800.81
486.615	5987.24
486.985	6091.87
487.356	6216.39
487.726	6300.91
488.097	6432.88
488.467	6506.78
488.837	6625.64
489.207	6786.09
489.578	6920.55
489.948	6979.99
490.318	7089.36
490.688	7227.44
491.058	7392.18
491.428	7526.86
491.798	7629.23
492.168	7808.44
492.538	7851.15
492.908	8058.6
493.278	8123.91
493.648	8203.46
494.017	8393.51
494.387	8501.98
494.757	8711.69
495.126	8796.21
495.496	8885.7
495.866	9063.55
496.235	9151.45
496.605	9302.86
496.974	9439.36
497.344	9549.18
497.713	9773.36
498.082	9932.68
498.452	10031.66
498.821	10167.25
499.19	10117.98
499.559	10414.92
499.928	10508.48
500.298	10741.69
500.667	10786.67
501.036	10973.1
501.405	11129.93
501.774	11256.26
502.143	11398.85
502.512	11551.39
502.88	11755.68
503.249	11827.32
503.618	12025.28
503.987	12138.49
504.356	12315.89
504.724	12401.31
505.093	12546.17
505.462	12670.23
505.83	12826.16
506.199	13010.34
506.567	13276.54
506.936	13267.5
507.304	13509.08
507.672	13653.26
508.041	13699.36
508.409	13914.04
508.777	14070.2
509.145	14200.59
509.514	14332.11
509.882	14400.36
510.25	14685.55
510.618	14732.32
510.986	14862.26
511.354	15007.35
511.722	15194.23
512.09	15378.86
512.458	15281.69
512.826	15554.68
513.193	15656.37
513.561	15805.97
513.929	15948.79
514.297	16084.83
514.664	16175.45
515.032	16271.27
515.4	16426.74
515.767	16627.42
516.135	16738.6
516.502	16655.21
516.869	16914.87
517.237	17160.51
517.604	17072.83
517.972	17293.16
518.339	17417.23
518.706	17478.92
519.073	17618.35
519.44	17678.01
519.808	17940.6
520.175	17956.87
520.542	18191.44
520.909	18257.2
521.276	18410.19
521.643	18567.03
522.009	18492.9
522.376	18755.04
522.743	18854.7
523.11	19024.64
523.477	19277.74
523.843	19287.91
524.21	19500.79
524.577	19685.87
524.943	19666.21
525.31	19819.2
525.676	20136.25
526.043	20214.89
526.409	20284.04
526.776	20497.6
527.142	20421.67
527.508	20608.1
527.874	20836.57
528.241	20778.49
528.607	20905.95
528.973	21167.41
529.339	21109.33
529.705	21297.8
530.071	21399.72
530.437	21531.02
530.803	21541.64
531.169	21686.72
531.535	21811.01
531.901	21833.61
532.267	21808.75
532.632	21973.94
532.998	21982.98
533.364	22169.42
533.73	22085.35
534.095	22284.44
534.461	22265.69
534.826	22264.78
535.192	22354.72
535.557	22607.15
535.923	22467.04
536.288	22574.83
536.653	22681.72
537.019	22575.96
537.384	22693.02
537.749	22710.65
538.114	22652.34
538.479	22652.79
538.845	22797.2
539.21	22743.64
539.575	22805.33
539.94	22806.91
540.305	22828.61
540.67	22895.73
541.034	22916.52
541.399	22909.96
541.764	22986.57
542.129	22933.92
542.494	22999
542.858	23054.59
543.223	22959.45
543.587	23144.31
543.952	23064.76
544.316	23099.34
544.681	23095.27
545.045	23317.18
545.41	23131.65
545.774	23213.68
546.138	23141.82
546.503	23152.67
546.867	23133.91
547.231	23262.04
547.595	23271.76
547.959	23327.8
548.324	23268.82
548.688	23316.28
549.052	23307.47
549.416	23261.59
549.779	23280.12
550.143	23360.8
550.507	23385.88
550.871	23430.85
551.235	23434.47
551.599	23514.01
551.962	23532.55
552.326	23508.14
552.689	23471.08
553.053	23372.1
553.417	23507.69
553.78	23616.84
554.143	23501.59
554.507	23652.32
554.87	23678.53
555.234	23778.19
555.597	23680.34
555.96	23705.42
556.323	23782.71
556.686	23670.39
557.05	23964.4
557.413	23872.65
557.776	23959.43
558.139	24071.06
558.502	24043.94
558.865	24074.9
559.228	24245.52
559.59	24203.26
559.953	24231.96
560.316	24410.94
560.679	24330.49
561.041	24466.53
561.404	24583.14
561.767	24667.88
562.129	24682.8
562.492	24802.34
562.854	24744.72
563.217	24838.95
563.579	24903.13
563.941	24885.28
564.304	25111.49
564.666	25201.88
565.028	25231.71
565.39	25261.99
565.753	25480.06
566.115	25436.45
566.477	25631.7
566.839	25583.56
567.201	25746.05
567.563	25645.94
567.925	25891.35
568.287	25876.66
568.648	25961.86
569.01	26151.91
569.372	26219.71
569.734	26151.69
570.095	26332.92
570.457	26541.05
570.819	26459.7
571.18	26456.76
571.542	26540.6
571.903	26619.7
572.265	26709.18
572.626	26867.37
572.987	26849.97
573.349	26926.58
573.71	27053.36
574.071	26989.4
574.432	27096.07
574.794	27324.31
575.155	27213.58
575.516	27222.39
575.877	27286.8
576.238	27388.94
576.599	27451.76
576.96	27559.11
577.32	27479.33
577.681	27479.79
578.042	27646.79
578.403	27683.62
578.763	27463.29
579.124	27619.9
579.485	27654.7
579.845	27807.91
580.206	27627.35
580.566	27696.73
580.927	27708.25
581.287	27873
581.648	27714.58
582.008	27864.18
582.368	27710.29
582.728	27706.9
583.089	27720.68
583.449	27812.66
583.809	27835.48
584.169	27781.7
584.529	27688.37
584.889	27817.18
585.249	27741.47
585.609	27620.35
585.969	27706.67
586.329	27532.67
586.688	27742.6
587.048	27587.58
587.408	27661.02
587.768	27576.73
588.127	27442.05
588.487	27386.23
588.846	27609.27
589.206	27418.54
589.565	27367.47
589.925	27573.79
590.284	27403.86
590.643	27301.71
591.003	27301.94
591.362	27457.41
591.721	27424.42
592.08	27380.81
592.44	27438.66
592.799	27442.05
593.158	27261.49
593.517	27228.27
593.876	27380.13
594.235	27276.4
594.593	27304.2
594.952	27335.38
595.311	27198.66
595.67	27252
596.029	27456.28
596.387	27260.13
596.746	27462.16
597.104	27245.22
597.463	27218.32
597.822	27337.19
598.18	27232.79
598.538	27242.28
598.897	27384.2
599.255	27265.33
599.613	27627.8
599.972	27367.47
600.33	27295.61
600.688	27279.57
601.046	27269.17
601.404	27472.33
601.762	27426.91
602.12	27520.01
602.478	27501.03
602.836	27397.53
603.194	27308.94
603.552	27378.77
603.91	27357.08
604.268	27563.4
604.625	27372.67
604.983	27526.34
605.341	27362.95
605.698	27629.16
606.056	27640.91
606.413	27492.89
606.771	27567.92
607.128	27577.86
607.485	27442.27
607.843	27605.43
608.2	27641.14
608.557	27770.63
608.914	27649.5
609.272	27721.59
609.629	27865.31
609.986	27886.1
610.343	27745.32
610.7	28023.95
611.057	27895.59
611.414	27857.86
611.771	28105.98
612.127	28050.62
612.484	28092.88
612.841	28232.99
613.198	28020.56
613.554	28078.41
613.911	28252.42
614.267	28246.09
614.624	28224.4
614.98	28290.84
615.337	28521.11
615.693	28442.02
616.05	28385.07
616.406	28551.62
616.762	28407.9
617.118	28519.76
617.475	28435.47
617.831	28525.41
618.187	28645.63
618.543	28741.67
618.899	28843.37
619.255	28785.51
619.611	28708.91
619.967	28898.51
620.323	28850.6
620.678	28718.17
621.034	28880.65
621.39	28767.44
621.746	28719.08
622.101	29086.07
622.457	28753.88
622.812	28893.99
623.168	28980.54
623.523	28929.01
623.879	29070.03
624.234	28922.23
624.589	29007.66
624.945	28892.18
625.3	29049.46
625.655	28971.72
626.01	29037.94
626.365	28960.65
626.72	29004.04
627.075	28976.92
627.43	28972.4
627.785	28899.41
628.14	29001.1
628.495	29031.16
628.85	29003.14
629.205	28807.66
629.559	29137.14
629.914	28910.93
630.269	29006.53
630.623	28716.82
630.978	28762.69
631.332	28873.87
631.687	28802.91
632.041	28779.64
632.396	28860.99
632.75	28854.44
633.104	28806.53
633.459	28576.48
633.813	28673.2
634.167	28669.59
634.521	28682.69
634.875	28628.23
635.229	28610.6
635.583	28427.78
635.937	28496.48
636.291	28332.64
636.645	28454
636.999	28344.4
637.352	28499.19
637.706	28194.8
638.06	28309.14
638.413	28145.08
638.767	28153.21
639.121	28231.63
639.474	28025.53
639.828	28011.07
640.181	28052.65
640.534	28108.92
640.888	27920.68
641.241	27858.76
641.594	27856.73
641.947	27950.73
642.301	27958.87
642.654	27768.37
643.007	27840.68
643.36	27806.56
643.713	27764.3
644.066	27904.63
644.419	27643.85
644.771	27347.13
645.124	27042.06
645.477	27089.97
645.83	27023.75
646.182	27009.52
646.535	27150.76
646.888	27038.44
647.24	27000.02
647.593	27139.23
647.945	26926.13
648.298	26961.61
648.65	26815.4
649.002	26676.64
649.355	26393.71
649.707	26348.74
650.059	26254.28
650.411	26672.8
650.763	26979.23
651.115	27416.06
651.467	27348.26
651.819	27193.01
652.171	27278.66
652.523	27190.08
652.875	27221.94
653.227	27067.82
653.578	27344.42
653.93	27265.1
654.282	27127.48
654.633	27108.04
654.985	27108.72
655.337	27205.67
655.688	27164.09
656.039	27123.19
656.391	26913.7
656.742	27021.49
657.094	26949.4
657.445	27099
657.796	27058.78
658.147	26949.4
658.498	27159.79
658.849	27168.16
659.2	27121.15
659.551	26933.36
659.902	27273.69
660.253	27099.68
660.604	27107.37
660.955	27036.63
661.306	27198.44
661.656	27216.52
662.007	27040.93
662.358	27114.6
662.708	27249.74
663.059	27154.82
663.409	27131.32
663.76	27232.11
664.11	27244.76
664.461	27264.88
664.811	27291.54
665.161	27230.75
665.511	27134.71
665.862	27220.81
666.212	27231.43
666.562	27312.11
666.912	27129.96
667.262	27134.03
667.612	27184.88
667.962	27222.84
668.312	27193.69
668.662	27262.62
669.011	27263.07
669.361	27147.82
669.711	27254.48
670.06	27207.02
670.41	26895.17
670.76	27065.79
671.109	27143.98
671.459	27157.53
671.808	27116.41
672.157	27190.75
672.507	26975.62
672.856	26933.81
673.205	26970.42
673.554	27101.72
673.904	26952.57
674.253	27146.01
674.602	27041.38
674.951	26609.98
675.3	26525.91
675.649	26976.97
675.998	26946.47
676.346	27069.85
676.695	26929.74
677.044	26728.39
677.393	26892.23
677.741	26856.53
678.09	26741.27
678.438	26817.43
678.787	26856.75
679.135	26883.87
679.484	26597.1
679.832	26709.86
680.181	26601.39
680.529	26669.41
680.877	26556.65
681.225	26518
681.573	26754.61
681.922	26550.32
682.27	26298.12
682.618	26444.78
682.966	26373.37
683.314	26421.96
683.661	26374.96
684.009	26313.49
684.357	26237.11
684.705	26232.59
685.053	26146.04
685.4	25955.31
685.748	25963.22
686.095	25913.95
686.443	25753.5
686.79	25725.03
687.138	25841.64
687.485	25737.91
687.832	25592.83
688.18	25630.34
688.527	25521.87
688.874	25475.09
689.221	25405.04
689.568	25253.86
689.915	25303.8
690.262	25321.42
690.609	25156.91
690.956	25013.86
691.303	25062
691.65	24836.47
691.997	24858.39
692.344	24747.65
692.69	24788.56
693.037	24792.62
693.383	24526.64
693.73	24529.13
694.077	24282.81
694.423	24448.45
694.769	24254.56
695.116	24261.11
695.462	24128.69
695.808	24064.51
696.155	24056.15
696.501	23816.83
696.847	23850.28
697.193	23681.02
697.539	23695.03
697.885	23474.47
698.231	23377.52
698.577	23430.85
698.923	23382.27
699.269	23134.59
699.614	23164.87
699.96	23032.67
700.306	23048.72
700.651	22947.7
700.997	22844.43
701.342	22799.68
701.688	22837.65
702.033	22718.33
702.379	22720.82
702.724	22549.29
703.069	22561.27
703.415	22297.32
703.76	22324.44
704.105	22378.45
704.45	22180.49
704.795	22086.03
705.14	21975.98
705.485	21944.79
705.83	21883.32
706.175	21990.89
706.52	21858.24
706.865	21724.68
707.209	21619.83
707.554	21611.69
707.899	21584.8
708.243	21403.79
708.588	21386.61
708.932	21314.98
709.277	21223
709.621	21279.72
709.966	21135.32
710.31	21084.02
710.654	20972.61
710.998	20976.45
711.342	21115.89
711.687	20972.16
712.031	20841.54
712.375	20852.39
712.719	20780.53
713.063	20726.29
713.407	20824.82
713.75	20655.11
714.094	20698.27
714.438	20585.05
714.782	20561.55
715.125	20491.72
715.469	20790.02
715.812	20503.7
716.156	20432.74
716.499	20403.36
716.843	20467.99
717.186	20305.06
717.53	20477.71
717.873	20419.41
718.216	20386.41
718.559	20281.11
718.902	20127.89
719.246	20231.61
719.589	20132.86
719.932	20148
720.275	20150.71
720.617	20109.13
720.96	20000.21
721.303	20043.82
721.646	20111.84
721.989	19991.4
722.331	20071.17
722.674	20006.08
723.016	19943.94
723.359	19903.04
723.701	19907.78
724.044	19944.84
724.386	19807.67
724.729	19841.34
725.071	19850.83
725.413	19905.97
725.755	19830.72
726.097	19753.89
726.439	19648.58
726.782	19571.07
727.124	19732.19
727.465	19736.03
727.807	19811.74
728.149	19727.45
728.491	19671.18
728.833	19679.09
729.175	19658.97
729.516	19582.82
729.858	19659.2
730.199	19797.28
730.541	19633.21
730.882	19717.73
731.224	19695.36
731.565	19531.07
731.906	19708.24
732.248	19755.24
732.589	19621.46
732.93	19615.36
733.271	19654.23
733.612	19674.57
733.953	19610.39
734.294	19530.84
734.635	19593.44
734.976	19730.61
735.317	19685.87
735.658	19673.66
735.999	19620.78
736.339	19716.6
736.68	19791.17
737.021	19811.06
737.361	19846.54
737.702	19951.85
738.042	19769.48
738.383	19943.94
738.723	19886.99
739.063	19903.04
739.404	20127.21
739.744	19945.75
740.084	19998.85
740.424	20149.13
740.764	20194.78
741.104	20211.95
741.444	20188.68
741.784	20129.47
742.124	20346.64
742.464	20243.82
742.804	20252.86
743.143	20267.55
743.483	20310.26
743.823	20408.79
744.162	20444.94
744.502	20503.25
744.841	20484.49
745.181	20779.17
745.52	20695.33
745.86	20770.58
746.199	20888.55
746.538	20837.47
746.877	21084.7
747.216	20988.66
747.556	21104.36
747.895	21190.46
748.234	21325.82
748.573	21364.47
748.911	21361.3
749.25	21597.23
749.589	21592.03
749.928	21714.97
750.267	21836.09
750.605	21889.42
750.944	22106.82
751.283	22086.93
751.621	22388.17
751.96	22267.72
752.298	22415.74
752.636	22577.54
752.975	22760.81
753.313	22783.86
753.651	23087.13
753.989	23022.73
754.327	23107.47
754.666	23040.81
755.004	23348.14
755.342	23446.9
