Data from 7737_FLMS001491_010.txt Node
Date: Thu Apr 19 15:41:23 BST 2018
User: hsy
Spectrometer: FLMS00149
Trigger mode: 0
Integration Time (sec): 1.000000E-2
Scans to average: 10
Electric dark correction enabled: true
Nonlinearity correction enabled: false
Boxcar width: 0
XAxis mode: Wavelengths
Number of Pixels in Spectrum: 2048
>>>>>Begin Spectral Data<<<<<
341.393	-1.71
341.776	-1.71
342.16	-1.71
342.543	-62.95
342.927	-63.4
343.31	-59.56
343.693	-52.56
344.077	-78.09
344.46	-59.56
344.843	-48.94
345.226	-59.33
345.61	-25.21
345.993	-9.84
346.376	-6.23
346.759	6.43
347.142	31.51
347.525	32.87
347.908	53.88
348.291	66.31
348.674	104.95
349.057	103.37
349.44	133.2
349.823	139.08
350.206	193.99
350.588	217.04
350.971	239.64
351.354	247.78
351.737	278.06
352.119	296.36
352.502	304.27
352.884	308.11
353.267	318.51
353.65	312.41
354.032	315.8
354.414	319.64
354.797	358.06
355.179	356.47
355.562	359.41
355.944	358.51
356.326	381.78
356.709	383.14
357.091	362.58
357.473	370.71
357.855	368.22
358.238	379.3
358.62	387.89
359.002	377.04
359.384	388.34
359.766	391.73
360.148	400.77
360.53	363.48
360.912	375
361.294	362.12
361.676	376.81
362.057	367.32
362.439	382.24
362.821	361.67
363.203	358.73
363.584	365.96
363.966	355.12
364.348	370.48
364.729	381.78
365.111	385.63
365.493	362.35
365.874	362.58
366.256	368.22
366.637	365.51
367.019	349.24
367.4	375.23
367.781	367.32
368.163	382.01
368.544	365.74
368.925	370.48
369.306	354.67
369.688	372.97
370.069	386.98
370.45	354.67
370.831	380.2
371.212	367.09
371.593	357.83
371.974	376.36
372.355	380.2
372.736	378.62
373.117	379.98
373.498	371.61
373.879	385.85
374.26	378.39
374.641	350.37
375.021	363.25
375.402	399.64
375.783	396.02
376.163	410.71
376.544	378.39
376.925	385.85
377.305	412.52
377.686	380.2
378.066	388.56
378.447	386.08
378.827	400.31
379.208	397.15
379.588	410.71
379.968	391.28
380.349	419.07
380.729	415.68
381.109	412.52
381.489	400.31
381.87	429.69
382.25	407.09
382.63	437.15
383.01	431.05
383.39	460.88
383.77	438.73
384.15	427.43
384.53	445.96
384.91	423.36
385.29	430.82
385.67	450.03
386.049	453.19
386.429	431.05
386.809	444.83
387.189	452.52
387.568	447.77
387.948	452.06
388.328	469.01
388.707	469.24
389.087	460.43
389.466	456.81
389.846	466.53
390.225	470.82
390.605	461.33
390.984	499.52
391.363	489.35
391.743	478.5
392.122	467.88
392.501	493.87
392.881	510.14
393.26	513.31
393.639	500.42
394.018	507.88
394.397	504.72
394.776	523.02
395.155	507.2
395.534	527.99
395.913	527.77
396.292	546.3
396.671	554.66
397.05	541.1
397.429	541.1
397.808	501.1
398.186	549.91
398.565	561.21
398.944	547.66
399.323	548.11
399.701	573.42
400.08	576.58
400.458	555.34
400.837	572.97
401.215	566.19
401.594	591.72
401.972	589.91
402.351	586.98
402.729	588.33
403.107	587.43
403.486	590.82
403.864	609.8
404.242	613.87
404.62	616.58
404.999	611.83
405.377	617.94
405.755	638.73
406.133	642.79
406.511	631.95
406.889	638.73
407.267	621.78
407.645	651.61
408.023	653.87
408.401	664.71
408.779	661.55
409.156	688.22
409.534	679.18
409.912	666.3
410.29	692.96
410.667	698.61
411.045	719.18
411.422	732.28
411.8	724.6
412.178	725.05
412.555	740.87
412.933	746.52
413.31	784.26
413.687	747.42
414.065	789
414.442	791.04
414.819	787.2
415.197	778.16
415.574	805.05
415.951	783.81
416.328	814.09
416.705	809.34
417.082	819.29
417.46	844.14
417.837	825.61
418.214	809.12
418.591	862.9
418.967	847.76
419.344	845.5
419.721	866.74
420.098	861.09
420.475	829.68
420.852	862.22
421.228	898.61
421.605	884.82
421.982	889.57
422.358	934.54
422.735	901.09
423.111	916.01
423.488	926.4
423.864	898.83
424.241	946.06
424.617	948.32
424.994	928.44
425.37	961.43
425.746	984.48
426.123	970.69
426.499	975.89
426.875	980.41
427.251	1031.71
427.627	1020.64
428.003	1031.48
428.379	1013.41
428.756	1019.51
429.132	1029.45
429.507	1076.45
429.883	1080.97
430.259	1070.35
430.635	1092.05
431.011	1109.45
431.387	1115.1
431.763	1150.13
432.138	1155.1
432.514	1170.69
432.89	1178.37
433.265	1192.84
433.641	1197.13
434.016	1215.66
434.392	1207.75
434.767	1230.12
435.143	1228.32
435.518	1245.94
435.894	1275.77
436.269	1277.13
436.644	1313.51
437.02	1309.89
437.395	1316.67
437.77	1334.3
438.145	1323.23
438.52	1335.66
438.895	1361.87
439.271	1373.85
439.646	1400.97
440.021	1422.89
440.395	1440.74
440.77	1404.58
441.145	1441.87
441.52	1418.82
441.895	1417.91
442.27	1447.29
442.645	1459.72
443.019	1454.75
443.394	1433.06
443.769	1475.77
444.143	1459.27
444.518	1490.91
444.892	1477.57
445.267	1515.54
445.641	1507.4
446.016	1526.16
446.39	1553.05
446.764	1577.23
447.139	1529.32
447.513	1553.28
447.887	1578.36
448.262	1583.11
448.636	1585.82
449.01	1589.89
449.384	1602.99
449.758	1638.47
450.132	1664.69
450.506	1659.04
450.88	1674.63
451.254	1651.58
451.628	1685.93
452.002	1704.01
452.376	1720.51
452.75	1753.05
453.123	1763.44
453.497	1767.28
453.871	1789.43
454.244	1806.15
454.618	1818.58
454.992	1827.85
455.365	1886.38
455.739	1924.57
456.112	1913.27
456.486	1955.08
456.859	1973.15
457.232	1992.81
457.606	2034.62
457.979	2029.42
458.352	2096.77
458.725	2086.15
459.099	2114.62
459.472	2151.23
459.845	2166.37
460.218	2209.08
460.591	2214.73
460.964	2249.98
461.337	2267.61
461.71	2300.6
462.083	2329.08
462.456	2338.57
462.829	2313.26
463.201	2402.97
463.574	2408.62
463.947	2437.55
464.32	2462.63
464.692	2496.53
465.065	2509.86
465.438	2535.4
465.81	2582.4
466.183	2616.98
466.555	2628.96
466.928	2657.88
467.3	2641.39
467.672	2698.78
468.045	2815.84
468.417	2791.66
468.789	2789.63
469.161	2832.79
469.534	2876.41
469.906	2940.36
470.278	2924.99
470.65	2956.18
471.022	3005.9
471.394	3077.98
471.766	3109.85
472.138	3149.62
472.51	3230.07
472.882	3223.06
473.253	3293.35
473.625	3310.52
473.997	3426.68
474.369	3439.33
474.74	3437.97
475.112	3526.11
475.484	3547.35
475.855	3627.57
476.227	3694.47
476.598	3778.98
476.97	3850.62
477.341	3914.57
477.713	3988.69
478.084	3991.86
478.455	4088.8
478.827	4143.72
479.198	4220.33
479.569	4319.08
479.94	4385.29
480.311	4509.58
480.682	4563.59
481.053	4649.02
481.424	4765.85
481.795	4791.61
482.166	4913.87
482.537	4929.01
482.908	5082.23
483.279	5187.53
483.65	5258.04
484.021	5363.57
484.391	5434.98
484.762	5540.74
485.133	5619.84
485.503	5674.75
485.874	5851.02
486.244	5967.85
486.615	6083.55
486.985	6230.67
487.356	6324.45
487.726	6403.55
488.097	6615.52
488.467	6646.03
488.837	6863.87
489.207	6932.35
489.578	7114.26
489.948	7234.26
490.318	7383.63
490.688	7488.04
491.058	7681.48
491.428	7796.05
491.798	7945.88
492.168	8162.6
492.538	8336.6
492.908	8463.15
493.278	8617.05
493.648	8714.45
494.017	8913.31
494.387	9040.99
494.757	9223.36
495.126	9401.66
495.496	9558.94
495.866	9734.31
496.235	9898.6
496.605	10075.77
496.974	10337
497.344	10474.17
497.713	10569.09
498.082	10887.95
498.452	11016.31
498.821	11202.29
499.19	11344.89
499.559	11604.77
499.928	11876.62
500.298	11985.32
500.667	12297.85
501.036	12444.97
501.405	12640.67
501.774	12801.8
502.143	13058.51
502.512	13267.32
502.88	13581.89
503.249	13695.11
503.618	13941.65
503.987	14092.38
504.356	14240.63
504.724	14514.52
505.093	14785.7
505.462	14935.3
505.83	15169.42
506.199	15440.82
506.567	15789.06
506.936	15941.6
507.304	16238.54
507.672	16419.78
508.041	16572.09
508.409	16800.34
508.777	17067.67
509.145	17255.69
509.514	17495.01
509.882	17758.95
510.25	17942.68
510.618	18101.77
510.986	18276.91
511.354	18620.63
511.722	18859.49
512.09	19004.34
512.458	19149.65
512.826	19384.9
513.193	19540.6
513.561	19703.31
513.929	20005.22
514.297	20300.13
514.664	20438.66
515.032	20556.85
515.4	20842.26
515.767	21077.96
516.135	21189.82
516.502	21073.67
516.869	21538.52
517.237	21724.73
517.604	21742.13
517.972	22167.65
518.339	22188.67
518.706	22362.45
519.073	22411.04
519.44	22631.14
519.808	22893.06
520.175	22938.7
520.542	23200.39
520.909	23359.48
521.276	23516.77
521.643	23774.16
522.009	23941.62
522.376	24061.39
522.743	24129.86
523.11	24469.96
523.477	24747.92
523.843	24835.6
524.21	25048.48
524.577	25294.12
524.943	25341.58
525.31	25405.08
525.676	25826.54
526.043	25872.19
526.409	26026.08
526.776	26292.74
527.142	26366.41
527.508	26457.03
527.874	26788.77
528.241	26768.21
528.607	26824.7
528.973	27176.56
529.339	27243.45
529.705	27484.12
530.071	27688.64
530.437	27765.47
530.803	27961.17
531.169	28030.32
531.535	28017.22
531.901	28082.07
532.267	28182.63
532.632	28350.54
532.998	28415.62
533.364	28470.08
533.73	28602.06
534.095	28739.91
534.461	28890.41
534.826	29009.96
535.192	28946.68
535.557	29183.06
535.923	29038.88
536.288	29226.22
536.653	29359.78
537.019	29138.99
537.384	29297.41
537.749	29286.33
538.114	29348.25
538.479	29254.7
538.845	29343.96
539.21	29332.89
539.575	29365.88
539.94	29508.02
540.305	29642.03
540.67	29498.98
541.034	29533.56
541.399	29661.92
541.764	29636.38
542.129	29684.29
542.494	29846.77
542.858	29697.85
543.223	29611.98
543.587	29726.32
543.952	29549.38
544.316	29759.77
544.681	29622.14
545.045	29757.51
545.41	29772.88
545.774	29672.99
546.138	29721.13
546.503	29771.97
546.867	29821.24
547.231	29921.35
547.595	29864.85
547.959	29986.43
548.324	29816.49
548.688	30021.46
549.052	29917.96
549.416	29900.56
549.779	29895.13
550.143	29930.61
550.507	30135.13
550.871	30075.01
551.235	30014
551.599	30117.73
551.962	30172.86
552.326	30139.65
552.689	30152.07
553.053	29995.69
553.417	30051.51
553.78	30359.07
554.143	30311.62
554.507	30223.26
554.87	30248.57
555.234	30466.87
555.597	30157.5
555.96	30494.66
556.323	30484.04
556.686	30387.55
557.05	30472.52
557.413	30415.34
557.776	30310.26
558.139	30583.48
558.502	30561.78
558.865	30617.37
559.228	30679.52
559.59	30782.57
559.953	30820.53
560.316	31082.9
560.679	31013.75
561.041	30999.28
561.404	31105.95
561.767	31401.99
562.129	31155.66
562.492	31353.62
562.854	31332.61
563.217	31492.6
563.579	31414.87
563.941	31462.77
564.304	31638.36
564.666	31802.43
565.028	31759.49
565.39	31759.49
565.753	32028.86
566.115	32007.39
566.477	32073.15
566.839	32106.83
567.201	32315.18
567.563	32310.66
567.925	32325.58
568.287	32436.31
568.648	32413.26
569.01	32592.69
569.372	32712.23
569.734	32691.89
570.095	32708.62
570.457	32967.59
570.819	32998.55
571.18	32891.89
571.542	33213.24
571.903	33012.34
572.265	33201.03
572.626	33327.58
572.987	33474.02
573.349	33527.13
573.71	33556.05
574.071	33727.12
574.432	33769.83
574.794	33743.39
575.155	33890.96
575.516	33737.52
575.877	33874.69
576.238	33916.72
576.599	33925.31
576.96	33952.43
577.32	33967.57
577.681	34007.34
578.042	34031.75
578.403	33998.53
578.763	34084.17
579.124	33964.4
579.485	34232.42
579.845	34241.91
580.206	34134.12
580.566	34196.94
580.927	34106.32
581.287	34175.92
581.648	34018.64
582.008	34222.7
582.368	34175.7
582.728	34103.16
583.089	34117.62
583.449	34065.19
583.809	33979.77
584.169	34143.61
584.529	33839.66
584.889	34105.64
585.249	33976.61
585.609	33730.74
585.969	34019.09
586.329	33890.73
586.688	34111.97
587.048	33933.44
587.408	33936.83
587.768	33798.31
588.127	33890.28
588.487	33789.04
588.846	33880.11
589.206	33634.92
589.565	33629.5
589.925	33757.4
590.284	33714.01
590.643	33617.52
591.003	33576.62
591.362	33710.4
591.721	33733.68
592.08	33628.14
592.44	33594.92
592.799	33594.7
593.158	33489.39
593.517	33454.36
593.876	33527.8
594.235	33449.84
594.593	33455.49
594.952	33398.09
595.311	33335.04
595.67	33366.23
596.029	33519.67
596.387	33336.85
596.746	33502.27
597.104	33305.66
597.463	33287.13
597.822	33446.45
598.18	33260.02
598.538	33256.63
598.897	33502.27
599.255	33230.19
599.613	33538.88
599.972	33344.98
600.33	33471.76
600.688	33294.59
601.046	33264.53
601.404	33638.31
601.762	33481.48
602.12	33553.11
602.478	33439.67
602.836	33510.4
603.194	33320.58
603.552	33361.48
603.91	33332.78
604.268	33369.84
604.625	33351.31
604.983	33641.25
605.341	33249.62
605.698	33500.23
606.056	33607.58
606.413	33382.27
606.771	33565.32
607.128	33713.79
607.485	33543.62
607.843	33555.15
608.2	33670.17
608.557	33862.26
608.914	33815.48
609.272	33842.82
609.629	34014.57
609.986	33921.01
610.343	34016.83
610.7	34161.69
611.057	34009.6
611.414	33932.09
611.771	34143.61
612.127	34239.88
612.484	34100.9
612.841	34199.43
613.198	34163.95
613.554	34088.24
613.911	34291.17
614.267	34371.17
614.624	34372.3
614.98	34539.53
615.337	34557.16
615.693	34511.73
616.05	34507.21
616.406	34637.61
616.762	34619.53
617.118	34643.48
617.475	34698.17
617.831	34817.26
618.187	34923.7
618.543	34903.14
618.899	35067.88
619.255	35039.18
619.611	34884.38
619.967	35110.14
620.323	35104.26
620.678	34918.5
621.034	35015
621.39	34952.63
621.746	34962.12
622.101	35273.3
622.457	35008.44
622.812	35196.01
623.168	35170.25
623.523	35240.3
623.879	35281.88
624.234	35172.28
624.589	35163.47
624.945	35325.72
625.3	35257.25
625.655	35406.17
626.01	35410.47
626.365	35412.05
626.72	35201.89
627.075	35131.83
627.43	35275.56
627.785	35234.88
628.14	35214.77
628.495	35146.75
628.85	35385.38
629.205	35149.46
629.559	35426.96
629.914	35280.98
630.269	35220.42
630.623	35074.43
630.978	35018.16
631.332	35113.07
631.687	35144.71
632.041	34939.29
632.396	35073.75
632.75	34877.6
633.104	35040.76
633.459	34976.58
633.813	34798.28
634.167	34753.08
634.521	34820.2
634.875	34791.5
635.229	34672.86
635.583	34550.83
635.937	34408.23
636.291	34524.61
636.645	34466.76
636.999	34395.13
637.352	34457.72
637.706	34219.09
638.06	34385.86
638.413	34280.1
638.767	34198.07
639.121	34274.9
639.474	34104.06
639.828	34167.34
640.181	34048.7
640.534	34133.66
640.888	33987.91
641.241	33822.71
641.594	34029.94
641.947	34149.26
642.301	34003.5
642.654	33940.68
643.007	33829.27
643.36	33981.8
643.713	33876.04
644.066	33989.49
644.419	33616.62
644.771	33502.27
645.124	33165.55
645.477	33161.03
645.83	33056.86
646.182	33040.81
646.535	32944.77
646.888	32977.31
647.24	33021.6
647.593	33166.46
647.945	33022.51
648.298	32938.44
648.65	32767.82
649.002	32612.35
649.355	32523.54
649.707	32331.23
650.059	32406.7
650.411	32919.46
650.763	33133.46
651.115	33583.62
651.467	33480.12
651.819	33486.68
652.171	33438.99
652.523	33421.82
652.875	33270.41
653.227	33290.3
653.578	33508.37
653.93	33397.41
654.282	33418.43
654.633	33251.88
654.985	33270.18
655.337	33328.94
655.688	33161.03
656.039	33366.23
656.391	33145.22
656.742	33127.36
657.094	33233.35
657.445	33333.23
657.796	33346.34
658.147	33417.3
658.498	33392.44
658.849	33416.85
659.2	33379.11
659.551	33315.38
659.902	33563.28
660.253	33406.45
660.604	33533.23
660.955	33368.94
661.306	33592.89
661.656	33302.5
662.007	33418.43
662.358	33444.64
662.708	33485.32
663.059	33622.94
663.409	33447.13
663.76	33565.32
664.11	33681.93
664.461	33668.37
664.811	33720.12
665.161	33520.35
665.511	33563.51
665.862	33566.45
666.212	33760.34
666.562	33712.88
666.912	33647.58
667.262	33508.82
667.612	33518.09
667.962	33566.22
668.312	33505.88
668.662	33800.11
669.011	33728.03
669.361	33703.17
669.711	33750.17
670.06	33620.23
670.41	33571.65
670.76	33582.49
671.109	33703.62
671.459	33635.15
671.808	33733.45
672.157	33667.46
672.507	33557.18
672.856	33493.46
673.205	33438.99
673.554	33595.37
673.904	33513.57
674.253	33675.6
674.602	33573.91
674.951	33102.05
675.3	32915.17
675.649	33602.15
675.998	33393.12
676.346	33525.77
676.695	33344.98
677.044	33178.89
677.393	33323.06
677.741	33286
678.09	33274.03
678.438	33189.06
678.787	33349.28
679.135	33372.78
679.484	32987.48
679.832	33192.67
680.181	33037.87
680.529	33049.4
680.877	32984.54
681.225	32922.62
681.573	33178.89
681.922	32847.14
682.27	32873.81
682.618	32753.14
682.966	32647.38
683.314	32644.21
683.661	32551.33
684.009	32561.28
684.357	32421.17
684.705	32373.71
685.053	32399.7
685.4	32207.16
685.748	32094.17
686.095	32109.99
686.443	31870.22
686.79	31883.1
687.138	31926.27
687.485	31906.6
687.832	31693.05
688.18	31596.78
688.527	31535.09
688.874	31511.36
689.221	31443.79
689.568	31217.58
689.915	31175.1
690.262	31234.76
690.609	30934.2
690.956	30956.35
691.303	30914.54
691.65	30646.98
691.997	30824.15
692.344	30464.61
692.69	30305.74
693.037	30372.18
693.383	30053.55
693.73	30274.78
694.077	30040.44
694.423	29994.11
694.769	29865.53
695.116	29778.3
695.462	29738.98
695.808	29605.42
696.155	29584.18
696.501	29304.87
696.847	29430.74
697.193	29087.7
697.539	29140.35
697.885	28920.92
698.231	28894.93
698.577	28815.84
698.923	28741.94
699.269	28374.49
699.614	28347.38
699.96	28302.18
700.306	28338.11
700.651	28109.87
700.997	28067.16
701.342	27867.39
701.688	27956.2
702.033	27686.15
702.379	27671.69
702.724	27523.67
703.069	27586.72
703.415	27327.74
703.76	27282.09
704.105	27294.3
704.45	27078.26
704.795	26977.92
705.14	26793.74
705.485	26789.22
705.83	26591.04
706.175	26612.96
706.52	26496.8
706.865	26461.32
707.209	26315.34
707.554	26235.12
707.899	26140.88
708.243	26089.81
708.588	26007.78
708.932	25848.01
709.277	25839.65
709.621	25771.85
709.966	25665.19
710.31	25568.92
710.654	25396.27
710.998	25498.41
711.342	25521.24
711.687	25467.68
712.031	25261.13
712.375	25099.33
712.719	25146.56
713.063	25158.31
713.407	25186.56
713.75	24998.09
714.094	25116.95
714.438	24969.16
714.782	24967.58
715.125	24735.04
715.469	24927.13
715.812	24709.28
716.156	24631.99
716.499	24824.08
716.843	24837.41
717.186	24571.88
717.53	24721.71
717.873	24637.87
718.216	24692.56
718.559	24540.24
718.902	24361.94
719.246	24344.54
719.589	24540.24
719.932	24398.55
720.275	24474.48
720.617	24266.58
720.96	24281.27
721.303	24303.64
721.646	24341.15
721.989	24297.99
722.331	24267.03
722.674	24257.31
723.016	24268.16
723.359	24177.99
723.701	24156.98
724.044	24221.16
724.386	23995.85
724.729	24199.91
725.071	24220.48
725.413	24241.72
725.755	24093.7
726.097	24064.1
726.439	23972.35
726.782	24095.96
727.124	24143.42
727.465	24063.87
727.807	23996.76
728.149	24188.39
728.491	24112.46
728.833	24040.82
729.175	24022.29
729.516	24061.16
729.858	24161.05
730.199	24159.46
730.541	24154.27
730.882	24048.05
731.224	24235.17
731.565	24140.71
731.906	24195.85
732.248	24207.15
732.589	24101.61
732.93	24104.1
733.271	24184.55
733.612	24141.16
733.953	24313.81
734.294	24174.15
734.635	24207.82
734.976	24364.66
735.317	24323.53
735.658	24184.77
735.999	24287.37
736.339	24323.98
736.68	24385.45
737.021	24402.62
737.361	24377.54
737.702	24645.33
738.042	24444.43
738.383	24609.85
738.723	24739.34
739.063	24695.72
739.404	24918.54
739.744	24723.74
740.084	24824.76
740.424	24890.97
740.764	24917.18
741.104	25002.38
741.444	24941.59
741.784	25142.26
742.124	25212.09
742.464	25240.11
742.804	25269.04
743.143	25276.5
743.483	25501.58
743.823	25443.27
744.162	25602.82
744.502	25737.5
744.841	25716.48
745.181	25967.1
745.52	25930.26
745.86	26029.02
746.199	26203.03
746.538	26405.05
746.877	26560.53
747.216	26566.18
747.556	26760.53
747.895	26696.12
748.234	26770.24
748.573	26978.15
748.911	27052.72
749.25	27217.24
749.589	27334.3
749.928	27603.89
750.267	27776.54
750.605	27773.38
750.944	27790.1
751.283	28030.1
751.621	28277.1
751.96	28080.94
752.298	28407.04
752.636	28613.36
752.975	28787.59
753.313	28878.44
753.651	29168.82
753.989	29182.16
754.327	29477.52
754.666	29419.44
