Data from 7737_FLMS001491_002.txt Node
Date: Thu Apr 19 15:41:01 BST 2018
User: hsy
Spectrometer: FLMS00149
Trigger mode: 0
Integration Time (sec): 1.000000E-2
Scans to average: 10
Electric dark correction enabled: true
Nonlinearity correction enabled: false
Boxcar width: 0
XAxis mode: Wavelengths
Number of Pixels in Spectrum: 2048
>>>>>Begin Spectral Data<<<<<
341.393	-9.83
341.776	-9.83
342.16	-9.83
342.543	-71.07
342.927	-74.24
343.31	-67
343.693	-48.7
344.077	-85.53
344.46	-68.13
344.843	-57.06
345.226	-39.43
345.61	-25.42
345.993	-4.63
346.376	-18.42
346.759	4.41
347.142	36.72
347.525	31.52
347.908	61.58
348.291	82.37
348.674	102.26
349.057	95.48
349.44	117.4
349.823	143.61
350.206	163.5
350.588	244.17
350.971	221.12
351.354	254.12
351.737	279.65
352.119	259.54
352.502	305.42
352.884	312.42
353.267	304.74
353.65	325.75
354.032	332.31
354.414	334.34
354.797	336.38
355.179	340.67
355.562	363.04
355.944	376.6
356.326	359.88
356.709	357.39
357.091	364.4
357.473	381.35
357.855	358.97
358.238	391.97
358.62	384.28
359.002	396.03
359.384	386.09
359.766	386.54
360.148	374.34
360.53	383.15
360.912	372.08
361.294	383.83
361.676	354.23
362.057	383.61
362.439	370.95
362.821	367.56
363.203	370.27
363.584	353.1
363.966	358.97
364.348	371.4
364.729	386.09
365.111	354.45
365.493	353.32
365.874	365.3
366.256	375.24
366.637	368.69
367.019	368.92
367.4	359.2
367.781	353.78
368.163	347.45
368.544	357.84
368.925	378.86
369.306	379.09
369.688	358.75
370.069	353.78
370.45	354
370.831	375.7
371.212	363.95
371.593	342.25
371.974	360.33
372.355	370.95
372.736	351.29
373.117	369.59
373.498	375.02
373.879	374.57
374.26	362.36
374.641	373.21
375.021	368.69
375.402	376.83
375.783	382.48
376.163	384.06
376.544	394.68
376.925	369.14
377.305	392.87
377.686	379.99
378.066	382.25
378.447	410.5
378.827	408.24
379.208	384.28
379.588	397.39
379.968	401.68
380.349	410.27
380.729	386.54
381.109	407.56
381.489	405.53
381.87	399.42
382.25	418.63
382.63	400.78
383.01	412.53
383.39	422.93
383.77	411.63
384.15	410.5
384.53	431.06
384.91	436.26
385.29	452.08
385.67	438.52
386.049	431.74
386.429	450.95
386.809	445.98
387.189	440.78
387.568	439.42
387.948	442.81
388.328	452.53
388.707	460.67
389.087	466.32
389.466	443.27
389.846	461.57
390.225	454.34
390.605	469.25
390.984	473.32
391.363	493.43
391.743	485.52
392.122	475.81
392.501	490.95
392.881	493.43
393.26	483.26
393.639	503.38
394.018	502.7
394.397	515.58
394.776	490.5
395.155	518.97
395.534	538.63
395.913	508.57
396.292	524.62
396.671	508.8
397.05	514.22
397.429	523.72
397.808	533.43
398.186	548.12
398.565	512.19
398.944	549.7
399.323	537.27
399.701	526.2
400.08	523.72
400.458	543.83
400.837	545.18
401.215	557.84
401.594	553.77
401.972	567.78
402.351	557.39
402.729	587.22
403.107	578.18
403.486	587.44
403.864	578.85
404.242	609.14
404.62	603.03
404.999	586.09
405.377	589.48
405.755	604.62
406.133	626.99
406.511	627.67
406.889	626.09
407.267	652.53
407.645	624.96
408.023	643.94
408.401	652.3
408.779	659.98
409.156	626.76
409.534	652.75
409.912	649.36
410.29	676.48
410.667	687.33
411.045	695.01
411.422	691.39
411.8	697.04
412.178	693.43
412.555	713.31
412.933	723.26
413.31	722.58
413.687	721.9
414.065	734.56
414.442	738.62
414.819	747.66
415.197	744.95
415.574	764.84
415.951	769.13
416.328	777.95
416.705	775.23
417.082	778.85
417.46	784.05
417.837	777.27
418.214	774.78
418.591	793.99
418.967	824.05
419.344	817.94
419.721	796.7
420.098	812.75
420.475	826.31
420.852	852.52
421.228	826.98
421.605	843.93
421.982	845.97
422.358	864.5
422.735	876.47
423.111	878.51
423.488	876.25
423.864	878.96
424.241	901.78
424.617	893.87
424.994	893.42
425.37	895.46
425.746	919.86
426.123	918.05
426.499	927.77
426.875	942.69
427.251	963.25
427.627	986.3
428.003	991.05
428.379	996.92
428.756	984.49
429.132	1020.65
429.507	1011.16
429.883	1015
430.259	1023.36
430.635	1041.67
431.011	1035.34
431.387	1038.96
431.763	1081.44
432.138	1060.42
432.514	1084.38
432.89	1120.31
433.265	1125.73
433.641	1148.33
434.016	1127.77
434.392	1141.78
434.767	1182.45
435.143	1168.44
435.518	1187.2
435.894	1199.18
436.269	1226.52
436.644	1210.02
437.02	1256.8
437.395	1223.58
437.77	1238.95
438.145	1252.51
438.52	1249.12
438.895	1258.84
439.271	1284.37
439.646	1315.33
440.021	1310.14
440.395	1318.5
440.77	1326.18
441.145	1339.96
441.52	1346.52
441.895	1358.27
442.27	1384.48
442.645	1351.49
443.019	1384.03
443.394	1400.08
443.769	1398.49
444.143	1403.69
444.518	1405.73
444.892	1410.7
445.267	1416.12
445.641	1423.35
446.016	1462
446.39	1477.14
446.764	1433.3
447.139	1443.46
447.513	1454.99
447.887	1502.45
448.262	1473.07
448.636	1503.35
449.01	1481.43
449.384	1523.46
449.758	1522.56
450.132	1525.27
450.506	1564.82
450.88	1552.84
451.254	1579.51
451.628	1594.2
452.002	1620.18
452.376	1598.26
452.75	1619.96
453.123	1654.08
453.497	1671.93
453.871	1647.75
454.244	1718.03
454.618	1691.14
454.992	1749.9
455.365	1758.03
455.739	1797.35
456.112	1833.96
456.486	1859.5
456.859	1834.42
457.232	1883.91
457.606	1903.34
457.979	1893.85
458.352	1934.75
458.725	1956.22
459.099	1984.92
459.472	1986.28
459.845	2017.46
460.218	2062.66
460.591	2082.77
460.964	2111.92
461.337	2132.26
461.71	2172.94
462.083	2178.59
462.456	2176.78
462.829	2209.77
463.201	2222.2
463.574	2273.5
463.947	2269.66
464.32	2326.15
464.692	2337.23
465.065	2332.03
465.438	2366.15
465.81	2409.77
466.183	2449.31
466.555	2462.87
466.928	2512.82
467.3	2476.88
467.672	2527.28
468.045	2604.34
468.417	2579.71
468.789	2621.96
469.161	2632.59
469.534	2705.35
469.906	2709.65
470.278	2785.12
470.65	2786.93
471.022	2855.63
471.394	2896.31
471.766	2929.98
472.138	2927.04
472.51	3014.95
472.882	3047.04
473.253	3045.68
473.625	3111.44
473.997	3202.29
474.369	3201.38
474.74	3226.47
475.112	3265.79
475.484	3339.01
475.855	3391.66
476.227	3408.84
476.598	3504.65
476.97	3543.07
477.341	3622.62
477.713	3689.73
478.084	3715.95
478.455	3807.02
478.827	3885.21
479.198	4033.68
479.569	4007.92
479.94	4091.76
480.311	4131.3
480.682	4263.96
481.053	4320.23
481.424	4387.34
481.795	4469.6
482.166	4523.84
482.537	4630.05
482.908	4677.05
483.279	4804.51
483.65	4961.34
484.021	5005.18
484.391	5099.64
484.762	5208.11
485.133	5253.99
485.503	5349.35
485.874	5494.66
486.244	5555.67
486.615	5695.56
486.985	5772.16
487.356	5915.21
487.726	5946.62
488.097	6141.19
488.467	6253.73
488.837	6339.38
489.207	6479.04
489.578	6595.65
489.948	6738.69
490.318	6865.02
490.688	6962.42
491.058	7185.23
491.428	7278.34
491.798	7366.92
492.168	7601.5
492.538	7723.98
492.908	7860.02
493.278	8072.67
493.648	8201.93
494.017	8403.73
494.387	8524.63
494.757	8664.52
495.126	8826.32
495.496	8976.6
495.866	9113.55
496.235	9308.79
496.605	9526.42
496.974	9679.18
497.344	9868.33
497.713	10050.47
498.082	10178.38
498.452	10386.96
498.821	10569.78
499.19	10784.69
499.559	10922.76
499.928	11133.15
500.298	11360.04
500.667	11645.68
501.036	11750.54
501.405	11916.18
501.774	12156.18
502.143	12427.58
502.512	12561.82
502.88	12928.13
503.249	13027.79
503.618	13317.05
503.987	13397.27
504.356	13678.4
504.724	13892.18
505.093	14072.96
505.462	14307.31
505.83	14594.53
506.199	14858.48
506.567	15187.06
506.936	15275.42
507.304	15603.32
507.672	15828.4
508.041	16010.99
508.409	16240.82
508.777	16498.66
509.145	16804.42
509.514	16855.71
509.882	17110.62
510.25	17221.13
510.618	17590.61
510.986	17713.77
511.354	18020.66
511.722	18254.77
512.09	18446.86
512.458	18576.35
512.826	18861.09
513.193	19028.99
513.561	19207.74
513.929	19443.9
514.297	19719.59
514.664	19889.76
515.032	19999.59
515.4	20264.66
515.767	20455.39
516.135	20627.82
516.502	20603.41
516.869	21009.96
517.237	21086.11
517.604	21101.93
517.972	21483.62
518.339	21559.55
518.706	21715.02
519.073	21940.33
519.44	22112.75
519.808	22321.79
520.175	22425.06
520.542	22678.39
520.909	22918.38
521.276	22975.55
521.643	23312.27
522.009	23356.34
522.376	23601.98
522.743	23748.87
523.11	23989.54
523.477	24145.69
523.843	24255.29
524.21	24556.08
524.577	24736.19
524.943	24965.56
525.31	25017.99
525.676	25281.03
526.043	25493
526.409	25580.91
526.776	25782.03
527.142	25933.44
527.508	26055.7
527.874	26241.23
528.241	26473.99
528.607	26447.33
528.973	26678.51
529.339	26721.9
529.705	26979.29
530.071	27152.62
530.437	27175.67
530.803	27369.56
531.169	27520.97
531.535	27478.94
531.901	27538.37
532.267	27645.94
532.632	27883.67
532.998	27881.87
533.364	28137.9
533.73	28030.56
534.095	28365.24
534.461	28188.75
534.826	28384.9
535.192	28412.02
535.557	28529.53
535.923	28640.49
536.288	28727.27
536.653	28707.15
537.019	28689.98
537.384	28811.56
537.749	28827.15
538.114	28835.29
538.479	28859.24
538.845	28994.6
539.21	28931.56
539.575	29044.1
539.94	29023.98
540.305	29096.3
540.67	28965.68
541.034	29068.5
541.399	29038.45
541.764	29235.73
542.129	29186.69
542.494	29295.16
542.858	29313.47
543.223	29149.18
543.587	29314.82
543.952	29250.87
544.316	29393.69
544.681	29293.13
545.045	29460.13
545.41	29507.13
545.774	29345.33
546.138	29394.14
546.503	29399.11
546.867	29352.56
547.231	29474.37
547.595	29517.3
547.959	29540.81
548.324	29392.33
548.688	29544.19
549.052	29553.69
549.416	29430.07
549.779	29516.17
550.143	29475.04
550.507	29646.57
550.871	29571.99
551.235	29501.03
551.599	29742.61
551.962	29719.11
552.326	29791.19
552.689	29685.43
553.053	29539.45
553.417	29645.21
553.78	29966.33
554.143	29820.12
554.507	29984.18
554.87	29854.92
555.234	30132.2
555.597	29857.86
555.96	30008.82
556.323	29964.97
556.686	29844.75
557.05	30083.84
557.413	30194.12
557.776	29927.24
558.139	30027.12
558.502	30164.97
558.865	30096.5
559.228	30309.82
559.59	30324.74
559.953	30412.87
560.316	30663.94
560.679	30442.7
561.041	30637.95
561.404	30818.06
561.767	30872.97
562.129	30744.84
562.492	31050.37
562.854	30962.01
563.217	30994.55
563.579	31005.85
563.941	31103.02
564.304	31226.64
564.666	31420.53
565.028	31481.09
565.39	31500.08
565.753	31567.64
566.115	31541.88
566.477	31690.13
566.839	31713.63
567.201	32115.88
567.563	31887.64
567.925	32028.88
568.287	32068.87
568.648	32084.02
569.01	32186.61
569.372	32536.43
569.734	32409.43
570.095	32663.21
570.457	32696.88
570.819	32699.59
571.18	32561.97
571.542	32763.55
571.903	32762.42
572.265	32912.69
572.626	32985.01
572.987	32971.9
573.349	33190.43
573.71	33098.9
574.071	33307.71
574.432	33463.19
574.794	33635.61
575.155	33523.98
575.516	33316.07
575.877	33428.39
576.238	33484.66
576.599	33674.71
576.96	33662.73
577.32	33622.73
577.681	33636.52
578.042	33866.34
578.403	33669.51
578.763	33847.13
579.124	33802.39
579.485	33919.22
579.845	33890.97
580.206	33880.58
580.566	33794.7
580.927	33709.51
581.287	33954.47
581.648	33628.83
582.008	33936.62
582.368	33862.27
582.728	33806.23
583.089	33811.2
583.449	33748.83
583.809	33779.11
584.169	33788.38
584.529	33699.57
584.889	33969.39
585.249	33548.16
585.609	33571.66
585.969	33590.64
586.329	33513.36
586.688	33607.59
587.048	33649.4
587.408	33330.31
587.768	33371.21
588.127	33310.2
588.487	33245.79
588.846	33503.41
589.206	33308.62
589.565	33232.91
589.925	33351.1
590.284	33166.47
590.643	33283.31
591.003	33236.3
591.362	33357.65
591.721	33259.13
592.08	33258
592.44	33284.89
592.799	33199.47
593.158	33168.51
593.517	32999.7
593.876	33106.36
594.235	32948.17
594.593	33011.22
594.952	33069.3
595.311	32954.5
595.67	33015.06
596.029	33200.14
596.387	33179.58
596.746	33263.42
597.104	32963.31
597.463	33092.12
597.822	33167.38
598.18	33004.89
598.538	32974.61
598.897	33069.75
599.255	32972.58
599.613	33302.74
599.972	32962.18
600.33	32945.91
600.688	32972.58
601.046	33015.06
601.404	33271.33
601.762	33152.91
602.12	33161.73
602.478	33213.25
602.836	33235.17
603.194	32983.43
603.552	32984.56
603.91	33112.01
604.268	33147.49
604.625	33170.77
604.983	33188.17
605.341	33062.75
605.698	33284.66
606.056	33367.6
606.413	33060.71
606.771	33333.7
607.128	33201.95
607.485	33208.05
607.843	33145.23
608.2	33241.5
608.557	33259.35
608.914	33491.44
609.272	33525.33
609.629	33677.19
609.986	33579.34
610.343	33609.17
610.7	33761.26
611.057	33581.15
611.414	33720.58
611.771	33878.54
612.127	33907.24
612.484	33970.07
612.841	33872.22
613.198	33754.71
613.554	33784.31
613.911	34001.25
614.267	33955.38
614.624	33886.68
614.98	34023.63
615.337	34184.3
615.693	34200.57
616.05	34183.62
616.406	34290.74
616.762	34232.66
617.118	34315.37
617.475	34360.34
617.831	34500.45
618.187	34464.74
618.543	34389.04
618.899	34555.36
619.255	34565.08
619.611	34639.65
619.967	34628.36
620.323	34840.1
620.678	34617.28
621.034	34644.63
621.39	34691.86
621.746	34674
622.101	34960.32
622.457	34625.19
622.812	34823.6
623.168	34868.35
623.523	34955.13
623.879	34915.58
624.234	34818.63
624.589	34898.4
624.945	34872.42
625.3	34912.87
625.655	35038.29
626.01	35083.94
626.365	35022.92
626.72	35022.47
627.075	35105.86
627.43	35010.72
627.785	34977.27
628.14	34901.79
628.495	35072.19
628.85	34976.14
629.205	34936.82
629.559	35051.39
629.914	34805.98
630.269	34991.74
630.623	34674.68
630.978	34631.52
631.332	34884.85
631.687	34704.29
632.041	34671.07
632.396	34744.51
632.75	34552.42
633.104	34615.25
633.459	34381.58
633.813	34408.47
634.167	34269.49
634.521	34476.27
634.875	34443.05
635.229	34157.63
635.583	34230.4
635.937	34135.26
636.291	34140.46
636.645	34245.99
636.999	34052.55
637.352	34144.98
637.706	33951.76
638.06	34165.99
638.413	33889.39
638.767	33887.36
639.121	33926.45
639.474	33788.15
639.828	33795.38
640.181	33773.24
640.534	33861.6
640.888	33593.81
641.241	33528.04
641.594	33599.68
641.947	33614.82
642.301	33629.06
642.654	33575.28
643.007	33519.23
643.36	33570.08
643.713	33549.74
644.066	33646.46
644.419	33505.67
644.771	33007.83
645.124	32736.65
645.477	32671.57
645.83	32662.53
646.182	32675.41
646.535	32640.61
646.888	32805.35
647.24	32546.83
647.593	32896.42
647.945	32661.63
648.298	32663.66
648.65	32496.21
649.002	32145.26
649.355	32321.52
649.707	32100.06
650.059	31956.79
650.411	32601.97
650.763	32740.5
651.115	33329.86
651.467	33275.62
651.819	33342.51
652.171	33070.43
652.523	33036.76
652.875	33152.46
653.227	33057.32
653.578	33278.11
653.93	33290.99
654.282	32969.19
654.633	33043.54
654.985	33144.1
655.337	33071.11
655.688	33085.12
656.039	33160.82
656.391	32835.41
656.742	32937.1
657.094	32818.01
657.445	33110.2
657.796	33090.09
658.147	32921.73
658.498	33063.42
658.849	33152.91
659.2	33054.16
659.551	32906.14
659.902	33185
660.253	32959.25
660.604	33160.37
660.955	33047.15
661.306	33080.15
661.656	33115.17
662.007	33119.92
662.358	33079.7
662.708	33186.81
663.059	32942.98
663.409	32885.35
663.76	33164.21
664.11	33218.22
664.461	33289.18
664.811	33413.92
665.161	33324.66
665.511	33198.34
665.862	33232.23
666.212	33298.67
666.562	33336.86
666.912	33260.03
667.262	33126.7
667.612	33299.35
667.962	33348.16
668.312	33194.27
668.662	33517.65
669.011	33420.7
669.361	33208.96
669.711	33297.09
670.06	33241.05
670.41	33262.97
670.76	33154.95
671.109	33291.22
671.459	33254.15
671.808	33290.76
672.157	33269.75
672.507	32999.92
672.856	33049.19
673.205	33103.65
673.554	33305.23
673.904	33037.89
674.253	33295.96
674.602	33122.41
674.951	32708.86
675.3	32397.68
675.649	32981.62
675.998	33022.97
676.346	33024.1
676.695	33059.58
677.044	32848.97
677.393	32833.83
677.741	32930.32
678.09	32910.43
678.438	32902.3
678.787	32803.54
679.135	32852.58
679.484	32589.99
679.832	32764.45
680.181	32656.88
680.529	32692.59
680.877	32438.58
681.225	32495.53
681.573	32686.03
681.922	32469.77
682.27	32300.73
682.618	32318.59
682.966	32176.89
683.314	32194.07
683.661	32261.19
684.009	31985.03
684.357	31849.22
684.705	31918.14
685.053	31945.26
685.4	31693.97
685.748	31639.28
686.095	31669.34
686.443	31380.98
686.79	31562.9
687.138	31456.24
687.485	31430.25
687.832	31160.65
688.18	31271.38
688.527	31152.97
688.874	31077.04
689.221	30948.45
689.568	30895.8
689.915	30707.33
690.262	30625.07
690.609	30604.73
690.956	30488.12
691.303	30565.86
691.65	30275.93
691.997	30155.48
692.344	30112.54
692.69	29985.54
693.037	30012.43
693.383	29688.15
693.73	29738.54
694.077	29556.85
694.423	29530.86
694.769	29395.5
695.116	29371.32
695.462	29186.92
695.808	29084.32
696.155	29038.45
696.501	28926.13
696.847	28917.77
697.193	28607.95
697.539	28626.48
697.885	28384.9
698.231	28314.17
698.577	28306.49
698.923	28301.97
699.269	28011.13
699.614	27967.97
699.96	27869.89
700.306	27825.82
700.651	27736.78
700.997	27549.45
701.342	27519.84
701.688	27442.33
702.033	27286.85
702.379	27302.67
702.724	27177.7
703.069	27207.31
703.415	26803.02
703.76	26682.8
704.105	26757.6
704.45	26692.74
704.795	26506.53
705.14	26410.94
705.485	26560.09
705.83	26231.97
706.175	26310.16
706.52	26085.3
706.865	26180.67
707.209	26011.86
707.554	25914.23
707.899	25985.64
708.243	25765.76
708.588	25711.3
708.932	25568.48
709.277	25723.73
709.621	25450.52
709.966	25286.68
710.31	25391.54
710.654	25235.83
710.998	25142.5
711.342	25283.29
711.687	25211.88
712.031	25083.52
712.375	24992.22
712.719	24904.09
713.063	24836.97
713.407	24959.46
713.75	24798.33
714.094	24800.82
714.438	24570.77
714.782	24706.13
715.125	24559.92
715.469	24696.41
715.812	24519.24
716.156	24494.16
716.499	24476.53
716.843	24632.01
717.186	24410.54
717.53	24418.45
717.873	24512.69
718.216	24418.23
718.559	24345.46
718.902	24041.06
719.246	24184.11
719.589	24128.29
719.932	24121.74
720.275	24139.82
720.617	24199.25
720.96	24095.3
721.303	24073.83
721.646	24103.21
721.989	23967.17
722.331	23956.77
722.674	23992.48
723.016	23961.74
723.359	23815.98
723.701	23973.27
724.044	23960.61
724.386	23817.34
724.729	23902.54
725.071	24032.48
725.413	23853.27
725.755	23739.83
726.097	23834.51
726.439	23814.63
726.782	23837.45
727.124	23846.27
727.465	23827.74
727.807	23803.1
728.149	23900.73
728.491	23782.99
728.833	23900.28
729.175	23800.62
729.516	23725.59
729.858	23760.17
730.199	23920.16
730.541	23901.18
730.882	23807.4
731.224	24024.34
731.565	23840.39
731.906	23824.35
732.248	23968.75
732.589	23851.92
732.93	23843.55
733.271	23867.28
733.612	23850.56
733.953	24045.13
734.294	23934.17
734.635	24007.39
734.976	24065.69
735.317	23996.09
735.658	24064.11
735.999	23959.03
736.339	24019.59
736.68	24101.63
737.021	24168.74
737.361	24197.67
737.702	24423.43
738.042	24318.12
738.383	24360.15
738.723	24356.99
739.063	24352.92
739.404	24328.06
739.744	24453.93
740.084	24376.42
740.424	24637.21
740.764	24626.36
741.104	24809.18
741.444	24849.86
741.784	24673.14
742.124	24832.68
742.464	24907.48
742.804	25025.22
743.143	24971.66
743.483	25202.84
743.823	25120.13
744.162	25378.2
744.502	25372.78
744.841	25435.15
745.181	25644.41
745.52	25606.67
745.86	25782.49
746.199	25838.3
746.538	25876.27
746.877	26188.12
747.216	26190.16
747.556	26249.59
747.895	26392.41
748.234	26584.72
748.573	26628.11
748.911	26792.18
749.25	27012.28
749.589	27038.27
749.928	27156.01
750.267	27382.67
750.605	27400.07
750.944	27722.77
751.283	27654.3
751.621	27935.2
751.96	27906.95
752.298	28146.49
752.636	28472.36
752.975	28539.93
753.313	28576.99
753.651	28942.85
753.989	28942.63
754.327	29132
754.666	29110.76
755.004	29324.31
