Data from 7737_FLMS001491_005.txt Node
Date: Thu Apr 19 15:41:09 BST 2018
User: hsy
Spectrometer: FLMS00149
Trigger mode: 0
Integration Time (sec): 1.000000E-2
Scans to average: 10
Electric dark correction enabled: true
Nonlinearity correction enabled: false
Boxcar width: 0
XAxis mode: Wavelengths
Number of Pixels in Spectrum: 2048
>>>>>Begin Spectral Data<<<<<
341.393	-16.75
341.776	-16.75
342.16	-16.75
342.543	-59.24
342.927	-58.33
343.31	-65.34
343.693	-77.09
344.077	-72.34
344.46	-28.28
344.843	-54.94
345.226	-39.8
345.61	-37.32
345.993	-28.95
346.376	7.2
346.759	8.11
347.142	21.67
347.525	57.15
347.908	39.29
348.291	81.55
348.674	90.82
349.057	98.27
349.44	138.5
349.823	139.4
350.206	187.54
350.588	235.45
350.971	224.15
351.354	266.18
351.737	282.22
352.119	269.57
352.502	292.39
352.884	300.53
353.267	312.28
353.65	321.77
354.032	348.44
354.414	346.86
354.797	336.69
355.179	357.7
355.562	371.49
355.944	363.13
356.326	372.39
356.709	363.13
357.091	370.36
357.473	385.72
357.855	395.44
358.238	394.31
358.62	373.52
359.002	385.72
359.384	404.71
359.766	389.11
360.148	368.1
360.53	363.58
360.912	383.24
361.294	388.44
361.676	377.14
362.057	389.11
362.439	384.14
362.821	396.57
363.203	385.5
363.584	384.37
363.966	359.06
364.348	368.1
364.729	358.15
365.111	366.29
365.493	386.4
365.874	387.53
366.256	386.18
366.637	381.88
367.019	368.78
367.4	367.65
367.781	380.07
368.163	382.11
368.544	376.46
368.925	362.45
369.306	381.88
369.688	380.53
370.069	389.57
370.45	364.26
370.831	382.56
371.212	393.18
371.593	391.83
371.974	360.87
372.355	373.75
372.736	380.3
373.117	385.5
373.498	384.59
373.879	380.3
374.26	386.4
374.641	373.75
375.021	397.25
375.402	393.41
375.783	396.8
376.163	420.3
376.544	396.12
376.925	397.93
377.305	389.11
377.686	407.87
378.066	403.12
378.447	413.52
378.827	398.15
379.208	409.23
379.588	403.12
379.968	426.63
380.349	427.98
380.729	404.48
381.109	426.85
381.489	425.5
381.87	449.23
382.25	432.95
382.63	442.9
383.01	443.8
383.39	437.25
383.77	428.21
384.15	432.5
384.53	436.57
384.91	435.67
385.29	469.79
385.67	446.97
386.049	451.49
386.429	446.74
386.809	462.33
387.189	481.09
387.568	464.37
387.948	458.26
388.328	476.34
388.707	494.65
389.087	470.47
389.466	499.62
389.846	499.17
390.225	475.44
390.605	487.42
390.984	498.72
391.363	503.91
391.743	519.51
392.122	531.71
392.501	505.27
392.881	519.96
393.26	515.44
393.639	497.81
394.018	535.1
394.397	521.99
394.776	525.61
395.155	531.03
395.534	549.34
395.913	554.53
396.292	558.6
396.671	546.62
397.05	565.83
397.429	551.37
397.808	536.68
398.186	572.61
398.565	585.72
398.944	578.04
399.323	582.56
399.701	612.84
400.08	569
400.458	586.17
400.837	565.83
401.215	593.85
401.594	587.07
401.972	587.3
402.351	588.66
402.729	632.95
403.107	613.06
403.486	607.87
403.864	634.31
404.242	628.66
404.62	644.02
404.999	658.49
405.377	648.09
405.755	624.59
406.133	644.47
406.511	636.79
406.889	648.99
407.267	668.65
407.645	676.11
408.023	677.92
408.401	701.42
408.779	682.44
409.156	688.77
409.534	719.95
409.912	719.95
410.29	700.29
410.667	720.18
411.045	722.89
411.422	749.33
411.8	767.64
412.178	758.82
412.555	749.1
412.933	775.54
413.31	810.57
413.687	803.11
414.065	790.01
414.442	778.26
414.819	799.05
415.197	824.81
415.574	831.81
415.951	828.42
416.328	832.04
416.705	859.38
417.082	845.6
417.46	871.36
417.837	844.7
418.214	851.47
418.591	876.56
418.967	866.16
419.344	896.45
419.721	891.93
420.098	921.53
420.475	890.12
420.852	915.43
421.228	908.65
421.605	940.29
421.982	917.69
422.358	929.21
422.735	924.92
423.111	953.62
423.488	940.96
423.864	957.01
424.241	957.69
424.617	985.71
424.994	987.06
425.37	1001.08
425.746	1007.4
426.123	984.13
426.499	1019.61
426.875	1042.43
427.251	1036.1
427.627	1074.97
428.003	1061.19
428.379	1074.07
428.756	1095.99
429.132	1095.99
429.507	1113.84
429.883	1101.86
430.259	1116.78
430.635	1137.79
431.011	1170.11
431.387	1159.04
431.763	1229.32
432.138	1158.81
432.514	1195.87
432.89	1213.05
433.265	1239.49
433.641	1279.03
434.016	1262.76
434.392	1287.85
434.767	1299.37
435.143	1313.61
435.518	1324.68
435.894	1337.56
436.269	1337.56
436.644	1340.5
437.02	1362.87
437.395	1373.04
437.77	1384.79
438.145	1418.69
438.52	1435.41
438.895	1452.59
439.271	1425.92
439.646	1431.57
440.021	1486.71
440.395	1493.72
440.77	1446.04
441.145	1486.03
441.52	1510.67
441.895	1490.1
442.27	1509.54
442.645	1512.25
443.019	1551.57
443.394	1534.17
443.769	1554.06
444.143	1530.1
444.518	1557.9
444.892	1593.15
445.267	1567.39
445.641	1573.94
446.016	1570.55
446.39	1630.89
446.764	1654.62
447.139	1616.65
447.513	1653.71
447.887	1640.83
448.262	1648.52
448.636	1636.54
449.01	1680.38
449.384	1681.96
449.758	1695.97
450.132	1734.39
450.506	1720.15
450.88	1705.01
451.254	1752.24
451.628	1779.13
452.002	1803.99
452.376	1825.23
452.75	1809.42
453.123	1824.33
453.497	1891.67
453.871	1860.94
454.244	1944.33
454.618	1949.98
454.992	1957.66
455.365	1963.31
455.739	1994.27
456.112	2009.18
456.486	2045.79
456.859	2069.97
457.232	2092.35
457.606	2120.59
457.979	2155.62
458.352	2215.28
458.725	2194.94
459.099	2239.46
459.472	2243.3
459.845	2282.17
460.218	2314.94
460.591	2326.46
460.964	2347.03
461.337	2398.1
461.71	2413.92
462.083	2444.65
462.456	2468.38
462.829	2451.43
463.201	2487.59
463.574	2502.5
463.947	2576.63
464.32	2595.16
464.692	2606.23
465.065	2633.8
465.438	2655.27
465.81	2723.29
466.183	2692.56
466.555	2780.01
466.928	2805.55
467.3	2795.15
467.672	2861.37
468.045	2892.1
468.417	2894.36
468.789	2946.33
469.161	2965.09
469.534	3028.59
469.906	3079.44
470.278	3116.27
470.65	3143.17
471.022	3204.41
471.394	3229.27
471.766	3277.85
472.138	3305.2
472.51	3363.05
472.882	3445.08
473.253	3415.7
473.625	3489.15
473.997	3569.6
474.369	3577.28
474.74	3641.91
475.112	3715.58
475.484	3795.58
475.855	3838.06
476.227	3857.72
476.598	3992.86
476.97	4056.81
477.341	4062.46
477.713	4153.99
478.084	4194.89
478.455	4330.93
478.827	4390.14
479.198	4482.79
479.569	4527.31
479.94	4643.01
480.311	4702.22
480.682	4790.35
481.053	4891.59
481.424	4973.17
481.795	5044.81
482.166	5189.21
482.537	5219.04
482.908	5329.55
483.279	5420.39
483.65	5520.73
484.021	5587.62
484.391	5710.33
484.762	5802.08
485.133	5887.27
485.503	6013.82
485.874	6154.16
486.244	6186.7
486.615	6362.29
486.985	6521.16
487.356	6589.18
487.726	6748.04
488.097	6938.32
488.467	6960.01
488.837	7217.86
489.207	7280.68
489.578	7440
489.948	7606.1
490.318	7681.8
490.688	7844.74
491.058	8019.65
491.428	8176.25
491.798	8286.99
492.168	8510.93
492.538	8694.21
492.908	8728.1
493.278	8959.74
493.648	9060.3
494.017	9364.25
494.387	9412.83
494.757	9627.29
495.126	9809.43
495.496	9927.17
495.866	10155.41
496.235	10270.89
496.605	10594.27
496.974	10650.77
497.344	10971.21
497.713	11038.78
498.082	11246.23
498.452	11501.36
498.821	11643.73
499.19	11797.18
499.559	12078.3
499.928	12285.98
500.298	12466.99
500.667	12705.63
501.036	12823.59
501.405	13114.2
501.774	13287.76
502.143	13450.24
502.512	13667.63
502.88	14012.48
503.249	14059.72
503.618	14349.42
503.987	14595.52
504.356	14816.31
504.724	14981.27
505.093	15269.17
505.462	15410.87
505.83	15614.7
506.199	15854.24
506.567	16231.41
506.936	16346.43
507.304	16676.14
507.672	16829.13
508.041	17026.87
508.409	17271.38
508.777	17610.36
509.145	17853.29
509.514	17922.66
509.882	18215.99
510.25	18304.8
510.618	18667.73
510.986	18724.68
511.354	18970.55
511.722	19300.48
512.09	19650.98
512.458	19659.57
512.826	20012.55
513.193	20067.47
513.561	20307.91
513.929	20494.57
514.297	20794.23
514.664	20957.84
515.032	21158.74
515.4	21471.27
515.767	21653.41
516.135	21740.64
516.502	21727.31
516.869	22184.47
517.237	22320.51
517.604	22199.16
517.972	22770.9
518.339	22769.54
518.706	23022.87
519.073	23092.92
519.44	23166.82
519.808	23598.9
520.175	23596.41
520.542	23991.43
520.909	24170.86
521.276	24209.73
521.643	24476.39
522.009	24577.18
522.376	24885.65
522.743	25051.52
523.11	25298.52
523.477	25530.15
523.843	25639.52
524.21	25943.47
524.577	26046.52
524.943	26310.69
525.31	26431.82
525.676	26733.73
526.043	26767.4
526.409	26978.92
526.776	27282.64
527.142	27255.07
527.508	27369.65
527.874	27758.56
528.241	27773.7
528.607	27905
528.973	28229.51
529.339	28124.88
529.705	28525.32
530.071	28602.61
530.437	28712.66
530.803	28986.1
531.169	29019.32
531.535	29033.78
531.901	29123.73
532.267	29137.74
532.632	29358.97
532.998	29505.64
533.364	29659.08
533.73	29640.55
534.095	29867.89
534.461	29909.02
534.826	29979.07
535.192	30106.3
535.557	30191.95
535.923	30233.3
536.288	30339.29
536.653	30435.1
537.019	30384.71
537.384	30453.41
537.749	30475.78
538.114	30553.52
538.479	30409.34
538.845	30647.98
539.21	30568.21
539.575	30733.4
539.94	30723.91
540.305	30833.96
540.67	30713.51
541.034	30860.18
541.399	30862.66
541.764	30845.26
542.129	30835.55
542.494	30977.69
542.858	30857.01
543.223	30872.15
543.587	30996.67
543.952	30974.3
544.316	31004.58
544.681	30992.15
545.045	31113.73
545.41	31067.86
545.774	30986.28
546.138	31039.83
546.503	31120.28
546.867	31071.25
547.231	31131.13
547.595	31257
547.959	31265.59
548.324	31173.39
548.688	31100.62
549.052	31263.56
549.416	31121.19
549.779	31150.11
550.143	31156.44
550.507	31396.43
550.871	31327.06
551.235	31160.28
551.599	31493.38
551.962	31449.77
552.326	31548.52
552.689	31546.26
553.053	31317.79
553.417	31485.25
553.78	31734.28
554.143	31563.21
554.507	31616.32
554.87	31680.49
555.234	31812.92
555.597	31575.41
555.96	31672.36
556.323	31763.43
556.686	31844.56
557.05	31896.76
557.413	31935.63
557.776	31899.92
558.139	32090.43
558.502	32047.49
558.865	31992.12
559.228	32324.32
559.59	32205
559.953	32323.42
560.316	32564.54
560.679	32344.88
561.041	32541.04
561.404	32847.02
561.767	32870.97
562.129	32836.17
562.492	32992.1
562.854	32908.03
563.217	32917.3
563.579	32954.81
563.941	33146.67
564.304	33184.86
564.666	33506.21
565.028	33407.68
565.39	33376.27
565.753	33766.09
566.115	33692.42
566.477	33692.87
566.839	33822.36
567.201	34128.11
567.563	33960.89
567.925	34172.18
568.287	34213.54
568.648	34178.73
569.01	34265.06
569.372	34660.76
569.734	34439.74
570.095	34586.18
570.457	34760.64
570.819	34789.57
571.18	34649.68
571.542	34975.1
571.903	34875.89
572.265	35106.39
572.626	35110.01
572.987	35255.32
573.349	35423
573.71	35339.61
574.071	35425.03
574.432	35575.31
574.794	35611.92
575.155	35759.48
575.516	35483.78
575.877	35684.91
576.238	35605.82
576.599	35747.28
576.96	35717.22
577.32	35695.98
577.681	35747.51
578.042	35921.97
578.403	35926.26
578.763	35821.4
579.124	35966.71
579.485	36055.75
579.845	36182.52
580.206	36030.44
580.566	36003.77
580.927	36170.09
581.287	36122.19
581.648	36023.88
582.008	36251.45
582.368	36146.82
582.728	36154.28
583.089	35994.05
583.449	35959.93
583.809	36020.95
584.169	36246.7
584.529	36004
584.889	36204.9
585.249	35938.24
585.609	35788.18
585.969	35903.66
586.329	35793.15
586.688	36010.1
587.048	35883.32
587.408	35837
587.768	35800.16
588.127	35811.91
588.487	35740.5
588.846	35999.25
589.206	35554.74
589.565	35545.03
589.925	35734.63
590.284	35692.82
590.643	35692.37
591.003	35563.56
591.362	35762.87
591.721	35563.33
592.08	35638.36
592.44	35841.97
592.799	35492.37
593.158	35487.17
593.517	35414.41
593.876	35554.97
594.235	35428.64
594.593	35450.79
594.952	35504.12
595.311	35290.8
595.67	35540.51
596.029	35366.27
596.387	35482.2
596.746	35541.86
597.104	35270.46
597.463	35301.87
597.822	35410.79
598.18	35316.78
598.538	35299.38
598.897	35512.94
599.255	35197.24
599.613	35587.06
599.972	35341.64
600.33	35488.76
600.688	35347.29
601.046	35460.06
601.404	35767.62
601.762	35576.66
602.12	35578.92
602.478	35528.76
602.836	35689.2
603.194	35402.43
603.552	35565.36
603.91	35463.9
604.268	35567.62
604.625	35577.34
604.983	35717
605.341	35340.51
605.698	35661.41
606.056	35968.97
606.413	35591.58
606.771	35867.96
607.128	35661.63
607.485	35642.2
607.843	35749.54
608.2	35757.22
608.557	35997.9
608.914	35868.86
609.272	35983.21
609.629	36126.25
609.986	36156.31
610.343	35989.76
610.7	36390.88
611.057	36208.96
611.414	36173.94
611.771	36345
612.127	36316.08
612.484	36305.23
612.841	36579.8
613.198	36118.12
613.554	36276.08
613.911	36470.2
614.267	36467.49
614.624	36483.98
614.98	36526.92
615.337	36821.15
615.693	36753.81
616.05	36824.09
616.406	36912.45
616.762	36776.41
617.118	36822.05
617.475	36864.09
617.831	36983.41
618.187	36966.01
618.543	36983.63
618.899	37245.32
619.255	37052.78
619.611	37097.98
619.967	37188.6
620.323	37309.05
620.678	37063.63
621.034	37048.04
621.39	37120.13
621.746	37158.99
622.101	37608.02
622.457	37297.52
622.812	37475.37
623.168	37384.53
623.523	37425.88
623.879	37564.86
624.234	37370.29
624.589	37475.14
624.945	37477.63
625.3	37552.43
625.655	37425.43
626.01	37568.02
626.365	37476.73
626.72	37477.63
627.075	37490.51
627.43	37430.85
627.785	37464.52
628.14	37344.07
628.495	37458.42
628.85	37452.55
629.205	37491.87
629.559	37629.26
629.914	37343.62
630.269	37322.61
630.623	37224.3
630.978	37074.03
631.332	37350.4
631.687	37347.69
632.041	37230.41
632.396	37163.29
632.75	37056.17
633.104	37242.38
633.459	36942.73
633.813	36930.98
634.167	37058.66
634.521	36997.19
634.875	36986.8
635.229	36970.53
635.583	36747.93
635.937	36757.88
636.291	36745.67
636.645	36706.58
636.999	36611.89
637.352	36723.07
637.706	36461.84
638.06	36558.78
638.413	36418
638.767	36371.67
639.121	36584.09
639.474	36324.89
639.828	36165.35
640.181	36149.98
640.534	36295.06
640.888	36096.88
641.241	35968.74
641.594	36116.54
641.947	36061.62
642.301	36005.13
642.654	36065.24
643.007	36108.85
643.36	35979.82
643.713	35869.99
644.066	35970.78
644.419	35691.46
644.771	35451.24
645.124	34974.87
645.477	35124.7
645.83	34980.52
646.182	35014.19
646.535	34871.15
646.888	35018.71
647.24	34916.57
647.593	35145.04
647.945	35034.3
648.298	34815.33
648.65	34710.25
649.002	34508.89
649.355	34436.58
649.707	34327.66
650.059	34316.58
650.411	34855.33
650.763	35086.28
651.115	35618.92
651.467	35547.96
651.819	35517.91
652.171	35313.85
652.523	35359.27
652.875	35350.23
653.227	35277.24
653.578	35542.31
653.93	35381.64
654.282	35159.73
654.633	35364.69
654.985	35397.46
655.337	35324.69
655.688	35287.86
656.039	35524.01
656.391	35213.51
656.742	35157.24
657.094	35208.09
657.445	35403.56
657.796	35479.49
658.147	35233.17
658.498	35375.99
658.849	35441.07
659.2	35354.3
659.551	35274.98
659.902	35534.4
660.253	35347.97
660.604	35557
660.955	35424.13
661.306	35504.57
661.656	35334.41
662.007	35486.5
662.358	35529.88
662.708	35555.65
663.059	35505.93
663.409	35360.85
663.76	35629.77
664.11	35548.87
664.461	35505.03
664.811	35509.55
665.161	35629.09
665.511	35453.5
665.862	35592.48
666.212	35725.59
666.562	35762.65
666.912	35524.91
667.262	35464.58
667.612	35611.01
667.962	35632.48
668.312	35711.58
668.662	35753.16
669.011	35793.61
669.361	35793.61
669.711	35679.49
670.06	35606.27
670.41	35526.95
670.76	35622.09
671.109	35638.81
671.459	35731.01
671.808	35543.9
672.157	35599.04
672.507	35422.77
672.856	35352.04
673.205	35461.64
673.554	35445.14
673.904	35350.23
674.253	35608.08
674.602	35384.13
674.951	34911.82
675.3	34939.84
675.649	35503.67
675.998	35498.47
676.346	35370.12
676.695	35377.35
677.044	35229.55
677.393	35280.4
677.741	35367.86
678.09	35166.05
678.438	35021.88
678.787	35242.43
679.135	35091.7
679.484	34868.21
679.832	35088.31
680.181	34830.24
680.529	34906.85
680.877	34832.05
681.225	34826.4
681.573	35023.68
681.922	34583.02
682.27	34769.68
682.618	34672.96
682.966	34572.85
683.314	34579.18
683.661	34534.2
684.009	34417.6
684.357	34330.14
684.705	34179.41
685.053	34293.53
685.4	34039.75
685.748	33948.68
686.095	33882.47
686.443	33735.81
686.79	33671.18
687.138	33712.53
687.485	33634.34
687.832	33474.57
688.18	33435.25
688.527	33463.05
688.874	33296.5
689.221	33199.78
689.568	33081.14
689.915	33072.32
690.262	33097.86
690.609	32840.46
690.956	32726.12
691.303	32772.9
691.65	32617.19
691.997	32509.85
692.344	32332.68
692.69	32178.79
693.037	32295.39
693.383	31793.26
693.73	32011.56
694.077	31741.28
694.423	31758.23
694.769	31736.99
695.116	31542.42
695.462	31470.33
695.808	31210.68
696.155	31323.44
696.501	30982.66
696.847	31081.19
697.193	30824.47
697.539	30757.58
697.885	30553.07
698.231	30430.13
698.577	30383.81
698.923	30436.23
699.269	30140.65
699.614	30009.35
699.96	29970.26
700.306	29951.27
700.651	29757.61
700.997	29542.02
701.342	29556.26
701.688	29528.23
702.033	29391.06
702.379	29261.8
702.724	29078.98
703.069	29080.34
703.415	28814.36
703.76	28723.06
704.105	28744.07
704.45	28652.1
704.795	28542.5
705.14	28329.62
705.485	28422.05
705.83	28186.12
706.175	28147.48
706.52	28069.97
706.865	27936.19
707.209	27926.7
707.554	27865
707.899	27752.46
708.243	27736.64
708.588	27536.2
708.932	27445.58
709.277	27411
709.621	27282.87
709.966	27101.86
710.31	27290.55
710.654	27090.11
710.998	27004.46
711.342	27087.85
711.687	26834.07
712.031	26924.46
712.375	26785.48
712.719	26748.65
713.063	26677.69
713.407	26741.19
713.75	26749.1
714.094	26531.25
714.438	26468.88
714.782	26475.43
715.125	26314.53
715.469	26483.12
715.812	26300.07
716.156	26237.25
716.499	26262.33
716.843	26267.08
717.186	26162.22
717.53	26302.33
717.873	26275.21
718.216	26175.78
718.559	26069.12
718.902	25796.58
719.246	25919.97
719.589	26061.21
719.932	25703.7
720.275	25830.25
720.617	25833.87
720.96	25716.81
721.303	25827.09
721.646	25817.15
721.989	25670.48
722.331	25694.89
722.674	25747.77
723.016	25867.54
723.359	25793.64
723.701	25748.45
724.044	25472.07
724.386	25440.21
724.729	25592.97
725.071	25501
725.413	25616.47
725.755	25565.85
726.097	25481.34
726.439	25467.78
726.782	25477.27
727.124	25523.59
727.465	25656.02
727.807	25519.98
728.149	25592.52
728.491	25395.01
728.833	25499.41
729.175	25566.76
729.516	25381.23
729.858	25472.97
730.199	25433.2
730.541	25588.9
730.882	25508.68
731.224	25550.71
731.565	25543.25
731.906	25438.4
732.248	25594.78
732.589	25595.68
732.93	25429.36
733.271	25602.91
733.612	25665.51
733.953	25635.46
734.294	25657.15
734.635	25555.68
734.976	25760.88
735.317	25679.07
735.658	25604.04
735.999	25637.94
736.339	25765.85
736.68	25793.64
737.021	25715.68
737.361	25621.67
737.702	25904.15
738.042	25881.55
738.383	25911.15
738.723	25926.52
739.063	25953.19
739.404	26191.15
739.744	25956.58
740.084	26077.48
740.424	26053.07
740.764	26082.45
741.104	26364.25
741.444	26217.14
741.784	26386.17
742.124	26434.98
742.464	26496.68
742.804	26470.01
743.143	26618.03
743.483	26771.7
743.823	26833.16
744.162	26794.52
744.502	26952.48
744.841	27065.47
745.181	27199.48
745.52	27355.64
745.86	27355.41
746.199	27392.92
746.538	27453.49
746.877	27668.62
747.216	27729.19
747.556	27858.67
747.895	28011.66
748.234	28083.08
748.573	28244.43
748.911	28262.73
749.25	28454.36
749.589	28540.01
749.928	28723.96
750.267	28937.74
750.605	28886.44
750.944	29072.43
751.283	29209.83
751.621	29400.1
751.96	29413.89
752.298	29610.04
752.636	29871.28
752.975	30014.55
753.313	30074.89
753.651	30249.12
753.989	30417.03
754.327	30612.95
754.666	30621.09
755.004	30936.33
