Data from 7737_FLMS001491_007.txt Node
Date: Thu Apr 19 15:41:15 BST 2018
User: hsy
Spectrometer: FLMS00149
Trigger mode: 0
Integration Time (sec): 1.000000E-2
Scans to average: 10
Electric dark correction enabled: true
Nonlinearity correction enabled: false
Boxcar width: 0
XAxis mode: Wavelengths
Number of Pixels in Spectrum: 2048
>>>>>Begin Spectral Data<<<<<
341.393	-9.7
341.776	-9.7
342.16	-9.7
342.543	-30.04
342.927	-64.84
343.31	-62.58
343.693	-61.45
344.077	-60.78
344.46	-66.88
344.843	-60.32
345.226	-21.68
345.61	-33.21
345.993	-27.56
346.376	4.08
346.759	23.74
347.142	22.84
347.525	45.89
347.908	30.97
348.291	77.75
348.674	98.99
349.057	90.18
349.44	132.89
349.823	135.15
350.206	171.08
350.588	210.18
350.971	249.5
351.354	282.94
351.737	272.78
352.119	296.73
352.502	331.3
352.884	313
353.267	319.78
353.65	338.76
354.032	350.97
354.414	327.01
354.797	363.39
355.179	342.15
355.562	369.5
355.944	371.3
356.326	382.83
356.709	377.18
357.091	384.41
357.473	402.72
357.855	379.67
358.238	387.8
358.62	374.24
359.002	386.9
359.384	408.14
359.766	373.11
360.148	364.07
360.53	394.81
360.912	398.2
361.294	368.82
361.676	418.08
362.057	389.83
362.439	349.38
362.821	371.98
363.203	377.18
363.584	381.7
363.966	390.96
364.348	352.77
364.729	376.95
365.111	377.41
365.493	382.83
365.874	372.43
366.256	390.29
366.637	375.37
367.019	376.5
367.4	362.04
367.781	383.73
368.163	365.88
368.544	397.07
368.925	371.76
369.306	378.08
369.688	402.49
370.069	380.34
370.45	376.73
370.831	384.18
371.212	357.97
371.593	369.72
371.974	375.82
372.355	379.21
372.736	397.29
373.117	385.31
373.498	361.13
373.879	376.28
374.26	389.61
374.641	370.85
375.021	357.29
375.402	414.47
375.783	396.16
376.163	401.59
376.544	397.07
376.925	388.03
377.305	415.14
377.686	409.95
378.066	420.79
378.447	418.08
378.827	402.72
379.208	415.6
379.588	426.44
379.968	405.2
380.349	436.39
380.729	426.67
381.109	429.83
381.489	427.57
381.87	442.04
382.25	441.81
382.63	425.09
383.01	431.87
383.39	433.9
383.77	449.27
384.15	439.78
384.53	468.7
384.91	457.63
385.29	432.09
385.67	462.83
386.049	463.96
386.429	468.93
386.809	473
387.189	465.54
387.568	457.18
387.948	459.44
388.328	479.32
388.707	479.55
389.087	478.42
389.466	487.46
389.846	496.95
390.225	501.24
390.605	510.51
390.984	466.67
391.363	510.06
391.743	505.54
392.122	502.37
392.501	505.09
392.881	535.14
393.26	531.75
393.639	510.74
394.018	519.32
394.397	553.67
394.776	531.75
395.155	525.88
395.534	525.42
395.913	549.6
396.292	545.54
396.671	570.62
397.05	556.16
397.429	570.39
397.808	564.07
398.186	582.37
398.565	582.37
398.944	553.22
399.323	565.87
399.701	569.72
400.08	569.04
400.458	592.54
400.837	596.61
401.215	586.89
401.594	596.16
401.972	595.48
402.351	600.22
402.729	595.93
403.107	618.98
403.486	623.5
403.864	638.42
404.242	637.96
404.62	604.97
404.999	649.49
405.377	626.66
405.755	635.48
406.133	670.96
406.511	668.47
406.889	656.04
407.267	675.25
407.645	673.67
408.023	683.84
408.401	690.62
408.779	698.3
409.156	686.32
409.534	692.2
409.912	700.56
410.29	727.9
410.667	727
411.045	775.81
411.422	754.8
411.8	728.36
412.178	768.81
412.555	764.29
412.933	784.17
413.31	784.4
413.687	767.9
414.065	797.96
414.442	808.81
414.819	820.11
415.197	824.63
415.574	830.95
415.951	852.65
416.328	838.64
416.705	840.67
417.082	871.63
417.46	868.47
417.837	863.95
418.214	880.44
418.591	885.41
418.967	879.09
419.344	914.57
419.721	896.04
420.098	903.49
420.475	924.06
420.852	912.98
421.228	922.25
421.605	918.18
421.982	917.5
422.358	953.44
422.735	952.31
423.111	940.78
423.488	957.28
423.864	983.04
424.241	951.85
424.617	967.22
424.994	979.65
425.37	989.82
425.746	999.76
426.123	1008.12
426.499	1024.85
426.875	1026.65
427.251	1064.62
427.627	1082.7
428.003	1057.84
428.379	1102.36
428.756	1108.69
429.132	1146.42
429.507	1115.24
429.883	1110.04
430.259	1132.19
430.635	1147.55
431.011	1175.35
431.387	1174.9
431.763	1186.2
432.138	1199.98
432.514	1225.07
432.89	1243.37
433.265	1266.65
433.641	1228
434.016	1260.55
434.392	1275.01
434.767	1307.32
435.143	1305.97
435.518	1301.22
435.894	1329.24
436.269	1352.75
436.644	1373.76
437.02	1378.73
437.395	1401.56
437.77	1386.42
438.145	1407.43
438.52	1414.44
438.895	1425.74
439.271	1420.32
439.646	1462.35
440.021	1463.7
440.395	1475.46
440.77	1417.83
441.145	1478.62
441.52	1471.39
441.895	1501.67
442.27	1519.97
442.645	1495.34
443.019	1494.89
443.394	1533.31
443.769	1546.19
444.143	1563.59
444.518	1578.05
444.892	1574.44
445.267	1571.72
445.641	1609.01
446.016	1610.37
446.39	1611.95
446.764	1611.95
447.139	1613.08
447.513	1615.56
447.887	1645.62
448.262	1648.33
448.636	1651.5
449.01	1682.46
449.384	1712.51
449.758	1738.73
450.132	1715.45
450.506	1732.62
450.88	1753.64
451.254	1722
451.628	1773.3
452.002	1781.44
452.376	1810.14
452.75	1834.54
453.123	1840.64
453.497	1876.12
453.871	1871.38
454.244	1912.96
454.618	1939.4
454.992	1966.29
455.365	1983.69
455.739	2001.77
456.112	2012.39
456.486	2063.24
456.859	2048.55
457.232	2089.22
457.606	2141.88
457.979	2155.89
458.352	2186.62
458.725	2183.23
459.099	2204.7
459.472	2285.83
459.845	2272.95
460.218	2285.38
460.591	2344.36
460.964	2326.96
461.337	2375.09
461.71	2415.32
462.083	2448.09
462.456	2445.15
462.829	2469.1
463.201	2517.01
463.574	2503.23
463.947	2582.09
464.32	2613.28
464.692	2599.72
465.065	2632.04
465.438	2666.16
465.81	2681.98
466.183	2721.52
466.555	2801.97
466.928	2830
467.3	2822.09
467.672	2821.86
468.045	2929.43
468.417	2905.93
468.789	2957
469.161	2967.39
469.534	3065.92
469.906	3080.16
470.278	3104.11
470.65	3142.98
471.022	3208.52
471.394	3242.19
471.766	3242.64
472.138	3315.63
472.51	3366.25
472.882	3405.8
473.253	3480.37
473.625	3481.96
473.997	3605.8
474.369	3590.43
474.74	3614.61
475.112	3669.3
475.484	3759.69
475.855	3850.76
476.227	3850.31
476.598	3994.71
476.97	4032
477.341	4145.44
477.713	4159
478.084	4237.87
478.455	4316.06
478.827	4372.1
479.198	4498.88
479.569	4528.48
479.94	4606.22
480.311	4675.15
480.682	4765.76
481.053	4897.06
481.424	5015.7
481.795	5071.97
482.166	5158.07
482.537	5253.89
482.908	5369.59
483.279	5429.25
483.65	5534.56
484.021	5652.07
484.391	5738.85
484.762	5858.39
485.133	5889.58
485.503	5996.69
485.874	6228.78
486.244	6268.55
486.615	6442.56
486.985	6540.63
487.356	6662.66
487.726	6715.77
488.097	6935.88
488.467	7040.73
488.837	7173.16
489.207	7326.15
489.578	7493.38
489.948	7641.62
490.318	7783.99
490.688	7896.3
491.058	8077.32
491.428	8200.48
491.798	8313.92
492.168	8613.12
492.538	8688.15
492.908	8855.6
493.278	8963.17
493.648	9119.1
494.017	9287.23
494.387	9456.71
494.757	9660.1
495.126	9862.35
495.496	9937.83
495.866	10183.93
496.235	10441.1
496.605	10619.62
496.974	10768.54
497.344	10929.22
497.713	11147.97
498.082	11335.54
498.452	11553.16
498.821	11729.65
499.19	11883.09
499.559	12170.32
499.928	12349.07
500.298	12578.89
500.667	12792.45
501.036	12962.61
501.405	13252.77
501.774	13382.94
502.143	13620.9
502.512	13860.89
502.88	14082.81
503.249	14295.46
503.618	14539.97
503.987	14743.58
504.356	15026.74
504.724	15269.9
505.093	15424.02
505.462	15673.27
505.83	15882.08
506.199	16075.3
506.567	16496.98
506.936	16583.98
507.304	16981.04
507.672	17199.34
508.041	17379.67
508.409	17630.51
508.777	17908.47
509.145	18207.67
509.514	18276.6
509.882	18561.56
510.25	18748.22
510.618	19067.76
510.986	19208.32
511.354	19422.55
511.722	19744.81
512.09	19996.32
512.458	20084.46
512.826	20377.78
513.193	20519.47
513.561	20728.28
513.929	21007.6
514.297	21154.71
514.664	21367.81
515.032	21630.18
515.4	21862.04
515.767	22032.43
516.135	22205.31
516.502	22188.81
516.869	22652.07
517.237	22841
517.604	22758.96
517.972	23179.52
518.339	23304.71
518.706	23445.5
519.073	23622.9
519.44	23750.8
519.808	24159.83
520.175	24136.1
520.542	24454.29
520.909	24531.12
521.276	24781.51
521.643	24965.46
522.009	25200.93
522.376	25338.33
522.743	25585.78
523.11	25883.85
523.477	26090.18
523.843	26094.92
524.21	26540.11
524.577	26679.09
524.943	26853.55
525.31	26901.23
525.676	27351.39
526.043	27398.62
526.409	27451.95
526.776	27713.18
527.142	27894.42
527.508	27987.53
527.874	28337.57
528.241	28439.27
528.607	28446.95
528.973	28840.16
529.339	28703.89
529.705	29044.22
530.071	29205.57
530.437	29441.5
530.803	29457.54
531.169	29582.51
531.535	29642.4
531.901	29609.41
532.267	29844.2
532.632	30048.04
532.998	30067.7
533.364	30172.78
533.73	30273.34
534.095	30438.99
534.461	30381.81
534.826	30580.68
535.192	30580.45
535.557	30848.47
535.923	30869.48
536.288	30799.43
536.653	31030.84
537.019	30885.08
537.384	31049.37
537.749	31001.46
538.114	31098.63
538.479	30884.17
538.845	31078.74
539.21	31063.6
539.575	31266.31
539.94	31297.72
540.305	31560.31
540.67	31423.14
541.034	31215.92
541.399	31297.27
541.764	31449.36
542.129	31537.04
542.494	31438.51
542.858	31550.82
543.223	31482.12
543.587	31569.58
543.952	31523.71
544.316	31588.11
544.681	31573.2
545.045	31711.5
545.41	31631.27
545.774	31628.11
546.138	31645.96
546.503	31733.64
546.867	31585.17
547.231	31841.21
547.595	31774.32
547.959	31814.09
548.324	31807.99
548.688	31832.85
549.052	31952.62
549.416	31772.29
549.779	31718.95
550.143	31833.08
550.507	31909.46
550.871	32059.96
551.235	31925.73
551.599	32129.79
551.962	32096.8
552.326	32136.34
552.689	32185.38
553.053	32054.09
553.417	32104.71
553.78	32356.9
554.143	32232.84
554.507	32309
554.87	32355.32
555.234	32505.37
555.597	32305.61
555.96	32452.72
556.323	32520.51
556.686	32409.78
557.05	32757.8
557.413	32528.42
557.776	32485.49
558.139	32672.38
558.502	32703.56
558.865	32679.61
559.228	33049.99
559.59	32928.64
559.953	32858.59
560.316	33077.56
560.679	33112.82
561.041	33185.36
561.404	33396.65
561.767	33557.78
562.129	33509.87
562.492	33648.85
562.854	33628.28
563.217	33656.98
563.579	33788.28
563.941	33824.89
564.304	33965.45
564.666	34117.76
565.028	34140.13
565.39	34225.33
565.753	34427.36
566.115	34202.05
566.477	34488.82
566.839	34592.32
567.201	34752.77
567.563	34715.94
567.925	34954.12
568.287	34903.05
568.648	34968.36
569.01	35190.95
569.372	35316.6
569.734	35207
570.095	35378.52
570.457	35527.22
570.819	35501.91
571.18	35498.97
571.542	35655.35
571.903	35796.59
572.265	35777.83
572.626	35858.51
572.987	35795.01
573.349	36048.78
573.71	36215.56
574.071	36260.76
574.432	36408.1
574.794	36556.79
575.155	36491.03
575.516	36369.91
575.877	36486.51
576.238	36549.79
576.599	36568.32
576.96	36606.06
577.32	36657.13
577.681	36668.43
578.042	36931.02
578.403	36723.57
578.763	36621.2
579.124	36779.84
579.485	37102.99
579.845	37049.44
580.206	36869.1
580.566	36817.8
580.927	36876.11
581.287	36924.02
581.648	36789.56
582.008	36945.71
582.368	36891.25
582.728	36971.25
583.089	36858.93
583.449	36851.7
583.809	36892.83
584.169	36922.43
584.529	36808.54
584.889	36960.62
585.249	36759.5
585.609	36531.71
585.969	36827.07
586.329	36665.26
586.688	36817.8
587.048	36732.38
587.408	36557.47
587.768	36543.01
588.127	36518.6
588.487	36413.07
588.846	36853.96
589.206	36386.63
589.565	36301.66
589.925	36512.05
590.284	36312.51
590.643	36272.51
591.003	36339.85
591.362	36505.95
591.721	36284.94
592.08	36321.09
592.44	36471.15
592.799	36353.86
593.158	36292.62
593.517	36289.91
593.876	36331.94
594.235	36207.2
594.593	36370.13
594.952	36201.32
595.311	36144.83
595.67	36127.43
596.029	36351.6
596.387	36218.04
596.746	36335.33
597.104	36289.23
597.463	36039.97
597.822	36183.24
598.18	36129.69
598.538	35966.75
598.897	36277.03
599.255	36031.61
599.613	36431.37
599.972	36176.46
600.33	36248.55
600.688	36157.48
601.046	36258.04
601.404	36352.96
601.762	36157.93
602.12	36385.95
602.478	36382.56
602.836	36364.71
603.194	36226.86
603.552	36311.83
603.91	36205.84
604.268	36290.59
604.625	36399.51
604.983	36407.64
605.341	36135.11
605.698	36307.08
606.056	36559.05
606.413	36244.94
606.771	36630.24
607.128	36503.91
607.485	36373.3
607.843	36308.89
608.2	36531.03
608.557	36593.4
608.914	36582.78
609.272	36656.23
609.629	36743.45
609.986	36816.67
610.343	36862.1
610.7	37010.34
611.057	36949.1
611.414	36873.39
611.771	37087.17
612.127	36978.02
612.484	37098.25
612.841	37197.45
613.198	36959.04
613.554	37111.13
613.911	37174.18
614.267	37230.22
614.624	37151.13
614.98	37160.62
615.337	37550.21
615.693	37414.17
616.05	37533.94
616.406	37699.81
616.762	37578.24
617.118	37626.14
617.475	37551.57
617.831	37769.19
618.187	37738.91
618.543	37839.25
618.899	37986.81
619.255	37968.28
619.611	37858
619.967	38135.96
620.323	38156.52
620.678	37921.28
621.034	38050.99
621.39	37968.06
621.746	37999.69
622.101	38264.77
622.457	38133.47
622.812	38273.36
623.168	38309.06
623.523	38255.73
623.879	38312.23
624.234	38216.41
624.589	38194.26
624.945	38306.8
625.3	38425.67
625.655	38222.06
626.01	38361.72
626.365	38414.15
626.72	38347.71
627.075	38158.33
627.43	38308.39
627.785	38168.95
628.14	38260.48
628.495	38358.78
628.85	38383.19
629.205	38075.4
629.559	38366.24
629.914	38159.91
630.269	38173.93
630.623	37994.27
630.978	37916.76
631.332	38188.16
631.687	38080.82
632.041	38090.76
632.396	37998.56
632.75	37983.2
633.104	38093.02
633.459	37931.9
633.813	37915.63
634.167	37745.69
634.521	37879.7
634.875	37774.84
635.229	37711.56
635.583	37545.02
635.937	37576.88
636.291	37605.13
636.645	37515.86
636.999	37466.83
637.352	37616.88
637.706	37354.06
638.06	37415.98
638.413	37388.86
638.767	37206.27
639.121	37425.24
639.474	37155.42
639.828	37175.99
640.181	36999.49
640.534	37073.84
640.888	37071.13
641.241	36869.33
641.594	37016.22
641.947	36982.77
642.301	36893.73
642.654	36861.19
643.007	36712.04
643.36	36917.69
643.713	36754.3
644.066	36892.83
644.419	36792.95
644.771	36237.93
645.124	35801.56
645.477	35929.46
645.83	35683.82
646.182	35756.14
646.535	35734.67
646.888	35802.69
647.24	35758.85
647.593	35972.85
647.945	35710.26
648.298	35710.04
648.65	35551.62
649.002	35339.2
649.355	35164.06
649.707	34926.78
650.059	34994.8
650.411	35609.93
650.763	35825.51
651.115	36347.53
651.467	36181.44
651.819	36276.57
652.171	36377.81
652.523	36050.37
652.875	36184.6
653.227	36086.52
653.578	36316.35
653.93	36186.41
654.282	36151.38
654.633	36017.6
654.985	36135.11
655.337	36131.95
655.688	36119.06
656.039	36303.69
656.391	35929.92
656.742	36039.29
657.094	36057.37
657.445	36157.03
657.796	36225.5
658.147	36125.39
658.498	36106.41
658.849	36274.77
659.2	36134.43
659.551	36085.84
659.902	36211.94
660.253	36266.63
660.604	36315.22
660.955	36105.51
661.306	36177.37
661.656	36128.33
662.007	36227.08
662.358	36138.27
662.708	36278.61
663.059	36277.03
663.409	36131.72
663.76	36419.4
664.11	36383.69
664.461	36406.51
664.811	36475.44
665.161	36314.31
665.511	36289.68
665.862	36409.23
666.212	36510.24
666.562	36433.41
666.912	36308.21
667.262	36201.32
667.612	36426.17
667.962	36540.75
668.312	36330.13
668.662	36537.13
669.011	36456.23
669.361	36409.23
669.711	36438.38
670.06	36551.6
670.41	36426.4
670.76	36260.53
671.109	36502.33
671.459	36468.43
671.808	36312.73
672.157	36528.77
672.507	36262.56
672.856	36321.09
673.205	36243.81
673.554	36292.62
673.904	36141.66
674.253	36506.17
674.602	36204.49
674.951	35757.49
675.3	35591.39
675.649	36189.57
675.998	36098.95
676.346	36081.1
676.695	36211.94
677.044	35927.21
677.393	35900.77
677.741	36205.62
678.09	36071.38
678.438	35895.79
678.787	35981.44
679.135	35811.95
679.484	35726.31
679.832	35801.78
680.181	35618.74
680.529	35790.03
680.877	35470.95
681.225	35436.6
681.573	35816.47
681.922	35515.69
682.27	35497.39
682.618	35378.07
682.966	35342.81
683.314	35232.08
683.661	35215.59
684.009	35157.28
684.357	35052.88
684.705	34978.08
685.053	34953.67
685.4	34710.51
685.748	34786.9
686.095	34569.5
686.443	34486.34
686.79	34535.15
687.138	34459.22
687.485	34349.17
687.832	34178.32
688.18	34250.41
688.527	34021.72
688.874	33972.45
689.221	33928.84
689.568	33788.96
689.915	33689.75
690.262	33682.74
690.609	33521.17
690.956	33351.91
691.303	33330.44
691.65	33217.45
691.997	33157.79
692.344	32953.05
692.69	32853.61
693.037	32873.05
693.383	32613.39
693.73	32713.73
694.077	32463.34
694.423	32419.95
694.769	32383.8
695.116	32246.17
695.462	31979.51
695.808	31953.07
696.155	32061.32
696.501	31735
696.847	31820.87
697.193	31545.4
697.539	31535.68
697.885	31291.62
698.231	31161.91
698.577	31175.47
698.923	31039.88
699.269	30770.73
699.614	30785.42
699.96	30649.15
700.306	30547.91
700.651	30307.47
700.997	30230.86
701.342	30160.35
701.688	30062.73
702.033	29849.62
702.379	29984.76
702.724	29813.24
703.069	29643.75
703.415	29420.71
703.76	29473.14
704.105	29310.88
704.45	29368.51
704.795	29223.43
705.14	29073.15
705.485	29097.55
705.83	28845.58
706.175	28828.63
706.52	28776.21
706.865	28714.97
707.209	28518.13
707.554	28526.04
707.899	28436.33
708.243	28352.49
708.588	28293.28
708.932	28067.3
709.277	28080.41
709.621	28024.81
709.966	27775.33
710.31	27871.82
710.654	27661.43
710.998	27706.4
711.342	27707.99
711.687	27475.22
712.031	27361.33
712.375	27331.5
712.719	27390.93
713.063	27273.65
713.407	27371.95
713.75	27339.86
714.094	27114.33
714.438	27038.4
714.782	27028.91
715.125	26870.95
715.469	27140.32
715.812	26900.32
716.156	26846.77
716.499	26793.21
716.843	26852.19
717.186	26728.8
717.53	26892.41
717.873	26808.57
718.216	26577.39
718.559	26667.11
718.902	26492.2
719.246	26553.89
719.589	26433.44
719.932	26430.96
720.275	26400.45
720.617	26502.82
720.96	26512.54
721.303	26451.3
721.646	26361.58
721.989	26223.96
722.331	26413.33
722.674	26270.28
723.016	26358.87
723.359	26302.37
723.701	26337.17
724.044	26216.73
724.386	26174.47
724.729	26248.82
725.071	26215.14
725.413	26226.44
725.755	26157.97
726.097	26038.43
726.439	26074.36
726.782	25947.35
727.124	26240.23
727.465	26085.43
727.807	26005.88
728.149	26086.79
728.491	25949.84
728.833	26124.75
729.175	26074.58
729.516	26063.74
729.858	26160.23
730.199	26175.15
730.541	26109.84
730.882	26061.93
731.224	26252.43
731.565	26217.86
731.906	26176.05
732.248	26347.57
732.589	26239.1
732.93	26078.42
733.271	26194.13
733.612	26270.51
733.953	26398.64
734.294	26188.7
734.635	26214.69
734.976	26391.86
735.317	26303.28
735.658	26329.94
735.999	26263.28
736.339	26477.96
736.68	26504.63
737.021	26448.13
737.361	26384.18
737.702	26640.44
738.042	26502.82
738.383	26644.96
738.723	26797.05
739.063	26507.34
739.404	26786.43
739.744	26799.99
740.084	26792.53
740.424	26839.53
740.764	26870.95
741.104	27025.52
741.444	26969.47
741.784	27040.21
742.124	27226.19
742.464	27335.34
742.804	27439.07
743.143	27330.37
743.483	27562.91
743.823	27387.99
744.162	27486.52
744.502	27644.94
744.841	27757.25
745.181	27930.81
745.52	27821.2
745.86	28048.09
746.199	28154.53
746.538	28396.1
746.877	28446.27
747.216	28493.95
747.556	28589.54
747.895	28763.33
748.234	28852.59
748.573	29017.33
748.911	28952.25
749.25	29183.65
749.589	29210.55
749.928	29476.98
750.267	29692.11
750.605	29744.54
750.944	29901.37
751.283	30114.48
751.621	30216.85
751.96	30283.74
752.298	30435.82
752.636	30757.17
752.975	30751.75
753.313	30872.65
753.651	31264.73
753.989	31256.14
754.327	31461.79
754.666	31501.56
755.004	31791.27
755.342	31904.03
