Data from 7737_FLMS001491_003.txt Node
Date: Thu Apr 19 15:41:04 BST 2018
User: hsy
Spectrometer: FLMS00149
Trigger mode: 0
Integration Time (sec): 1.000000E-2
Scans to average: 10
Electric dark correction enabled: true
Nonlinearity correction enabled: false
Boxcar width: 0
XAxis mode: Wavelengths
Number of Pixels in Spectrum: 2048
>>>>>Begin Spectral Data<<<<<
341.393	-13.95
341.776	-13.95
342.16	-13.95
342.543	-55.76
342.927	-84.01
343.31	-56.89
343.693	-40.39
344.077	-81.98
344.46	-62.54
344.843	-39.49
345.226	-39.49
345.61	-22.09
345.993	-26.61
346.376	-11.47
346.759	4.8
347.142	12.03
347.525	40.28
347.908	52.26
348.291	64.24
348.674	95.65
349.057	111.69
349.44	141.75
349.823	159.15
350.206	166.38
350.588	221.75
350.971	248.19
351.354	266.94
351.737	244.57
352.119	289.09
352.502	306.04
352.884	292.93
353.267	318.92
353.65	345.13
354.032	334.96
354.414	338.13
354.797	340.16
355.179	339.48
355.562	354.85
355.944	347.17
356.326	374.51
356.709	354.4
357.091	379.26
357.473	406.37
357.855	358.01
358.238	390.55
358.62	373.15
359.002	399.82
359.384	387.16
359.766	394.17
360.148	397.33
360.53	365.24
360.912	379.26
361.294	370.89
361.676	373.15
362.057	370.67
362.439	379.48
362.821	361.18
363.203	365.92
363.584	369.54
363.966	363.21
364.348	382.42
364.729	364.34
365.111	371.8
365.493	385.81
365.874	373.83
366.256	366.37
366.637	363.21
367.019	367.5
367.4	351.23
367.781	370.22
368.163	341.29
368.544	358.92
368.925	362.08
369.306	353.72
369.688	376.09
370.069	373.83
370.45	360.95
370.831	384.91
371.212	362.53
371.593	365.24
371.974	374.06
372.355	373.38
372.736	383.78
373.117	405.47
373.498	377.67
373.879	384.68
374.26	381.74
374.641	367.73
375.021	376.32
375.402	379.93
375.783	386.49
376.163	404.57
376.544	367.73
376.925	387.16
377.305	400.72
377.686	396.43
378.066	387.16
378.447	398.92
378.827	403.89
379.208	427.62
379.588	402.08
379.968	394.62
380.349	387.16
380.729	421.51
381.109	408.41
381.489	421.29
381.87	411.35
382.25	412.93
382.63	410.89
383.01	440.95
383.39	439.37
383.77	424.68
384.15	433.94
384.53	446.15
384.91	435.98
385.29	452.47
385.67	441.63
386.049	443.43
386.429	454.06
386.809	466.71
387.189	460.61
387.568	469.65
387.948	461.29
388.328	442.08
388.707	478.69
389.087	477.11
389.466	467.84
389.846	472.81
390.225	482.76
390.605	497.44
390.984	484.34
391.363	486.82
391.743	494.51
392.122	489.54
392.501	492.7
392.881	496.54
393.26	525.47
393.639	504.68
394.018	523.66
394.397	522.08
394.776	525.69
395.155	516.65
395.534	525.47
395.913	518.46
396.292	543.55
396.671	537.22
397.05	543.09
397.429	535.41
397.808	541.29
398.186	546.71
398.565	543.77
398.944	526.6
399.323	560.04
399.701	567.95
400.08	551
400.458	566.37
400.837	567.5
401.215	568.18
401.594	598.01
401.972	588.06
402.351	589.65
402.729	598.46
403.107	599.81
403.486	603.88
403.864	609.31
404.242	600.49
404.62	604.79
404.999	619.02
405.377	633.26
405.755	626.25
406.133	613.6
406.511	644.79
406.889	636.88
407.267	666.25
407.645	644.56
408.023	664.45
408.401	662.86
408.779	684.56
409.156	697.21
409.534	698.12
409.912	696.31
410.29	746.25
410.667	717.78
411.045	704.9
411.422	708.96
411.8	702.41
412.178	713.94
412.555	742.18
412.933	755.06
413.31	740.83
413.687	744.9
414.065	795.06
414.442	785.8
414.819	785.57
415.197	808.17
415.574	806.36
415.951	806.81
416.328	814.27
416.705	827.61
417.082	820.37
417.46	826.7
417.837	815.63
418.214	873.03
418.591	825.35
418.967	878.68
419.344	836.87
419.721	869.64
420.098	868.51
420.475	882.52
420.852	883.65
421.228	914.83
421.605	887.72
421.982	907.38
422.358	929.3
422.735	916.64
423.111	914.16
423.488	951.67
423.864	943.76
424.241	958.9
424.617	951.9
424.994	967.49
425.37	967.04
425.746	992.57
426.123	982.63
426.499	983.53
426.875	995.51
427.251	1003.87
427.627	1040.26
428.003	1049.75
428.379	1060.82
428.756	1060.59
429.132	1076.41
429.507	1074.83
429.883	1075.28
430.259	1120.03
430.635	1129.29
431.011	1120.25
431.387	1133.36
431.763	1130.87
432.138	1140.59
432.514	1184.88
432.89	1167.03
433.265	1209.06
433.641	1196.18
434.016	1206.58
434.392	1214.94
434.767	1270.53
435.143	1245.22
435.518	1265.33
435.894	1270.08
436.269	1279.8
436.644	1303.75
437.02	1325.45
437.395	1312.79
437.77	1338.55
438.145	1363.64
438.52	1356.86
438.895	1355.05
439.271	1375.39
439.646	1410.19
440.021	1439.11
440.395	1438.89
440.77	1431.21
441.145	1414.03
441.52	1463.97
441.895	1427.14
442.27	1455.84
442.645	1491.77
443.019	1466.23
443.394	1493.35
443.769	1490.64
444.143	1487.25
444.518	1520.47
444.892	1511.2
445.267	1512.79
445.641	1535.16
446.016	1545.1
446.39	1564.76
446.764	1576.06
447.139	1563.86
447.513	1600.69
447.887	1605.21
448.262	1607.02
448.636	1594.14
449.01	1617.64
449.384	1614.48
449.758	1646.57
450.132	1700.12
450.506	1699.45
450.88	1691.31
451.254	1677.3
451.628	1687.92
452.002	1704.87
452.376	1762.27
452.75	1765.21
453.123	1776.28
453.497	1815.15
453.871	1812.89
454.244	1856.5
454.618	1884.07
454.992	1878.88
455.365	1894.24
455.739	1958.88
456.112	1954.36
456.486	1977.86
456.859	2008.14
457.232	2025.31
457.606	2033.45
457.979	2060.34
458.352	2080
458.725	2125.42
459.099	2144.41
459.472	2156.84
459.845	2191.64
460.218	2209.49
460.591	2218.08
460.964	2256.49
461.337	2304.4
461.71	2334.68
462.083	2349.83
462.456	2370.62
462.829	2354.34
463.201	2424.63
463.574	2413.1
463.947	2468.24
464.32	2516.37
464.692	2530.84
465.065	2541.23
465.438	2581.01
465.81	2620.33
466.183	2636.37
466.555	2675.47
466.928	2696.48
467.3	2729.7
467.672	2724.73
468.045	2785.52
468.417	2805.18
468.789	2774.67
469.161	2872.3
469.534	2900.09
469.906	2963.82
470.278	2974.44
470.65	3028.23
471.022	3060.32
471.394	3093.31
471.766	3148.22
472.138	3193.42
472.51	3229.12
472.882	3296.24
473.253	3308.44
473.625	3383.7
473.997	3413.53
474.369	3453.07
474.74	3479.96
475.112	3591.83
475.484	3595.44
475.855	3731.71
476.227	3714.99
476.598	3764.7
476.97	3877.92
477.341	3976.22
477.713	3978.93
478.084	4021.19
478.455	4185.48
478.827	4172.6
479.198	4302.77
479.569	4343.67
479.94	4408.53
480.311	4502.99
480.682	4587.96
481.053	4684.23
481.424	4754.28
481.795	4835.41
482.166	4914.73
482.537	4963.77
482.908	5137.77
483.279	5227.04
483.65	5299.58
484.021	5429.74
484.391	5468.39
484.762	5568.72
485.133	5663.18
485.503	5753.35
485.874	5895.27
486.244	5964.87
486.615	6135.71
486.985	6211.87
487.356	6409.15
487.726	6443.05
488.097	6608.47
488.467	6659.54
488.837	6825.19
489.207	6951.96
489.578	7130.49
489.948	7221.56
490.318	7378.17
490.688	7489.58
491.058	7687.31
491.428	7893.86
491.798	7906.97
492.168	8232.38
492.538	8279.39
492.908	8431.93
493.278	8674.63
493.648	8743.78
494.017	8951.23
494.387	9072.36
494.757	9264.22
495.126	9420.37
495.496	9621.27
495.866	9818.78
496.235	9956.86
496.605	10191.65
496.974	10290.86
497.344	10487.69
497.713	10652.66
498.082	10817.63
498.452	10985.3
498.821	11278.86
499.19	11402.24
499.559	11677.26
499.928	11884.94
500.298	11982.34
500.667	12270.24
501.036	12334.65
501.405	12647.86
501.774	12783.9
502.143	12964.46
502.512	13200.84
502.88	13466.37
503.249	13632.92
503.618	13879.92
503.987	14077.65
504.356	14368.72
504.724	14540.92
505.093	14659.11
505.462	14956.95
505.83	15162.82
506.199	15480.33
506.567	15743.15
506.936	15782.69
507.304	16105.85
507.672	16365.95
508.041	16506.52
508.409	16730.46
508.777	17053.39
509.145	17255.87
509.514	17384.01
509.882	17711.23
510.25	17923.65
510.618	18140.6
510.986	18299.91
511.354	18500.59
511.722	18815.83
512.09	19057.63
512.458	19038.43
512.826	19438.19
513.193	19502.82
513.561	19668.69
513.929	20026.87
514.297	20144.39
514.664	20323.59
515.032	20540.08
515.4	20781.66
515.767	20936.68
516.135	21093.74
516.502	20999.05
516.869	21399.95
517.237	21681.52
517.604	21571.69
517.972	21923.1
518.339	22132.81
518.706	22158.8
519.073	22336.64
519.44	22507.94
519.808	22865.67
520.175	22936.4
520.542	23148.15
520.909	23406.67
521.276	23416.16
521.643	23776.61
522.009	23814.12
522.376	23967.79
522.743	24099.99
523.11	24480.77
523.477	24707.43
523.843	24795.79
524.21	25149
524.577	25205.5
524.943	25428.77
525.31	25504.02
525.676	25752.83
526.043	25898.58
526.409	25938.81
526.776	26292.47
527.142	26344.9
527.508	26538.79
527.874	26688.85
528.241	26900.82
528.607	26878.9
528.973	27235.72
529.339	27157.76
529.705	27487.24
530.071	27616.51
530.437	27804.07
530.803	27895.82
531.169	28018.08
531.535	27988.47
531.901	28143.95
532.267	28286.77
532.632	28399.99
532.998	28502.36
533.364	28666.42
533.73	28648.12
534.095	28741.9
534.461	28837.94
534.826	28893.53
535.192	29010.37
535.557	29105.28
535.923	29082.91
536.288	29270.02
536.653	29159.06
537.019	29240.64
537.384	29334.88
537.749	29369
538.114	29321.77
538.479	29347.31
538.845	29417.36
539.21	29357.02
539.575	29520.86
539.94	29547.98
540.305	29633.63
540.67	29528.32
541.034	29665.04
541.399	29573.29
541.764	29639.73
542.129	29789.33
542.494	29804.92
542.858	29838.59
543.223	29581.88
543.587	29812.15
543.952	29720.18
544.316	29893.06
544.681	29747.75
545.045	29763.12
545.41	29882.21
545.774	29831.59
546.138	29658.94
546.503	29813.96
546.867	29800.18
547.231	29952.49
547.595	29971.02
547.959	29865.71
548.324	29817.8
548.688	29912.49
549.052	29928.54
549.416	29841.08
549.779	29920.63
550.143	29904.13
550.507	30052.6
550.871	30074.52
551.235	29991.81
551.599	30185.25
551.962	30156.33
552.326	30141.64
552.689	30205.82
553.053	30029.32
553.417	30197.91
553.78	30293.95
554.143	30244.23
554.507	30282.42
554.87	30477.45
555.234	30458.46
555.597	30251.46
555.96	30206.04
556.323	30471.35
556.686	30489.2
557.05	30445.13
557.413	30547.05
557.776	30404.91
558.139	30799.47
558.502	30648.52
558.865	30709.31
559.228	30832.92
559.59	30824.56
559.953	30893.93
560.316	31065.45
560.679	31006.25
561.041	31058.9
561.404	31233.13
561.767	31401.49
562.129	31256.64
562.492	31459.34
562.854	31537.08
563.217	31395.16
563.579	31676.51
563.941	31658.43
564.304	31771.42
564.666	32009.38
565.028	31937.07
565.39	31971.65
565.753	32221.58
566.115	32108.36
566.477	32318.75
566.839	32402.37
567.201	32543.61
567.563	32451.63
567.925	32683.94
568.287	32683.49
568.648	32650.72
569.01	32896.14
569.372	32924.61
569.734	32977.72
570.095	33062.69
570.457	33239.41
570.819	33104.95
571.18	33199.64
571.542	33298.16
571.903	33413.42
572.265	33509.68
572.626	33612.28
572.987	33534.54
573.349	33758.94
573.71	33753.75
574.071	33945.6
574.432	34078.03
574.794	34224.47
575.155	34112.38
575.516	34108.31
575.877	34186.95
576.238	34199.38
576.599	34203.45
576.96	34274.41
577.32	34277.12
577.681	34273.96
578.042	34384.69
578.403	34329.55
578.763	34244.58
579.124	34437.34
579.485	34571.58
579.845	34460.17
580.206	34331.13
580.566	34392.15
580.927	34349.66
581.287	34409.55
581.648	34480.73
582.008	34470.11
582.368	34472.14
582.728	34506.72
583.089	34442.77
583.449	34451.35
583.809	34371.36
584.169	34574.06
584.529	34301.53
584.889	34537.45
585.249	34193.28
585.609	34121.87
585.969	34352.37
586.329	34176.56
586.688	34196.9
587.048	34119.39
587.408	34071.93
587.768	34123.23
588.127	34114.64
588.487	34020.63
588.846	34124.81
589.206	33767.76
589.565	33983.12
589.925	34111.25
590.284	33948.54
590.643	34013.63
591.003	33916.45
591.362	33976.34
591.721	33857.25
592.08	33873.52
592.44	33977.92
592.799	33785.83
593.158	33705.38
593.517	33600.53
593.876	33812.05
594.235	33655.44
594.593	33614.31
594.952	33647.99
595.311	33601.43
595.67	33669
596.029	33824.7
596.387	33747.42
596.746	33892.95
597.104	33642.11
597.463	33710.13
597.822	33906.74
598.18	33687.98
598.538	33711.26
598.897	33866.51
599.255	33658.38
599.613	33915.77
599.972	33685.72
600.33	33665.61
600.688	33702.9
601.046	33638.27
601.404	34053.17
601.762	33939.73
602.12	33796.68
602.478	33872.61
602.836	33900.41
603.194	33567.54
603.552	33758.04
603.91	33760.3
604.268	33771.6
604.625	33880.75
604.983	33964.59
605.341	33582.45
605.698	33925.49
606.056	33979.73
606.413	33868.09
606.771	33966.85
607.128	34073.74
607.485	33944.93
607.843	33932.95
608.2	34013.4
608.557	34174.3
608.914	34061.31
609.272	34101.31
609.629	34322.54
609.986	34315.09
610.343	34264.47
610.7	34486.61
611.057	34492.48
611.414	34337.68
611.771	34619.49
612.127	34537.45
612.484	34599.37
612.841	34793.04
613.198	34551.92
613.554	34586.49
613.911	34717.79
614.267	34864.45
614.624	34707.84
614.98	34685.92
615.337	35038.46
615.693	34951.23
616.05	34909.87
616.406	35140.38
616.762	35019.47
617.118	35077.55
617.475	35060.6
617.831	35167.49
618.187	35177.66
618.543	35227.38
618.899	35507.37
619.255	35372.46
619.611	35459.24
619.967	35412.91
620.323	35621.04
620.678	35220.6
621.034	35297.43
621.39	35351.9
621.746	35449.07
622.101	35718.44
622.457	35432.8
622.812	35587.82
623.168	35734.48
623.523	35734.26
623.879	35726.12
624.234	35515.96
624.589	35621.49
624.945	35694.71
625.3	35711.66
625.655	35730.64
626.01	35618.55
626.365	35796.4
626.72	35704.2
627.075	35651.77
627.43	35680.7
627.785	35761.15
628.14	35555.96
628.495	35655.39
628.85	35667.37
629.205	35604.54
629.559	35658.33
629.914	35630.76
630.269	35558.22
630.623	35393.7
630.978	35394.83
631.332	35579.01
631.687	35443.42
632.041	35314.38
632.396	35394.83
632.75	35432.35
633.104	35367.04
633.459	35146.25
633.813	35097.44
634.167	35081.62
634.521	35122.75
634.875	35188.74
635.229	35167.72
635.583	34828.75
635.937	34943.54
636.291	34958.46
636.645	34826.26
636.999	34725.92
637.352	34742.65
637.706	34615.42
638.06	34803.21
638.413	34641.41
638.767	34566.61
639.121	34724.34
639.474	34424.24
639.828	34541.3
640.181	34497.23
640.534	34485.03
640.888	34342.2
641.241	34262.43
641.594	34300.85
641.947	34450.68
642.301	34149.44
642.654	34269.66
643.007	34152.38
643.36	34249.1
643.713	34236.9
644.066	34386.72
644.419	34203.9
644.771	33701.77
645.124	33617.25
645.477	33482.11
645.83	33274.44
646.182	33399.18
646.535	33321.89
646.888	33355.56
647.24	33223.59
647.593	33494.99
647.945	33442.34
648.298	33343.81
648.65	33122.35
649.002	32890.94
649.355	32800.55
649.707	32643.49
650.059	32618.18
650.411	33277.15
650.763	33407.31
651.115	33972.5
651.467	33704.03
651.819	33930.01
652.171	33684.37
652.523	33710.58
652.875	33630.36
653.227	33587.2
653.578	33803.91
653.93	33745.61
654.282	33680.98
654.633	33479.85
654.985	33640.75
655.337	33684.82
655.688	33777.93
656.039	33824.03
656.391	33523.24
656.742	33527.08
657.094	33416.35
657.445	33690.47
657.796	33716.23
658.147	33707.64
658.498	33692.05
658.849	33924.59
659.2	33791.26
659.551	33642.56
659.902	33939.96
660.253	33672.84
660.604	33899.96
660.955	33796.46
661.306	33988.77
661.656	33706.97
662.007	33748.32
662.358	33833.52
662.708	33862.44
663.059	33753.75
663.409	33640.75
663.76	33836.45
664.11	34094.08
664.461	34069.44
664.811	33980.86
665.161	33957.81
665.511	33876.68
665.862	34066.51
666.212	34034.87
666.562	34176.56
666.912	33988.54
667.262	33917.36
667.612	33928.43
667.962	33980.41
668.312	33907.87
668.662	34076.9
669.011	34050.46
669.361	33888.66
669.711	33901.54
670.06	33902.89
670.41	33973.63
670.76	33895.44
671.109	34014.53
671.459	33899.73
671.808	33965.49
672.157	34032.16
672.507	33823.8
672.856	33877.58
673.205	33911.03
673.554	33933.18
673.904	33739.28
674.253	34163.68
674.602	33726.18
674.951	33429.91
675.3	33217.04
675.649	33773.41
675.998	33655.44
676.346	33751.49
676.695	33734.54
677.044	33612.73
677.393	33677.59
677.741	33747.87
678.09	33529.8
678.438	33432.85
678.787	33579.06
679.135	33447.76
679.484	33285.28
679.832	33325.51
680.181	33257.26
680.529	33264.72
680.877	33237.37
681.225	33222.46
681.573	33343.13
681.922	33111.73
682.27	33065.18
682.618	33037.83
682.966	32984.95
683.314	32880.55
683.661	32957.16
684.009	32724.17
684.357	32758.29
684.705	32619.76
685.053	32529.82
685.4	32402.82
685.748	32294.35
686.095	32414.57
686.443	32100.91
686.79	32181.36
687.138	32274.46
687.485	32206.89
687.832	32016.84
688.18	31866.34
688.527	31877.41
688.874	31738.21
689.221	31687.81
689.568	31457.99
689.915	31508.15
690.262	31449.17
690.609	31353.81
690.956	31190.2
691.303	31129.18
691.65	31068.39
691.997	31032.46
692.344	30935.29
692.69	30715.86
693.037	30768.06
693.383	30413.95
693.73	30560.38
694.077	30293.72
694.423	30300.05
694.769	30023.9
695.116	30187.29
695.462	30000.4
695.808	30037.91
696.155	29901.42
696.501	29583.46
696.847	29576.91
697.193	29303.92
697.539	29354.99
697.885	29166.97
698.231	29009.46
698.577	29031.16
698.923	29044.94
699.269	28616.25
699.614	28631.85
699.96	28424.85
700.306	28534.67
700.651	28359.76
700.997	28223.95
701.342	28117.51
701.688	28137.17
702.033	27943.95
702.379	27931.75
702.724	27781.02
703.069	27869.83
703.415	27516.4
703.76	27449.28
704.105	27340.81
704.45	27398.43
704.795	27214.93
705.14	27043.41
705.485	27075.28
705.83	26839.58
706.175	26926.81
706.52	26666.25
706.865	26566.82
707.209	26656.53
707.554	26497.21
707.899	26374.5
708.243	26316.88
708.588	26308.97
708.932	26096.32
709.277	26161.18
709.621	26043.67
709.966	25821.98
710.31	25898.81
710.654	25698.59
710.998	25757.8
711.342	25753.73
711.687	25555.54
712.031	25511.48
712.375	25512.15
712.719	25447.75
713.063	25376.79
713.407	25516.22
713.75	25260.64
714.094	25210.02
714.438	25075.1
714.782	25242.56
715.125	25125.95
715.469	25163.24
715.812	25024.03
716.156	24984.26
716.499	24925.05
716.843	24927.31
717.186	24792.85
717.53	25018.38
717.873	24927.76
718.216	24815.22
718.559	24827.2
718.902	24644.61
719.246	24713.53
719.589	24574.1
719.932	24522.8
720.275	24686.41
720.617	24620.65
720.96	24605.74
721.303	24604.38
721.646	24567.32
721.989	24480.09
722.331	24640.09
722.674	24460.2
723.016	24523.48
723.359	24268.8
723.701	24441.9
724.044	24413.2
724.386	24377.49
724.729	24457.27
725.071	24466.31
725.413	24431.73
725.755	24300.89
726.097	24300.21
726.439	24188.8
726.782	24299.76
727.124	24459.75
727.465	24388.12
727.807	24224.28
728.149	24354.44
728.491	24234
728.833	24236.26
729.175	24288.01
729.516	24271.28
729.858	24414.1
730.199	24442.58
730.541	24363.48
730.882	24305.41
731.224	24385.4
731.565	24306.08
731.906	24421.11
732.248	24370.26
732.589	24403.03
732.93	24412.75
733.271	24417.27
733.612	24375.91
733.953	24505.63
734.294	24457.27
734.635	24270.38
734.976	24480.99
735.317	24508.56
735.658	24505.85
735.999	24457.04
736.339	24584.27
736.68	24565.06
737.021	24640.76
737.361	24670.14
737.702	24839.4
738.042	24741.33
738.383	24712.63
738.723	24855
739.063	24905.39
739.404	24886.41
739.744	24806.18
740.084	24886.18
740.424	25031.71
740.764	25067.19
741.104	25304.02
741.444	25225.16
741.784	25229.22
742.124	25304.7
742.464	25410.91
742.804	25408.65
743.143	25614.07
743.483	25641.64
743.823	25768.42
744.162	25717.57
744.502	25709.66
744.841	25938.58
745.181	26170.44
745.52	26014.74
745.86	26184.45
746.199	26334.73
746.538	26417.67
746.877	26651.11
747.216	26746.25
747.556	26815.62
747.895	26981.95
748.234	27005.45
748.573	27087.71
748.911	27156.63
749.25	27388.26
749.589	27460.13
749.928	27650.18
750.267	27768.59
750.605	27901.7
750.944	27977.17
751.283	28156.38
751.621	28411.29
751.96	28399.76
752.298	28609.93
752.636	28866.87
752.975	28850.15
753.313	29001.1
753.651	29332.17
753.989	29364.26
754.327	29527.87
