Data from 7737_FLMS001491_008.txt Node
Date: Thu Apr 19 15:41:18 BST 2018
User: hsy
Spectrometer: FLMS00149
Trigger mode: 0
Integration Time (sec): 1.000000E-2
Scans to average: 10
Electric dark correction enabled: true
Nonlinearity correction enabled: false
Boxcar width: 0
XAxis mode: Wavelengths
Number of Pixels in Spectrum: 2048
>>>>>Begin Spectral Data<<<<<
341.393	-26.13
341.776	-26.13
342.16	-26.13
342.543	-61.38
342.927	-72.23
343.31	-81.95
343.693	-69.97
344.077	-66.35
344.46	-70.2
344.843	-53.47
345.226	-57.54
345.61	-25.68
345.993	-12.34
346.376	-0.59
346.759	13.19
347.142	29.69
347.525	57.71
347.908	56.13
348.291	78.5
348.674	95
349.057	107.88
349.44	135
349.823	142
350.206	170.93
350.588	214.32
350.971	234.88
351.354	252.96
351.737	269.91
352.119	276.91
352.502	285.95
352.884	283.24
353.267	317.82
353.65	309.23
354.032	314.65
354.414	361.88
354.797	351.49
355.179	351.04
355.562	369.11
355.944	362.34
356.326	351.04
356.709	360.53
357.091	353.97
357.473	366.18
357.855	369.57
358.238	377.25
358.62	367.08
359.002	394.65
359.384	374.76
359.766	398.27
360.148	369.11
360.53	354.2
360.912	355.56
361.294	390.13
361.676	387.87
362.057	365.72
362.439	388.32
362.821	368.89
363.203	361.21
363.584	356.69
363.966	347.42
364.348	382.22
364.729	367.31
365.111	360.98
365.493	353.52
365.874	372.5
366.256	363.24
366.637	368.89
367.019	365.05
367.4	368.44
367.781	382.45
368.163	360.53
368.544	380.19
368.925	353.07
369.306	381.54
369.688	371.15
370.069	363.01
370.45	353.52
370.831	368.21
371.212	376.8
371.593	336.12
371.974	357.36
372.355	386.97
372.736	371.15
373.117	384.71
373.498	375.44
373.879	375.22
374.26	354.88
374.641	361.88
375.021	385.39
375.402	386.97
375.783	390.58
376.163	399.4
376.544	400.75
376.925	392.62
377.305	393.97
377.686	392.84
378.066	387.65
378.447	421.54
378.827	408.44
379.208	396.01
379.588	415.44
379.968	416.34
380.349	403.01
380.729	400.53
381.109	421.77
381.489	412.73
381.87	414.54
382.25	424.25
382.63	405.72
383.01	422.9
383.39	427.64
383.77	431.49
384.15	422.67
384.53	402.11
384.91	454.31
385.29	438.94
385.67	437.36
386.049	446.17
386.429	447.3
386.809	447.76
387.189	440.3
387.568	438.94
387.948	466.97
388.328	464.25
388.707	461.09
389.087	466.74
389.466	469.45
389.846	456.12
390.225	469.45
390.605	453.41
390.984	473.29
391.363	462.45
391.743	471.48
392.122	495.66
392.501	474.2
392.881	497.25
393.26	496.34
393.639	492.95
394.018	482.11
394.397	518.72
394.776	487.76
395.155	527.3
395.534	506.06
395.913	513.52
396.292	541.99
396.671	521.88
397.05	525.04
397.429	518.04
397.808	519.39
398.186	539.05
398.565	539.05
398.944	550.13
399.323	536.34
399.701	524.82
400.08	569.34
400.458	528.43
400.837	572.95
401.215	567.53
401.594	554.19
401.972	557.36
402.351	561.43
402.729	561.43
403.107	589
403.486	581.54
403.864	588.32
404.242	595.1
404.62	576.79
404.999	611.82
405.377	600.75
405.755	620.86
406.133	597.13
406.511	614.53
406.889	630.12
407.267	627.64
407.645	633.51
408.023	639.16
408.401	646.85
408.779	658.15
409.156	651.37
409.534	661.54
409.912	690.01
410.29	672.16
410.667	687.07
411.045	695.89
411.422	707.64
411.8	717.35
412.178	725.49
412.555	712.38
412.933	741.76
413.31	740.63
413.687	744.92
414.065	747.18
414.442	740.86
414.819	754.87
415.197	788.31
415.574	773.85
415.951	792.15
416.328	784.02
416.705	818.59
417.082	765.71
417.46	788.09
417.837	806.39
418.214	807.3
418.591	826.5
418.967	841.64
419.344	823.34
419.721	832.15
420.098	845.94
420.475	848.42
420.852	813.17
421.228	874.41
421.605	858.82
421.982	877.58
422.358	892.49
422.735	895.43
423.111	886.16
423.488	884.81
423.864	915.99
424.241	909.44
424.617	931.13
424.994	948.99
425.37	932.49
425.746	920.51
426.123	927.29
426.499	965.71
426.875	960.29
427.251	972.04
427.627	1006.61
428.003	1002.54
428.379	1003.45
428.756	1014.3
429.132	1031.7
429.507	1037.57
429.883	1035.31
430.259	1047.74
430.635	1065.14
431.011	1063.79
431.387	1085.03
431.763	1137
432.138	1093.84
432.514	1120.96
432.89	1132.71
433.265	1132.03
433.641	1174.07
434.016	1148.53
434.392	1191.24
434.767	1206.83
435.143	1202.54
435.518	1201.64
435.894	1227.17
436.269	1235.76
436.644	1257
437.02	1242.76
437.395	1263.33
437.77	1296.77
438.145	1306.72
438.52	1306.27
438.895	1300.62
439.271	1329.99
439.646	1361.86
440.021	1373.83
440.395	1350.11
440.77	1350.56
441.145	1349.2
441.52	1379.03
441.895	1391.23
442.27	1380.61
442.645	1388.3
443.019	1417
443.394	1426.49
443.769	1456.09
444.143	1437.11
444.518	1454.06
444.892	1446.83
445.267	1443.21
445.641	1459.71
446.016	1468.75
446.39	1497.9
446.764	1518.01
447.139	1492.93
447.513	1490.22
447.887	1503.55
448.262	1535.64
448.636	1507.84
449.01	1538.8
449.384	1537.67
449.758	1544.68
450.132	1581.29
450.506	1592.81
450.88	1637.56
451.254	1626.03
451.628	1632.13
452.002	1631.45
452.376	1686.37
452.75	1692.92
453.123	1680.04
453.497	1696.31
453.871	1741.51
454.244	1765.01
454.618	1795.07
454.992	1804.11
455.365	1807.95
455.739	1856.08
456.112	1871.45
456.486	1858.11
456.859	1892.69
457.232	1915.74
457.606	1936.31
457.979	1983.31
458.352	2007.04
458.725	2002.52
459.099	2021.27
459.472	2050.43
459.845	2095.62
460.218	2103.53
460.591	2116.64
460.964	2124.77
461.337	2181.27
461.71	2213.59
462.083	2209.29
462.456	2214.49
462.829	2239.57
463.201	2306.46
463.574	2314.37
463.947	2323.41
464.32	2349.18
464.692	2365.45
465.065	2383.07
465.438	2416.52
465.81	2474.82
466.183	2442.05
466.555	2529.51
466.928	2550.07
467.3	2535.39
467.672	2616.29
468.045	2649.73
468.417	2660.13
468.789	2690.18
469.161	2685.66
469.534	2755.49
469.906	2761.14
470.278	2844.08
470.65	2834.81
471.022	2919.33
471.394	2994.13
471.766	3003.62
472.138	3042.72
472.51	3070.29
472.882	3137.4
473.253	3143.73
473.625	3223.73
473.997	3215.14
474.369	3255.14
474.74	3293.33
475.112	3394.8
475.484	3442.71
475.855	3501.69
476.227	3499.65
476.598	3617.84
476.97	3691.29
477.341	3745.07
477.713	3758.86
478.084	3820.32
478.455	3926.31
478.827	3952.52
479.198	4056.25
479.569	4112.29
479.94	4223.7
480.311	4250.59
480.682	4364.72
481.053	4459.4
481.424	4538.27
481.795	4611.94
482.166	4702.11
482.537	4728.55
482.908	4833.18
483.279	4908.88
483.65	5018.48
484.021	5126.96
484.391	5215.54
484.762	5285.82
485.133	5375.76
485.503	5460.05
485.874	5646.72
486.244	5719.26
486.615	5826.6
486.985	5950.21
487.356	6092.35
487.726	6166.7
488.097	6305.68
488.467	6374.38
488.837	6554.04
489.207	6644.43
489.578	6794.93
489.948	6939.79
490.318	7072.22
490.688	7191.08
491.058	7370.29
491.428	7497.74
491.798	7577.74
492.168	7835.58
492.538	7967.78
492.908	8127.33
493.278	8279.19
493.648	8397.38
494.017	8576.13
494.387	8767.54
494.757	8891.83
495.126	9029.45
495.496	9177.24
495.866	9334.98
496.235	9503.56
496.605	9748.3
496.974	9886.15
497.344	10111.46
497.713	10253.37
498.082	10426.48
498.452	10652.91
498.821	10841.83
499.19	10996.41
499.559	11226.46
499.928	11426.22
500.298	11592.1
500.667	11833.22
501.036	11975.14
501.405	12222.14
501.774	12389.36
502.143	12622.8
502.512	12741.44
502.88	13118.16
503.249	13204.48
503.618	13519.28
503.987	13703.23
504.356	13870.23
504.724	14045.37
505.093	14279.48
505.462	14473.15
505.83	14702.97
506.199	14989.52
506.567	15313.81
506.936	15455.72
507.304	15699.33
507.672	15900.91
508.041	16095.71
508.409	16304.51
508.777	16598.52
509.145	16841.22
509.514	17005.06
509.882	17211.84
510.25	17387.88
510.618	17592.62
510.986	17806.17
511.354	18083.45
511.722	18246.16
512.09	18488.64
512.458	18572.93
512.826	18906.03
513.193	19027.16
513.561	19265.34
513.929	19328.62
514.297	19636.4
514.664	19875.49
515.032	19980.12
515.4	20228.71
515.767	20416.05
516.135	20647
516.502	20481.13
516.869	20955.01
517.237	21115.91
517.604	21081.79
517.972	21476.81
518.339	21627.99
518.706	21699.63
519.073	21878.15
519.44	22064.82
519.808	22317.46
520.175	22361.3
520.542	22650.11
520.909	22764.46
521.276	22839.26
521.643	23149.08
522.009	23347.49
522.376	23435.63
522.743	23608.28
523.11	23934.37
523.477	24151.77
523.843	24218.43
524.21	24511.98
524.577	24765.08
524.943	24749.26
525.31	25004.17
525.676	25187.45
526.043	25358.97
526.409	25449.59
526.776	25836.02
527.142	25772.74
527.508	26010.7
527.874	26207.98
528.241	26230.58
528.607	26375.66
528.973	26655.43
529.339	26645.26
529.705	26954.18
530.071	27048.64
530.437	27140.16
530.803	27302.64
531.169	27311.91
531.535	27578.12
531.901	27599.59
532.267	27585.12
532.632	27838.67
532.998	27899.01
533.364	28061.95
533.73	28130.87
534.095	28236.86
534.461	28265.1
534.826	28395.5
535.192	28349.17
535.557	28586.45
535.923	28606.11
536.288	28680.69
536.653	28764.98
537.019	28656.73
537.384	28752.78
537.749	28743.96
538.114	28847.01
538.479	28765.2
538.845	28848.37
539.21	28699.9
539.575	29040.45
539.94	28982.6
540.305	29026.21
540.67	29012.66
541.034	29053.33
541.399	29003.39
541.764	29089.04
542.129	29200.22
542.494	29174.01
542.858	29185.31
543.223	29104.86
543.587	29244.74
543.952	29198.64
544.316	29333.55
544.681	29264.63
545.045	29297.62
545.41	29358.41
545.774	29320.9
546.138	29367.22
546.503	29400.89
546.867	29244.29
547.231	29294.23
547.595	29468.46
547.959	29478.86
548.324	29480.67
548.688	29522.92
549.052	29531.51
549.416	29296.04
549.779	29447.67
550.143	29464.39
550.507	29627.33
550.871	29552.98
551.235	29577.84
551.599	29733.99
551.962	29726.76
552.326	29787.1
552.689	29643.37
553.053	29525.86
553.417	29704.39
553.78	29922.46
554.143	29781.22
554.507	29838.62
554.87	30024.61
555.234	29993.87
555.597	29905.74
555.96	29941.67
556.323	29969.47
556.686	29915.23
557.05	30093.3
557.413	30103.7
557.776	30157.48
558.139	30293.53
558.502	30367.42
558.865	30314.09
559.228	30438.83
559.59	30354.31
559.953	30383.92
560.316	30666.17
560.679	30786.17
561.041	30689.9
561.404	30799.05
561.767	30944.36
562.129	30811.25
562.492	31051.25
562.854	31039.49
563.217	31092.6
563.579	31093.96
563.941	31257.57
564.304	31360.39
564.666	31410.56
565.028	31450.11
565.39	31392.93
565.753	31645.13
566.115	31544.34
566.477	31802.64
566.839	31820.72
567.201	32132.57
567.563	31989.07
567.925	32075.17
568.287	32196.98
568.648	32244.66
569.01	32329.4
569.372	32508.83
569.734	32462.73
570.095	32580.02
570.457	32786.79
570.819	32716.51
571.18	32631.09
571.542	32969.16
571.903	32970.07
572.265	32966
572.626	33054.58
572.987	33029.95
573.349	33180
573.71	33254.58
574.071	33247.12
574.432	33488.92
574.794	33689.59
575.155	33677.84
575.516	33519.2
575.877	33606.21
576.238	33612.76
576.599	33642.59
576.96	33592.87
577.32	33543.38
577.681	33692.31
578.042	33968.46
578.403	33783.83
578.763	33705.41
579.124	33668.13
579.485	33977.5
579.845	33929.81
580.206	33811.4
580.566	33781.57
580.927	33960.32
581.287	34070.6
581.648	33849.14
582.008	33937.72
582.368	33994.22
582.728	33983.82
583.089	33975.91
583.449	33960.55
583.809	33858.63
584.169	33916.26
584.529	33787.9
584.889	34032.18
585.249	33810.27
585.609	33668.58
585.969	33890.95
586.329	33741.8
586.688	33835.35
587.048	33742.47
587.408	33646.21
587.768	33683.72
588.127	33697.5
588.487	33518.3
588.846	33771.85
589.206	33511.97
589.565	33556.26
589.925	33633.32
590.284	33542.48
590.643	33427.68
591.003	33558.07
591.362	33683.27
591.721	33546.55
592.08	33463.84
592.44	33702.93
592.799	33532.08
593.158	33503.38
593.517	33410.51
593.876	33455.48
594.235	33318.53
594.593	33193.56
594.952	33336.16
595.311	33243.5
595.67	33340.68
596.029	33483.95
596.387	33688.92
596.746	33536.15
597.104	33254.35
597.463	33311.07
597.822	33416.16
598.18	33202.38
598.538	33251.19
598.897	33459.54
599.255	33243.5
599.613	33624.74
599.972	33275.14
600.33	33383.16
600.688	33263.62
601.046	33421.13
601.404	33642.82
601.762	33520.56
602.12	33490.5
602.478	33479.2
602.836	33395.59
603.194	33320.56
603.552	33337.06
603.91	33262.26
604.268	33413.9
604.625	33373.67
604.983	33408.25
605.341	33099.1
605.698	33524.63
606.056	33627.9
606.413	33478.07
606.771	33592.65
607.128	33528.92
607.485	33473.1
607.843	33602.59
608.2	33603.49
608.557	33780.21
608.914	33723.72
609.272	33738.86
609.629	33964.39
609.986	33911.51
610.343	33883.71
610.7	34047.55
611.057	34055.01
611.414	33820.66
611.771	34174.78
612.127	34073.77
612.484	34236.25
612.841	34303.14
613.198	33978.85
613.554	33942.47
613.911	34199.64
614.267	34367.54
614.624	34257.26
614.98	34292.74
615.337	34539.97
615.693	34462.68
616.05	34389.46
616.406	34680.75
616.762	34625.39
617.118	34584.03
617.475	34692.51
617.831	34818.6
618.187	34918.94
618.543	34839.17
618.899	35160.74
619.255	34939.28
619.611	34829.9
619.967	35042.78
620.323	35059.95
620.678	34952.61
621.034	35005.04
621.39	35019.95
621.746	35047.07
622.101	35377.91
622.457	35001.2
622.812	35199.84
623.168	35330.68
623.523	35295.88
623.879	35401.41
624.234	35284.58
624.589	35390.57
624.945	35171.14
625.3	35262.21
625.655	35402.54
626.01	35357.12
626.365	35314.86
626.72	35185.37
627.075	35159.16
627.43	35316.67
627.785	35224.24
628.14	35384.69
628.495	35288.65
628.85	35400.74
629.205	35344.69
629.559	35384.24
629.914	35183.57
630.269	35297.69
630.623	35127.07
630.978	35077.13
631.332	35280.74
631.687	35263.56
632.041	35131.59
632.396	35140.4
632.75	35053.17
633.104	35147.18
633.459	34890.01
633.813	34953.74
634.167	34819.51
634.521	34885.95
634.875	34840.52
635.229	34872.61
635.583	34610.02
635.937	34658.38
636.291	34648.89
636.645	34704.71
636.999	34480.08
637.352	34671.26
637.706	34422.23
638.06	34506.07
638.413	34383.14
638.767	34339.97
639.121	34320.54
639.474	34128.23
639.828	34206.64
640.181	34203.03
640.534	34240.54
640.888	34192.63
641.241	33890.04
641.594	33966.88
641.947	34153.99
642.301	33923.03
642.654	34028.12
643.007	33884.84
643.36	33877.61
643.713	33946.54
644.066	33978.17
644.419	33782.7
644.771	33423.39
645.124	33071.31
645.477	33093.23
645.83	33067.24
646.182	33064.98
646.535	32913.8
646.888	33135.03
647.24	32974.36
647.593	33368.47
647.945	33043.06
648.298	33011.65
648.65	32756.96
649.002	32605.78
649.355	32457.08
649.707	32318.33
650.059	32371.44
650.411	32967.81
650.763	33143.17
651.115	33704.96
651.467	33465.42
651.819	33521.46
652.171	33384.74
652.523	33333.9
652.875	33323.05
653.227	33150.85
653.578	33579.54
653.93	33425.87
654.282	33329.15
654.633	33377.96
654.985	33353.33
655.337	33457.96
655.688	33450.5
656.039	33593.33
656.391	33091.42
656.742	33258.42
657.094	33400.11
657.445	33439.66
657.796	33450.5
658.147	33328.25
658.498	33564.63
658.849	33464.97
659.2	33460.22
659.551	33280.34
659.902	33542.71
660.253	33507.23
660.604	33525.76
660.955	33438.3
661.306	33590.16
661.656	33496.15
662.007	33604.62
662.358	33557.85
662.708	33629.93
663.059	33557.39
663.409	33344.74
663.76	33666.32
664.11	33659.99
664.461	33716.03
664.811	33656.6
665.161	33677.39
665.511	33603.04
665.862	33735.02
666.212	33789.93
666.562	33839.87
666.912	33716.94
667.262	33535.25
667.612	33631.06
667.962	33679.88
668.312	33693.44
668.662	33830.83
669.011	33782.7
669.361	33726.66
669.711	33626.55
670.06	33709.03
670.41	33666.77
670.76	33637.62
671.109	33755.58
671.459	33503.84
671.808	33603.04
672.157	33709.93
672.507	33412.99
672.856	33393.11
673.205	33521.69
673.554	33550.39
673.904	33377.96
674.253	33743.15
674.602	33541.58
674.951	33063.17
675.3	32800.8
675.649	33525.3
675.998	33515.36
676.346	33508.13
676.695	33427.91
677.044	33176.16
677.393	33316.04
677.741	33470.17
678.09	33268.81
678.438	33222.26
678.787	33323.73
679.135	33325.76
679.484	33022.95
679.832	33118.99
680.181	32986.56
680.529	33003.06
680.877	32989.05
681.225	32922.83
681.573	33067.24
681.922	32810.75
682.27	32780.24
682.618	32640.58
682.966	32612.33
683.314	32624.09
683.661	32594.93
684.009	32424.77
684.357	32350.87
684.705	32190.88
685.053	32239.01
685.4	32116.75
685.748	32036.53
686.095	31931
686.443	31831.34
686.79	31778.01
687.138	31874.73
687.485	31840.38
687.832	31696.43
688.18	31665.47
688.527	31384.57
688.874	31513.15
689.221	31391.58
689.568	31245.82
689.915	31156.33
690.262	31243.33
690.609	31001.98
690.956	30942.55
691.303	30895.32
691.65	30752.95
691.997	30665.95
692.344	30413.97
692.69	30301.89
693.037	30494.42
693.383	30233.87
693.73	30285.84
694.077	30192.29
694.423	30173.08
694.769	29916.13
695.116	29900.99
695.462	29774.22
695.808	29658.29
696.155	29686.99
696.501	29432.53
696.847	29476.6
697.193	29086.55
697.539	29251.29
697.885	28907.12
698.231	28804.75
698.577	28837.52
698.923	28906.67
699.269	28523.4
699.614	28435.72
699.96	28315.5
700.306	28423.97
700.651	28260.13
700.997	28091.1
701.342	28083.87
701.688	27931.55
702.033	27775.63
702.379	27721.16
702.724	27569.53
703.069	27663.09
703.415	27353.94
703.76	27343.09
704.105	27240.27
704.45	27298.12
704.795	27017.68
705.14	26929.32
705.485	26876.44
705.83	26637.58
706.175	26790.34
706.52	26632.83
706.865	26492.5
707.209	26458.37
707.554	26271.71
707.899	26252.73
708.243	26050.93
708.588	26061.77
708.932	25833.53
709.277	26006.86
709.621	25769.12
709.966	25648.68
710.31	25704.95
710.654	25522.8
710.998	25550.15
711.342	25716.7
711.687	25404.61
712.031	25413.65
712.375	25187.45
712.719	25159.42
713.063	25183.83
713.407	25284.62
713.75	25132.98
714.094	25234.9
714.438	25069.03
714.782	25056.15
715.125	24939.32
715.469	25125.3
715.812	24859.09
716.156	24915.59
716.499	24776.38
716.843	24897.51
717.186	24699.55
717.53	24841.24
717.873	24844.86
718.216	24802.37
718.559	24715.59
718.902	24395.15
719.246	24493.9
719.589	24514.92
719.932	24373.91
720.275	24422.95
720.617	24479.89
720.96	24405.09
721.303	24442.83
721.646	24380.23
721.989	24358.09
722.331	24378.88
722.674	24388.37
723.016	24260.24
723.359	24293.91
723.701	24359.67
724.044	24257.75
724.386	24147.92
724.729	24315.15
725.071	24273.34
725.413	24341.59
725.755	24319.9
726.097	24249.16
726.439	24184.99
726.782	24159.45
727.124	24269.96
727.465	24223.4
727.807	24144.31
728.149	24151.31
728.491	24111.32
728.833	24242.84
729.175	24143.63
729.516	24092.33
729.858	24144.99
730.199	24254.14
730.541	24148.15
730.882	24115.83
731.224	24338.43
731.565	24159
731.906	24316.96
732.248	24449.61
732.589	24221.37
732.93	24167.58
733.271	24267.47
733.612	24342.04
733.953	24449.61
734.294	24296.62
734.635	24361.25
734.976	24435.83
735.317	24340.69
735.658	24489.38
735.999	24414.13
736.339	24467.46
736.68	24600.34
737.021	24550.63
737.361	24358.77
737.702	24735.71
738.042	24689.61
738.383	24709.49
738.723	24812.54
739.063	24704.75
739.404	24878.75
739.744	24816.38
740.084	24782.03
740.424	24892.99
740.764	24951.52
741.104	25196.94
741.444	24996.26
741.784	24992.42
742.124	25272.19
742.464	25329.14
742.804	25331.4
743.143	25344.5
743.483	25587.89
743.823	25395.12
744.162	25596.25
744.502	25713.98
744.841	25636.47
745.181	26088.89
745.52	25885.51
745.86	26046.18
746.199	26043.02
746.538	26316.68
746.877	26445.04
747.216	26525.49
747.556	26596.67
747.895	26790.79
748.234	26728.2
748.573	26949.21
748.911	27108.52
749.25	27225.58
749.589	27290.67
749.928	27491.34
750.267	27687.27
750.605	27737.89
750.944	27770.65
751.283	27952.12
751.621	28164.99
751.96	28097.65
752.298	28324.54
752.636	28471.43
752.975	28607.24
753.313	28772.21
753.651	29065.08
753.989	29097.85
754.327	29334
754.666	29334
755.004	29667.55
