Data from 7737_FLMS001491_001.txt Node
Date: Thu Apr 19 15:40:56 BST 2018
User: hsy
Spectrometer: FLMS00149
Trigger mode: 0
Integration Time (sec): 1.000000E-2
Scans to average: 10
Electric dark correction enabled: true
Nonlinearity correction enabled: false
Boxcar width: 0
XAxis mode: Wavelengths
Number of Pixels in Spectrum: 2048
>>>>>Begin Spectral Data<<<<<
341.393	-12.78
341.776	-12.78
342.16	-12.78
342.543	-70.63
342.927	-68.6
343.31	-65.89
343.693	-72.22
344.077	-79.45
344.46	-72.22
344.843	-59.79
345.226	-54.36
345.61	-25.66
345.993	-16.62
346.376	-2.61
346.759	9.14
347.142	38.06
347.525	48.69
347.908	59.53
348.291	72.41
348.674	99.53
349.057	121.45
349.44	130.04
349.823	164.16
350.206	168.46
350.588	228.34
350.971	267.21
351.354	259.08
351.737	257.49
352.119	293.65
352.502	299.3
352.884	319.19
353.267	323.48
353.65	319.41
354.032	348.11
354.414	327.1
354.797	342.46
355.179	360.32
355.562	358.96
355.944	379.07
356.326	350.6
356.709	386.53
357.091	382.69
357.473	410.03
357.855	367.32
358.238	405.96
358.62	373.42
359.002	395.79
359.384	381.56
359.766	389.47
360.148	399.41
360.53	381.33
360.912	387.89
361.294	374.1
361.676	372.07
362.057	356.93
362.439	388.34
362.821	366.19
363.203	377.04
363.584	358.96
363.966	370.94
364.348	382.91
364.729	360.09
365.111	363.03
365.493	361.22
365.874	357.38
366.256	373.2
366.637	375
367.019	352.18
367.4	365.74
367.781	375.68
368.163	388.11
368.544	382.01
368.925	365.06
369.306	384.5
369.688	372.52
370.069	380.88
370.45	381.33
370.831	393.08
371.212	396.47
371.593	379.07
371.974	371.61
372.355	386.76
372.736	384.72
373.117	380.43
373.498	386.3
373.879	378.39
374.26	364.38
374.641	373.2
375.021	385.4
375.402	387.66
375.783	396.7
376.163	395.79
376.544	411.61
376.925	376.59
377.305	389.47
377.686	391.95
378.066	396.02
378.447	418.62
378.827	404.61
379.208	433.31
379.588	401.67
379.968	429.92
380.349	429.69
380.729	417.04
381.109	439.64
381.489	432.4
381.87	431.73
382.25	419.52
382.63	404.38
383.01	437.15
383.39	428.34
383.77	402.57
384.15	447.09
384.53	465.62
384.91	427.66
385.29	451.39
385.67	454.78
386.049	472.63
386.429	453.87
386.809	473.53
387.189	458.39
387.568	470.37
387.948	486.19
388.328	482.8
388.707	480.54
389.087	475.57
389.466	495.68
389.846	490.48
390.225	492.97
390.605	497.03
390.984	497.71
391.363	493.19
391.743	510.14
392.122	514.44
392.501	523.93
392.881	523.25
393.26	516.47
393.639	506.07
394.018	520.76
394.397	521.44
394.776	549.91
395.155	544.94
395.534	537.71
395.913	555.34
396.292	551.95
396.671	557.37
397.05	540.42
397.429	574.32
397.808	541.78
398.186	573.64
398.565	570.71
398.944	550.59
399.323	581.33
399.701	580.2
400.08	580.87
400.458	583.59
400.837	578.61
401.215	588.56
401.594	596.47
401.972	608.67
402.351	608.22
402.729	594.89
403.107	617.48
403.486	619.52
403.864	602.57
404.242	616.58
404.62	638.95
404.999	645.28
405.377	634.66
405.755	633.08
406.133	674.21
406.511	648.9
406.889	661.78
407.267	666.52
407.645	701.55
408.023	699.29
408.401	686.18
408.779	714.66
409.156	702.23
409.534	690.25
409.912	724.37
410.29	718.05
410.667	737.03
411.045	748.33
411.422	738.84
411.8	753.53
412.178	748.55
412.555	780.19
412.933	783.36
413.31	793.07
413.687	782.45
414.065	810.93
414.442	816.8
414.819	813.41
415.197	827.42
415.574	832.17
415.951	844.14
416.328	829.46
416.705	838.72
417.082	834.88
417.46	893.41
417.837	842.56
418.214	868.55
418.591	871.94
418.967	862.22
419.344	893.18
419.721	896.8
420.098	894.76
420.475	899.28
420.852	900.19
421.228	941.09
421.605	922.33
421.982	941.09
422.358	971.82
422.735	953.07
423.111	965.72
423.488	965.72
423.864	975.89
424.241	973.18
424.617	990.13
424.994	987.87
425.37	989.23
425.746	1016.34
426.123	1011.82
426.499	1048.43
426.875	1030.81
427.251	1046.63
427.627	1057.92
428.003	1076.23
428.379	1100.18
428.756	1093.63
429.132	1113.97
429.507	1119.84
429.883	1141.31
430.259	1163.68
430.635	1158.49
431.011	1189.22
431.387	1189.9
431.763	1201.65
432.138	1198.94
432.514	1203.46
432.89	1226.73
433.265	1265.83
433.641	1247.75
434.016	1282.78
434.392	1294.98
434.767	1302.66
435.143	1324.36
435.518	1314.87
435.894	1337.01
436.269	1330.46
436.644	1367.97
437.02	1404.36
437.395	1372.49
437.77	1405.94
438.145	1385.6
438.52	1435.54
438.895	1438.03
439.271	1427.86
439.646	1455.43
440.021	1460.63
440.395	1483.68
440.77	1475.31
441.145	1485.48
441.52	1520.51
441.895	1493.39
442.27	1523.22
442.645	1532.94
443.019	1525.26
443.394	1552.6
443.769	1533.62
444.143	1564.35
444.518	1558.7
444.892	1578.59
445.267	1608.64
445.641	1581.98
446.016	1603.22
446.39	1617.46
446.764	1642.77
447.139	1605.48
447.513	1654.07
447.887	1642.99
448.262	1661.98
448.636	1679.38
449.01	1706.72
449.384	1717.57
449.758	1712.82
450.132	1751.92
450.506	1763.44
450.88	1762.09
451.254	1754.85
451.628	1796.21
452.002	1833.95
452.376	1852.03
452.75	1852.93
453.123	1845.7
453.497	1892.48
453.871	1896.77
454.244	1946.49
454.618	1969.09
454.992	1979.03
455.365	1974.74
455.739	2043.43
456.112	2030.1
456.486	2058.35
456.859	2095.41
457.232	2139.25
457.606	2165.92
457.979	2170.44
458.352	2228.29
458.725	2233.94
459.099	2256.31
459.472	2294.5
459.845	2325.24
460.218	2339.92
460.591	2380.15
460.964	2391.67
461.337	2400.04
461.71	2441.84
462.083	2492.69
462.456	2494.5
462.829	2519.13
463.201	2564.1
463.574	2541.73
463.947	2604.1
464.32	2606.58
464.692	2692.46
465.065	2692.01
465.438	2695.4
465.81	2730.87
466.183	2752.12
466.555	2814.94
466.928	2826.92
467.3	2881.38
467.672	2870.31
468.045	2962.28
468.417	2952.34
468.789	2971.55
469.161	3029.17
469.534	3063.07
469.906	3103.07
470.278	3147.36
470.65	3192.78
471.022	3252.89
471.394	3286.79
471.766	3352.55
472.138	3388.94
472.51	3426.9
472.882	3530.63
473.253	3518.42
473.625	3552.32
473.997	3643.84
474.369	3666.9
474.74	3702.83
475.112	3823.05
475.484	3849.04
475.855	3875.93
476.227	3984.85
476.598	4055.13
476.97	4096.26
477.341	4163.61
477.713	4201.12
478.084	4278.86
478.455	4400.21
478.827	4442.02
479.198	4552.52
479.569	4600.43
479.94	4675.91
480.311	4775.57
480.682	4876.35
481.053	5009.23
481.424	5053.75
481.795	5126.97
482.166	5206.97
482.537	5325.38
482.908	5399.28
483.279	5472.72
483.65	5624.81
484.021	5772.15
484.391	5858.02
484.762	5908.19
485.133	6017.79
485.503	6136.21
485.874	6248.07
486.244	6329.88
486.615	6502.3
486.985	6633.14
487.356	6690.32
487.726	6811.67
488.097	7009.86
488.467	7135.96
488.837	7246.24
489.207	7373.24
489.578	7595.15
489.948	7746.11
490.318	7856.84
490.688	7964.18
491.058	8142.94
491.428	8267.9
491.798	8358.07
492.168	8661.57
492.538	8783.37
492.908	8911.05
493.278	9150.82
493.648	9193.3
494.017	9388.78
494.387	9576.57
494.757	9728.66
495.126	9914.41
495.496	10065.6
495.866	10191.24
496.235	10431.24
496.605	10605.92
496.974	10757.1
497.344	11030.32
497.713	11221.05
498.082	11324.55
498.452	11559.12
498.821	11772.67
499.19	11931.54
499.559	12097.18
499.928	12363.39
500.298	12525.65
500.667	12761.12
501.036	12928.8
501.405	13138.51
501.774	13377.37
502.143	13612.85
502.512	13881.77
502.88	14056.9
503.249	14260.51
503.618	14542.99
503.987	14734.85
504.356	14865.92
504.724	15227.04
505.093	15332.58
505.462	15575.06
505.83	15856.86
506.199	16029.28
506.567	16373
506.936	16505.65
507.304	16869.71
507.672	16994.68
508.041	17216.82
508.409	17533.42
508.777	17798.95
509.145	18115.33
509.514	18251.37
509.882	18339.73
510.25	18643.45
510.618	18951.69
510.986	19060.16
511.354	19335.18
511.722	19708.06
512.09	19929.07
512.458	19938.78
512.826	20213.13
513.193	20460.8
513.561	20658.54
513.929	20818.76
514.297	21031.18
514.664	21284.74
515.032	21449.7
515.4	21738.51
515.767	21860.09
516.135	22042.68
516.502	22048.56
516.869	22428.21
517.237	22639.96
517.604	22576.91
517.972	23044.24
518.339	23128.3
518.706	23280.16
519.073	23374.4
519.44	23671.57
519.808	23858.23
520.175	24052.12
520.542	24226.58
520.909	24467.03
521.276	24473.81
521.643	24947.47
522.009	24827.92
522.376	25194.92
522.743	25408.47
523.11	25616.15
523.477	25873.77
523.843	25957.38
524.21	26303.14
524.577	26434.66
524.943	26557.59
525.31	26768.43
525.676	27031.7
526.043	27141.98
526.409	27252.04
526.776	27649.54
527.142	27654.29
527.508	27890.89
527.874	28072.13
528.241	28160.04
528.607	28244.33
528.973	28516.86
529.339	28587.82
529.705	28877.98
530.071	29016.51
530.437	29148.48
530.803	29322.27
531.169	29503.05
531.535	29367.91
531.901	29613.56
532.267	29678.41
532.632	29857.84
532.998	29894
533.364	29990.5
533.73	30165.63
534.095	30328.79
534.461	30348.68
534.826	30488.34
535.192	30384.61
535.557	30753.87
535.923	30636.13
536.288	30857.14
536.653	30961.54
537.019	30749.57
537.384	30757.48
537.749	30857.59
538.114	30932.84
538.479	30927.42
538.845	31037.93
539.21	31037.7
539.575	31218.49
539.94	31066.63
540.305	31255.32
540.67	31243.57
541.034	31306.17
541.399	31310.69
541.764	31342.1
542.129	31357.47
542.494	31416.45
542.858	31537.8
543.223	31371.7
543.587	31420.97
543.952	31387.75
544.316	31454.41
544.681	31411.48
545.045	31560.85
545.41	31726.04
545.774	31465.03
546.138	31450.35
546.503	31402.21
546.867	31531.93
547.231	31608.31
547.595	31777.79
547.959	31663.67
548.324	31681.3
548.688	31646.95
549.052	31732.15
549.416	31579.61
549.779	31650.79
550.143	31727.85
550.507	31931.46
550.871	31793.16
551.235	31782.54
551.599	32120.38
551.962	31870
552.326	32092.36
552.689	32023.66
553.053	31800.84
553.417	32031.35
553.78	32365.12
554.143	32240.83
554.507	32245.8
554.87	32282.64
555.234	32419.81
555.597	32213.49
555.96	32266.6
556.323	32370.55
556.686	32268.4
557.05	32549.53
557.413	32446.7
557.776	32575.29
558.139	32672.91
558.502	32713.59
558.865	32754.49
559.228	32857.99
559.59	32935.28
559.953	32904.54
560.316	33180.02
560.679	33039.23
561.041	33216.85
561.404	33317.64
561.767	33531.65
562.129	33393.35
562.492	33663.62
562.854	33635.15
563.217	33705.43
563.579	33648.71
563.941	33875.14
564.304	33950.84
564.666	34102.93
565.028	34031.75
565.39	34102.48
565.753	34210.27
566.115	34322.36
566.477	34444.16
566.839	34386.77
567.201	34666.98
567.563	34734.33
567.925	34745.85
568.287	34743.82
568.648	35047.31
569.01	35048.67
569.372	35271.26
569.734	35222.45
570.095	35320.07
570.457	35548.32
570.819	35566.17
571.18	35350.81
571.542	35729.33
571.903	35563.46
572.265	35753.28
572.626	35919.61
572.987	35827.63
573.349	35916.67
573.71	36112.37
574.071	36204.34
574.432	36306.49
574.794	36346.04
575.155	36358.24
575.516	36254.51
575.877	36464.9
576.238	36412.7
576.599	36506.94
576.96	36637.33
577.32	36720.49
577.681	36665.12
578.042	36813.82
578.403	36730.43
578.763	36590.55
579.124	36818.11
579.485	36935.85
579.845	36967.71
580.206	36916.87
580.566	36731.79
580.927	36735.63
581.287	36896.98
581.648	36775.4
582.008	36910.99
582.368	36697.67
582.728	36852.92
583.089	36739.7
583.449	36687.95
583.809	36789.19
584.169	36836.42
584.529	36718
584.889	36905.57
585.249	36719.13
585.609	36412.7
585.969	36775.86
586.329	36516.65
586.688	36534.73
587.048	36633.49
587.408	36473.04
587.768	36406.15
588.127	36425.58
588.487	36359.59
588.846	36617.67
589.206	36264.91
589.565	36297.68
589.925	36454.28
590.284	36483.66
590.643	36457.67
591.003	36226.94
591.362	36460.84
591.721	36219.26
592.08	36240.95
592.44	36468.97
592.799	36264.23
593.158	36056.78
593.517	36107.4
593.876	36177.68
594.235	36174.51
594.593	36073.27
594.952	36060.17
595.311	35963.22
595.67	36003.9
596.029	36176.77
596.387	36198.02
596.746	36245.93
597.104	36012.49
597.463	36017.68
597.822	36300.39
598.18	35939.49
598.538	35978.81
598.897	36179.03
599.255	35954.63
599.613	36316.66
599.972	36084.57
600.33	36134.74
600.688	36044.57
601.046	36147.62
601.404	36362.98
601.762	36180.62
602.12	36247.51
602.478	36222.65
602.836	36250.45
603.194	36026.04
603.552	36124.57
603.91	36188.53
604.268	36128.64
604.625	36256.09
604.983	36426.94
605.341	36159.6
605.698	36281.4
606.056	36400.72
606.413	36179.03
606.771	36448.18
607.128	36385.36
607.485	36388.07
607.843	36388.75
608.2	36627.16
608.557	36513.04
608.914	36451.8
609.272	36710.09
609.629	36874.16
609.986	36884.55
610.343	36636.2
610.7	37031.22
611.057	36791.9
611.414	36868.28
611.771	36969.07
612.127	37027.37
612.484	37090.2
612.841	37103.98
613.198	36954.38
613.554	37072.57
613.911	37501.94
614.267	37173.81
614.624	37330.19
614.98	37314.82
615.337	37541.48
615.693	37569.96
616.05	37441.37
616.406	37671.65
616.762	37540.13
617.118	37589.39
617.475	37601.82
617.831	37816.28
618.187	37880.01
618.543	37680.24
618.899	38061.92
619.255	37978.08
619.611	37959.1
619.967	38113.9
620.323	38211.98
620.678	38022.83
621.034	38064.86
621.39	37941.25
621.746	37949.16
622.101	38466.66
622.457	37984.64
622.812	38113.9
623.168	38281.35
623.523	38271.41
623.879	38288.81
624.234	38023.96
624.589	38185.76
624.945	38206.33
625.3	38203.61
625.655	38416.26
626.01	38197.06
626.365	38368.58
626.72	38174.24
627.075	38169.49
627.43	38254.91
627.785	38315.02
628.14	38210.39
628.495	38234.12
628.85	38278.64
629.205	38176.27
629.559	38425.76
629.914	38219.66
630.269	38207.46
630.623	38056.73
630.978	37933.56
631.332	38079.78
631.687	38170.39
632.041	37900.35
632.396	38018.76
632.75	37966.33
633.104	37974.92
633.459	37736.51
633.813	37887.24
634.167	37873
634.521	37762.95
634.875	37712.1
635.229	37713.23
635.583	37587.13
635.937	37629.62
636.291	37555.27
636.645	37496.74
636.999	37458.32
637.352	37435.05
637.706	37249.06
638.06	37400.7
638.413	37236.86
638.767	37127.71
639.121	37288.84
639.474	37056.98
639.828	37073.7
640.181	37092.91
640.534	37004.1
640.888	36962.29
641.241	36788.96
641.594	36748.06
641.947	36999.13
642.301	36838.68
642.654	36793.03
643.007	36774.5
643.36	36905.34
643.713	36798.91
644.066	36949.86
644.419	36654.5
644.771	36307.39
645.124	35994.63
645.477	35928.65
645.83	35821.76
646.182	36061.3
646.535	35752.15
646.888	36002.09
647.24	35825.6
647.593	36097.91
647.945	35811.36
648.298	35692.72
648.65	35594.87
649.002	35320.53
649.355	35235.1
649.707	35085.96
650.059	35210.02
650.411	35728.2
650.763	35860.4
651.115	36509.65
651.467	36289.77
651.819	36127.51
652.171	36165.02
652.523	36185.14
652.875	36256.09
653.227	36102.65
653.578	36306.71
653.93	36226.26
654.282	36139.94
654.633	36055.2
654.985	36146.72
655.337	36088.64
655.688	36111.69
656.039	36305.58
656.391	35897.46
656.742	36044.8
657.094	36224.46
657.445	36235.08
657.796	36171.58
658.147	36163.22
658.498	36208.64
658.849	36217.23
659.2	36092.48
659.551	36100.84
659.902	36346.04
660.253	36185.59
660.604	36210.45
660.955	36092.26
661.306	36394.17
661.656	36243.21
662.007	36301.74
662.358	36285.92
662.708	36340.84
663.059	36259.26
663.409	36248.64
663.76	36366.37
664.11	36431.23
664.461	36364.34
664.811	36579.7
665.161	36554.17
665.511	36330.67
665.862	36443.66
666.212	36481.63
666.562	36569.98
666.912	36468.07
667.262	36330.22
667.612	36312.82
667.962	36511.23
668.312	36327.51
668.662	36588.29
669.011	36359.14
669.361	36440.95
669.711	36435.07
670.06	36503.32
670.41	36420.84
670.76	36326.38
671.109	36452.25
671.459	36336.09
671.808	36322.08
672.157	36493.6
672.507	36169.09
672.856	36214.74
673.205	36270.56
673.554	36232.37
673.904	36209.54
674.253	36501.51
674.602	36118.02
674.951	35707.63
675.3	35633.51
675.649	36199.6
675.998	36001.41
676.346	36164.8
676.695	36077.57
677.044	35896.1
677.393	36026.27
677.741	36113.05
678.09	36018.81
678.438	35742.21
678.787	35915.54
679.135	35896.33
679.484	35643.68
679.832	35748.54
680.181	35690.23
680.529	35843
680.877	35521.2
681.225	35538.15
681.573	35698.82
681.922	35349.68
682.27	35336.57
682.618	35411.82
682.966	35226.07
683.314	35289.79
683.661	35258.38
684.009	35189.46
684.357	34996.69
684.705	34838.5
685.053	34950.37
685.4	34860.43
685.748	34752.86
686.095	34803.93
686.443	34474.22
686.79	34558.29
687.138	34593.54
687.485	34411.17
687.832	34299.76
688.18	34250.5
688.527	34145.19
688.874	34022.48
689.221	33989.26
689.568	33816.84
689.915	33684.18
690.262	33841.92
690.609	33486
690.956	33438.09
691.303	33369.84
691.65	33219.56
691.997	33145.22
692.344	32905.45
692.69	32845.34
693.037	32978.89
693.383	32744.77
693.73	32776.64
694.077	32549.98
694.423	32381.85
694.769	32333.94
695.116	32227.73
695.462	32076.54
695.808	32062.08
696.155	31886.49
696.501	31680.85
696.847	31638.14
697.193	31372.61
697.539	31303.91
697.885	31168.54
698.231	31034.76
698.577	31144.82
698.923	31011.03
699.269	30663.02
699.614	30656.92
699.96	30684.26
700.306	30486.53
700.651	30399.3
700.997	30223.26
701.342	30234.33
701.688	30100.55
702.033	29886.77
702.379	29935.81
702.724	29794.12
703.069	29729.26
703.415	29303.51
703.76	29405.43
704.105	29377.18
704.45	29387.35
704.795	29051.54
705.14	28951.2
705.485	28982.84
705.83	28701.04
706.175	28832.34
706.52	28754.82
706.865	28677.08
707.209	28588.95
707.554	28500.14
707.899	28539.24
708.243	28266.02
708.588	28300.37
708.932	28094.73
709.277	28283.2
709.621	27936.77
709.966	27855.86
710.31	27984.45
710.654	27773.15
710.998	27803.66
711.342	27871.91
711.687	27634.63
712.031	27485.25
712.375	27456.55
712.719	27367.29
713.063	27276.22
713.407	27466.27
713.75	27203.45
714.094	27254.75
714.438	27165.94
714.782	27211.36
715.125	27072.61
715.469	27095.43
715.812	26958.26
716.156	26993.74
716.499	26895.89
716.843	26861.77
717.186	26779.73
717.53	26825.38
717.873	26823.8
718.216	26779.06
718.559	26773.41
718.902	26578.84
719.246	26642.34
719.589	26495.45
719.932	26409.8
720.275	26491.38
720.617	26403.25
720.96	26270.82
721.303	26554.65
721.646	26507.2
721.989	26350.37
722.331	26384.26
722.674	26244.38
723.016	26397.6
723.359	26262.01
723.701	26302.01
724.044	26162.8
724.386	26071.96
724.729	26284.38
725.071	26311.27
725.413	26427.88
725.755	26203.93
726.097	26242.57
726.439	26146.76
726.782	26087.32
727.124	26308.56
727.465	26200.99
727.807	26047.32
728.149	26263.36
728.491	26135.23
728.833	26215
729.175	26248.9
729.516	26121.45
729.858	26171.61
730.199	26259.97
730.541	26224.27
730.882	26119.41
731.224	26166.42
731.565	26180.88
731.906	26199.41
732.248	26250.71
732.589	26112.63
732.93	26103.59
733.271	26314.44
733.612	26254.32
733.953	26323.02
734.294	26264.72
734.635	26298.16
734.976	26303.14
735.317	26223.82
735.658	26271.5
735.999	26297.94
736.339	26375
736.68	26447.31
737.021	26444.38
737.361	26308.56
737.702	26530.7
738.042	26428.1
738.383	26589.91
738.723	26549.91
739.063	26458.16
739.404	26567.54
739.744	26708.32
740.084	26779.51
740.424	26803.46
740.764	26902.44
741.104	26999.39
741.444	26954.19
741.784	26877.58
742.124	27174.53
742.464	27079.16
742.804	27292.71
743.143	27213.39
743.483	27428.76
743.823	27376.78
744.162	27523.44
744.502	27549.21
744.841	27560.96
745.181	27879.37
745.52	27874.17
745.86	28006.37
746.199	28062.41
746.538	28043.43
746.877	28294.27
747.216	28466.02
747.556	28459.01
747.895	28680.02
748.234	28815.39
748.573	28877.76
748.911	28886.8
749.25	29076.85
749.589	29045.89
749.928	29416.05
750.267	29501.92
750.605	29625.99
750.944	29745.98
751.283	29916.15
751.621	30115.47
751.96	30129.7
752.298	30251.28
752.636	30542.35
752.975	30539.86
753.313	30709.57
753.651	31015.78
753.989	30967.19
754.327	31227.75
754.666	31033.86
